%OpenBCI Raw EEG Data
%Number of channels = 8
%Sample Rate = 250 Hz
%Board = OpenBCI_GUI$BoardCytonSerial
Sample Index, EXG Channel 0, EXG Channel 1, EXG Channel 2, EXG Channel 3, EXG Channel 4, EXG Channel 5, EXG Channel 6, EXG Channel 7, Accel Channel 0, Accel Channel 1, Accel Channel 2, Other, Other, Other, Other, Other, Other, Other, Analog Channel 0, Analog Channel 1, Analog Channel 2, Timestamp, Other, Timestamp (Formatted)
159.0, 1294.680094084751, 187500.0, 187500.0, 187500.0, -187500.02235174447, -187500.02235174447, -187500.02235174447, -187500.02235174447, 0.0, 0.0, 0.0, 192.0, 0.0, 0.0, 0.0, 0.0, 0.0, 0.0, 0.0, 0.0, 0.0, 1.675809891003589E9, 0.0, 2023-02-07 17:44:51.003
160.0, 1285.3147131579774, 187500.0, 187500.0, 187500.0, -187500.02235174447, -187500.02235174447, -187500.02235174447, -187500.02235174447, 0.0, 0.0, 0.0, 192.0, 0.0, 0.0, 0.0, 0.0, 0.0, 0.0, 0.0, 0.0, 0.0, 1.675809891003612E9, 0.0, 2023-02-07 17:44:51.003
161.0, 1267.5003728270976, 187500.0, 187500.0, 187500.0, -187500.02235174447, -187500.02235174447, -187500.02235174447, -187500.02235174447, 0.016, -0.026000000000000002, -0.992, 192.0, 0.0, 128.0, 255.0, 48.0, 225.0, 0.0, 0.0, 0.0, 0.0, 1.675809891003622E9, 0.0, 2023-02-07 17:44:51.003
162.0, 1264.3934803478098, 187500.0, 187500.0, 187500.0, -187500.02235174447, -187500.02235174447, -187500.02235174447, -187500.02235174447, 0.016, -0.026000000000000002, -0.992, 192.0, 0.0, 0.0, 0.0, 0.0, 0.0, 0.0, 0.0, 0.0, 0.0, 1.675809891003633E9, 0.0, 2023-02-07 17:44:51.003
0.0, 0.0, 0.0, 0.0, 0.0, 0.0, 0.0, 0.0, 0.0, 0.016, -0.028, -0.992, 192.0, 0.0, 128.0, 255.0, 32.0, 225.0, 0.0, 0.0, 0.0, 0.0, 1.675809891114392E9, 0.0, 2023-02-07 17:44:51.114
1.0, 2853.4684006534103, 187500.0, 187500.0, 187500.0, -187500.02235174447, -187500.02235174447, -187500.02235174447, -187500.02235174447, 0.016, -0.028, -0.992, 192.0, 0.0, 0.0, 0.0, 0.0, 0.0, 0.0, 0.0, 0.0, 0.0, 1.675809891128132E9, 0.0, 2023-02-07 17:44:51.128
2.0, 2869.539304916776, 187500.0, 187500.0, 187500.0, -187500.02235174447, -187500.02235174447, -187500.02235174447, -187500.02235174447, 0.016, -0.028, -0.992, 192.0, 0.0, 0.0, 0.0, 0.0, 0.0, 0.0, 0.0, 0.0, 0.0, 1.675809891134249E9, 0.0, 2023-02-07 17:44:51.134
3.0, 2865.8512670816503, 187500.0, 187500.0, 187500.0, -187500.02235174447, -187500.02235174447, -187500.02235174447, -187500.02235174447, 0.016, -0.028, -0.992, 192.0, 0.0, 0.0, 0.0, 0.0, 0.0, 0.0, 0.0, 0.0, 0.0, 1.675809891134263E9, 0.0, 2023-02-07 17:44:51.134
4.0, 2858.18461873348, 187500.0, 187500.0, 187500.0, -187500.02235174447, -187500.02235174447, -187500.02235174447, -187500.02235174447, 0.016, -0.028, -0.992, 192.0, 0.0, 0.0, 0.0, 0.0, 0.0, 0.0, 0.0, 0.0, 0.0, 1.67580989114203E9, 0.0, 2023-02-07 17:44:51.142
5.0, 2848.4839616398767, 187500.0, 187500.0, 187500.0, -187500.02235174447, -187500.02235174447, -187500.02235174447, -187500.02235174447, 0.016, -0.028, -0.992, 192.0, 0.0, 0.0, 0.0, 0.0, 0.0, 0.0, 0.0, 0.0, 0.0, 1.675809891142045E9, 0.0, 2023-02-07 17:44:51.142
6.0, 2859.503371656343, 187500.0, 187500.0, 187500.0, -187500.02235174447, -187500.02235174447, -187500.02235174447, -187500.02235174447, 0.016, -0.028, -0.992, 192.0, 0.0, 0.0, 0.0, 0.0, 0.0, 0.0, 0.0, 0.0, 0.0, 1.675809891149989E9, 0.0, 2023-02-07 17:44:51.149
7.0, 2868.824049094206, 187500.0, 187500.0, 187500.0, -187500.02235174447, -187500.02235174447, -187500.02235174447, -187500.02235174447, 0.012, -0.026000000000000002, -0.992, 192.0, 0.0, 96.0, 255.0, 48.0, 225.0, 0.0, 0.0, 0.0, 0.0, 1.675809891150005E9, 0.0, 2023-02-07 17:44:51.150
8.0, 2868.1311450160915, 187500.0, 187500.0, 187500.0, -187500.02235174447, -187500.02235174447, -187500.02235174447, -187500.02235174447, 0.012, -0.026000000000000002, -0.992, 192.0, 0.0, 0.0, 0.0, 0.0, 0.0, 0.0, 0.0, 0.0, 0.0, 1.675809891156538E9, 0.0, 2023-02-07 17:44:51.156
9.0, 2883.732662645896, 187500.0, 187500.0, 187500.0, -187500.02235174447, -187500.02235174447, -187500.02235174447, -187500.02235174447, 0.012, -0.026000000000000002, -0.992, 192.0, 0.0, 0.0, 0.0, 0.0, 0.0, 0.0, 0.0, 0.0, 0.0, 1.675809891156552E9, 0.0, 2023-02-07 17:44:51.156
10.0, 2871.5956654066645, 187500.0, 187500.0, 187500.0, -187500.02235174447, -187500.02235174447, -187500.02235174447, -187500.02235174447, 0.012, -0.026000000000000002, -0.992, 192.0, 0.0, 0.0, 0.0, 0.0, 0.0, 0.0, 0.0, 0.0, 0.0, 1.675809891164645E9, 0.0, 2023-02-07 17:44:51.164
11.0, 2860.866828068117, 187500.0, 187500.0, 187500.0, -187500.02235174447, -187500.02235174447, -187500.02235174447, -187500.02235174447, 0.012, -0.026000000000000002, -0.992, 192.0, 0.0, 0.0, 0.0, 0.0, 0.0, 0.0, 0.0, 0.0, 0.0, 1.675809891164669E9, 0.0, 2023-02-07 17:44:51.164
12.0, 2860.866828068117, 187500.0, 187500.0, 187500.0, -187500.02235174447, -187500.02235174447, -187500.02235174447, -187500.02235174447, 0.012, -0.026000000000000002, -0.992, 192.0, 0.0, 0.0, 0.0, 0.0, 0.0, 0.0, 0.0, 0.0, 0.0, 1.675809891172606E9, 0.0, 2023-02-07 17:44:51.172
13.0, 2870.1428020170692, 187500.0, 187500.0, 187500.0, -187500.02235174447, -187500.02235174447, -187500.02235174447, -187500.02235174447, 0.012, -0.026000000000000002, -0.992, 192.0, 0.0, 0.0, 0.0, 0.0, 0.0, 0.0, 0.0, 0.0, 0.0, 1.675809891172618E9, 0.0, 2023-02-07 17:44:51.172
14.0, 2855.3012436987456, 187500.0, 187500.0, 187500.0, -187500.02235174447, -187500.02235174447, -187500.02235174447, -187500.02235174447, 0.012, -0.026000000000000002, -0.992, 192.0, 0.0, 0.0, 0.0, 0.0, 0.0, 0.0, 0.0, 0.0, 0.0, 1.675809891179749E9, 0.0, 2023-02-07 17:44:51.179
15.0, 2854.608339620631, 187500.0, 187500.0, 187500.0, -187500.02235174447, -187500.02235174447, -187500.02235174447, -187500.02235174447, 0.012, -0.026000000000000002, -0.992, 192.0, 0.0, 0.0, 0.0, 0.0, 0.0, 0.0, 0.0, 0.0, 0.0, 1.675809891179767E9, 0.0, 2023-02-07 17:44:51.179
16.0, 2845.6452900940526, 187500.0, 187500.0, 187500.0, -187500.02235174447, -187500.02235174447, -187500.02235174447, -187500.02235174447, 0.012, -0.026000000000000002, -0.992, 192.0, 0.0, 0.0, 0.0, 0.0, 0.0, 0.0, 0.0, 0.0, 0.0, 1.675809891186317E9, 0.0, 2023-02-07 17:44:51.186
17.0, 2841.2643481808127, 187500.0, 187500.0, 187500.0, -187500.02235174447, -187500.02235174447, -187500.02235174447, -187500.02235174447, 0.012, -0.024, -0.99, 192.0, 0.0, 96.0, 255.0, 64.0, 225.0, 16.0, 0.0, 0.0, 0.0, 1.675809891194295E9, 0.0, 2023-02-07 17:44:51.194
18.0, 2860.822124579206, 187500.0, 187500.0, 187500.0, -187500.02235174447, -187500.02235174447, -187500.02235174447, -187500.02235174447, 0.012, -0.024, -0.99, 192.0, 0.0, 0.0, 0.0, 0.0, 0.0, 0.0, 0.0, 0.0, 0.0, 1.675809891194312E9, 0.0, 2023-02-07 17:44:51.194
19.0, 2874.9707788194155, 187500.0, 187500.0, 187500.0, -187500.02235174447, -187500.02235174447, -187500.02235174447, -187500.02235174447, 0.012, -0.024, -0.99, 192.0, 0.0, 0.0, 0.0, 0.0, 0.0, 0.0, 0.0, 0.0, 0.0, 1.675809891202415E9, 0.0, 2023-02-07 17:44:51.202
20.0, 2858.9445780449605, 187500.0, 187500.0, 187500.0, -187500.02235174447, -187500.02235174447, -187500.02235174447, -187500.02235174447, 0.012, -0.024, -0.99, 192.0, 0.0, 0.0, 0.0, 0.0, 0.0, 0.0, 0.0, 0.0, 0.0, 1.675809891202441E9, 0.0, 2023-02-07 17:44:51.202
21.0, 2846.114676727614, 187500.0, 187500.0, 187500.0, -187500.02235174447, -187500.02235174447, -187500.02235174447, -187500.02235174447, 0.012, -0.024, -0.99, 192.0, 0.0, 0.0, 0.0, 0.0, 0.0, 0.0, 0.0, 0.0, 0.0, 1.675809891209432E9, 0.0, 2023-02-07 17:44:51.209
22.0, 2850.5850256186754, 187500.0, 187500.0, 187500.0, -187500.02235174447, -187500.02235174447, -187500.02235174447, -187500.02235174447, 0.012, -0.024, -0.99, 192.0, 0.0, 0.0, 0.0, 0.0, 0.0, 0.0, 0.0, 0.0, 0.0, 1.675809891209451E9, 0.0, 2023-02-07 17:44:51.209
23.0, 2879.1729067770134, 187500.0, 187500.0, 187500.0, -187500.02235174447, -187500.02235174447, -187500.02235174447, -187500.02235174447, 0.012, -0.024, -0.99, 192.0, 0.0, 0.0, 0.0, 0.0, 0.0, 0.0, 0.0, 0.0, 0.0, 1.67580989121687E9, 0.0, 2023-02-07 17:44:51.216
24.0, 2880.089328299681, 187500.0, 187500.0, 187500.0, -187500.02235174447, -187500.02235174447, -187500.02235174447, -187500.02235174447, 0.012, -0.024, -0.99, 192.0, 0.0, 0.0, 0.0, 0.0, 0.0, 0.0, 0.0, 0.0, 0.0, 1.67580989121689E9, 0.0, 2023-02-07 17:44:51.216
25.0, 2869.025214794304, 187500.0, 187500.0, 187500.0, -187500.02235174447, -187500.02235174447, -187500.02235174447, -187500.02235174447, 0.012, -0.024, -0.99, 192.0, 0.0, 0.0, 0.0, 0.0, 0.0, 0.0, 0.0, 0.0, 0.0, 1.675809891224897E9, 0.0, 2023-02-07 17:44:51.224
26.0, 2878.256485254346, 187500.0, 187500.0, 187500.0, -187500.02235174447, -187500.02235174447, -187500.02235174447, -187500.02235174447, 0.012, -0.024, -0.99, 192.0, 0.0, 0.0, 0.0, 0.0, 0.0, 0.0, 0.0, 0.0, 0.0, 1.675809891224915E9, 0.0, 2023-02-07 17:44:51.224
27.0, 2910.6218112256306, 187500.0, 187500.0, 187500.0, -187500.02235174447, -187500.02235174447, -187500.02235174447, -187500.02235174447, 0.01, -0.026000000000000002, -0.994, 192.0, 0.0, 80.0, 255.0, 48.0, 224.0, 240.0, 0.0, 0.0, 0.0, 1.675809891232123E9, 0.0, 2023-02-07 17:44:51.232
28.0, 2899.4235872535214, 187500.0, 187500.0, 187500.0, -187500.02235174447, -187500.02235174447, -187500.02235174447, -187500.02235174447, 0.01, -0.026000000000000002, -0.994, 192.0, 0.0, 0.0, 0.0, 0.0, 0.0, 0.0, 0.0, 0.0, 0.0, 1.675809891232137E9, 0.0, 2023-02-07 17:44:51.232
29.0, 2851.4790953968877, 187500.0, 187500.0, 187500.0, -187500.02235174447, -187500.02235174447, -187500.02235174447, -187500.02235174447, 0.01, -0.026000000000000002, -0.994, 192.0, 0.0, 0.0, 0.0, 0.0, 0.0, 0.0, 0.0, 0.0, 0.0, 1.675809891239498E9, 0.0, 2023-02-07 17:44:51.239
30.0, 2874.2778747413013, 187500.0, 187500.0, 187500.0, -187500.02235174447, -187500.02235174447, -187500.02235174447, -187500.02235174447, 0.01, -0.026000000000000002, -0.994, 192.0, 0.0, 0.0, 0.0, 0.0, 0.0, 0.0, 0.0, 0.0, 0.0, 1.675809891239521E9, 0.0, 2023-02-07 17:44:51.239
31.0, 2888.9406191039825, 187500.0, 187500.0, 187500.0, -187500.02235174447, -187500.02235174447, -187500.02235174447, -187500.02235174447, 0.01, -0.026000000000000002, -0.994, 192.0, 0.0, 0.0, 0.0, 0.0, 0.0, 0.0, 0.0, 0.0, 0.0, 1.675809891246561E9, 0.0, 2023-02-07 17:44:51.246
32.0, 2909.3254100472227, 187500.0, 187500.0, 187500.0, -187500.02235174447, -187500.02235174447, -187500.02235174447, -187500.02235174447, 0.01, -0.026000000000000002, -0.994, 192.0, 0.0, 0.0, 0.0, 0.0, 0.0, 0.0, 0.0, 0.0, 0.0, 1.67580989125459E9, 0.0, 2023-02-07 17:44:51.254
33.0, 2875.641331153075, 187500.0, 187500.0, 187500.0, -187500.02235174447, -187500.02235174447, -187500.02235174447, -187500.02235174447, 0.01, -0.026000000000000002, -0.994, 192.0, 0.0, 0.0, 0.0, 0.0, 0.0, 0.0, 0.0, 0.0, 0.0, 1.675809891254602E9, 0.0, 2023-02-07 17:44:51.254
34.0, 2853.915435542516, 187500.0, 187500.0, 187500.0, -187500.02235174447, -187500.02235174447, -187500.02235174447, -187500.02235174447, 0.01, -0.026000000000000002, -0.994, 192.0, 0.0, 0.0, 0.0, 0.0, 0.0, 0.0, 0.0, 0.0, 0.0, 1.675809891261778E9, 0.0, 2023-02-07 17:44:51.261
35.0, 2870.545133417265, 187500.0, 187500.0, 187500.0, -187500.02235174447, -187500.02235174447, -187500.02235174447, -187500.02235174447, 0.01, -0.026000000000000002, -0.994, 192.0, 0.0, 0.0, 0.0, 0.0, 0.0, 0.0, 0.0, 0.0, 0.0, 1.675809891261792E9, 0.0, 2023-02-07 17:44:51.261
36.0, 2897.0095988523485, 187500.0, 187500.0, 187500.0, -187500.02235174447, -187500.02235174447, -187500.02235174447, -187500.02235174447, 0.01, -0.026000000000000002, -0.994, 192.0, 0.0, 0.0, 0.0, 0.0, 0.0, 0.0, 0.0, 0.0, 0.0, 1.675809891269104E9, 0.0, 2023-02-07 17:44:51.269
37.0, 2893.567430206231, 187500.0, 187500.0, 187500.0, -187500.02235174447, -187500.02235174447, -187500.02235174447, -187500.02235174447, 0.01, -0.024, -0.99, 192.0, 0.0, 80.0, 255.0, 64.0, 225.0, 16.0, 0.0, 0.0, 0.0, 1.67580989126912E9, 0.0, 2023-02-07 17:44:51.269
38.0, 2883.196220778969, 187500.0, 187500.0, 187500.0, -187500.02235174447, -187500.02235174447, -187500.02235174447, -187500.02235174447, 0.01, -0.024, -0.99, 192.0, 0.0, 0.0, 0.0, 0.0, 0.0, 0.0, 0.0, 0.0, 0.0, 1.675809891277304E9, 0.0, 2023-02-07 17:44:51.277
39.0, 2879.575238177209, 187500.0, 187500.0, 187500.0, -187500.02235174447, -187500.02235174447, -187500.02235174447, -187500.02235174447, 0.01, -0.024, -0.99, 192.0, 0.0, 0.0, 0.0, 0.0, 0.0, 0.0, 0.0, 0.0, 0.0, 1.675809891277324E9, 0.0, 2023-02-07 17:44:51.277
40.0, 2888.0689010702254, 187500.0, 187500.0, 187500.0, -187500.02235174447, -187500.02235174447, -187500.02235174447, -187500.02235174447, 0.01, -0.024, -0.99, 192.0, 0.0, 0.0, 0.0, 0.0, 0.0, 0.0, 0.0, 0.0, 0.0, 1.675809891285262E9, 0.0, 2023-02-07 17:44:51.285
41.0, 2869.0699182832145, 187500.0, 187500.0, 187500.0, -187500.02235174447, -187500.02235174447, -187500.02235174447, -187500.02235174447, 0.01, -0.024, -0.99, 192.0, 0.0, 0.0, 0.0, 0.0, 0.0, 0.0, 0.0, 0.0, 0.0, 1.675809891285287E9, 0.0, 2023-02-07 17:44:51.285
42.0, 2866.94650255996, 187500.0, 187500.0, 187500.0, -187500.02235174447, -187500.02235174447, -187500.02235174447, -187500.02235174447, 0.01, -0.024, -0.99, 192.0, 0.0, 0.0, 0.0, 0.0, 0.0, 0.0, 0.0, 0.0, 0.0, 1.675809891291824E9, 0.0, 2023-02-07 17:44:51.291
43.0, 2894.662665684541, 187500.0, 187500.0, 187500.0, -187500.02235174447, -187500.02235174447, -187500.02235174447, -187500.02235174447, 0.01, -0.024, -0.99, 192.0, 0.0, 0.0, 0.0, 0.0, 0.0, 0.0, 0.0, 0.0, 0.0, 1.67580989129184E9, 0.0, 2023-02-07 17:44:51.291
44.0, 2914.131035105114, 187500.0, 187500.0, 187500.0, -187500.02235174447, -187500.02235174447, -187500.02235174447, -187500.02235174447, 0.01, -0.024, -0.99, 192.0, 0.0, 0.0, 0.0, 0.0, 0.0, 0.0, 0.0, 0.0, 0.0, 1.675809891299805E9, 0.0, 2023-02-07 17:44:51.299
45.0, 2896.182584307502, 187500.0, 187500.0, 187500.0, -187500.02235174447, -187500.02235174447, -187500.02235174447, -187500.02235174447, 0.01, -0.024, -0.99, 192.0, 0.0, 0.0, 0.0, 0.0, 0.0, 0.0, 0.0, 0.0, 0.0, 1.675809891299823E9, 0.0, 2023-02-07 17:44:51.299
46.0, 2892.8298226392058, 187500.0, 187500.0, 187500.0, -187500.02235174447, -187500.02235174447, -187500.02235174447, -187500.02235174447, 0.01, -0.024, -0.99, 192.0, 0.0, 0.0, 0.0, 0.0, 0.0, 0.0, 0.0, 0.0, 0.0, 1.675809891306761E9, 0.0, 2023-02-07 17:44:51.306
47.0, 2858.810467578229, 187500.0, 187500.0, 187500.0, -187500.02235174447, -187500.02235174447, -187500.02235174447, -187500.02235174447, 0.01, -0.026000000000000002, -0.988, 192.0, 0.0, 80.0, 255.0, 48.0, 225.0, 32.0, 0.0, 0.0, 0.0, 1.675809891314847E9, 0.0, 2023-02-07 17:44:51.314
48.0, 2895.087348829192, 187500.0, 187500.0, 187500.0, -187500.02235174447, -187500.02235174447, -187500.02235174447, -187500.02235174447, 0.01, -0.026000000000000002, -0.988, 192.0, 0.0, 0.0, 0.0, 0.0, 0.0, 0.0, 0.0, 0.0, 0.0, 1.675809891314864E9, 0.0, 2023-02-07 17:44:51.314
49.0, 2899.7141599314405, 187500.0, 187500.0, 187500.0, -187500.02235174447, -187500.02235174447, -187500.02235174447, -187500.02235174447, 0.01, -0.026000000000000002, -0.988, 192.0, 0.0, 0.0, 0.0, 0.0, 0.0, 0.0, 0.0, 0.0, 0.0, 1.675809891321514E9, 0.0, 2023-02-07 17:44:51.321
50.0, 2883.307979501245, 187500.0, 187500.0, 187500.0, -187500.02235174447, -187500.02235174447, -187500.02235174447, -187500.02235174447, 0.01, -0.026000000000000002, -0.988, 192.0, 0.0, 0.0, 0.0, 0.0, 0.0, 0.0, 0.0, 0.0, 0.0, 1.675809891321535E9, 0.0, 2023-02-07 17:44:51.321
51.0, 2909.7500931918735, 187500.0, 187500.0, 187500.0, -187500.02235174447, -187500.02235174447, -187500.02235174447, -187500.02235174447, 0.01, -0.026000000000000002, -0.988, 192.0, 0.0, 0.0, 0.0, 0.0, 0.0, 0.0, 0.0, 0.0, 0.0, 1.675809891329494E9, 0.0, 2023-02-07 17:44:51.329
52.0, 2935.2310818709234, 187500.0, 187500.0, 187500.0, -187500.02235174447, -187500.02235174447, -187500.02235174447, -187500.02235174447, 0.01, -0.026000000000000002, -0.988, 192.0, 0.0, 0.0, 0.0, 0.0, 0.0, 0.0, 0.0, 0.0, 0.0, 1.675809891329505E9, 0.0, 2023-02-07 17:44:51.329
53.0, 2899.244773297879, 187500.0, 187500.0, 187500.0, -187500.02235174447, -187500.02235174447, -187500.02235174447, -187500.02235174447, 0.01, -0.026000000000000002, -0.988, 192.0, 0.0, 0.0, 0.0, 0.0, 0.0, 0.0, 0.0, 0.0, 0.0, 1.675809891337495E9, 0.0, 2023-02-07 17:44:51.337
54.0, 2838.4256766349886, 187500.0, 187500.0, 187500.0, -187500.02235174447, -187500.02235174447, -187500.02235174447, -187500.02235174447, 0.01, -0.026000000000000002, -0.988, 192.0, 0.0, 0.0, 0.0, 0.0, 0.0, 0.0, 0.0, 0.0, 0.0, 1.675809891337512E9, 0.0, 2023-02-07 17:44:51.337
55.0, 2858.743412344863, 187500.0, 187500.0, 187500.0, -187500.02235174447, -187500.02235174447, -187500.02235174447, -187500.02235174447, 0.01, -0.026000000000000002, -0.988, 192.0, 0.0, 0.0, 0.0, 0.0, 0.0, 0.0, 0.0, 0.0, 0.0, 1.675809891344815E9, 0.0, 2023-02-07 17:44:51.344
56.0, 2883.3303312457006, 187500.0, 187500.0, 187500.0, -187500.02235174447, -187500.02235174447, -187500.02235174447, -187500.02235174447, 0.01, -0.026000000000000002, -0.988, 192.0, 0.0, 0.0, 0.0, 0.0, 0.0, 0.0, 0.0, 0.0, 0.0, 1.67580989134483E9, 0.0, 2023-02-07 17:44:51.344
57.0, 2909.1912995804905, 187500.0, 187500.0, 187500.0, -187500.02235174447, -187500.02235174447, -187500.02235174447, -187500.02235174447, 0.01, -0.028, -0.992, 192.0, 0.0, 80.0, 255.0, 32.0, 225.0, 0.0, 0.0, 0.0, 0.0, 1.675809891352912E9, 0.0, 2023-02-07 17:44:51.352
58.0, 2925.7762939663285, 187500.0, 187500.0, 187500.0, -187500.02235174447, -187500.02235174447, -187500.02235174447, -187500.02235174447, 0.01, -0.028, -0.992, 192.0, 0.0, 0.0, 0.0, 0.0, 0.0, 0.0, 0.0, 0.0, 0.0, 1.675809891352927E9, 0.0, 2023-02-07 17:44:51.352
59.0, 2996.631323889652, 187500.0, 187500.0, 187500.0, -187500.02235174447, -187500.02235174447, -187500.02235174447, -187500.02235174447, 0.01, -0.028, -0.992, 192.0, 0.0, 0.0, 0.0, 0.0, 0.0, 0.0, 0.0, 0.0, 0.0, 1.675809891359754E9, 0.0, 2023-02-07 17:44:51.359
60.0, 3043.5923389902523, 187500.0, 187500.0, 187500.0, -187500.02235174447, -187500.02235174447, -187500.02235174447, -187500.02235174447, 0.01, -0.028, -0.992, 192.0, 0.0, 0.0, 0.0, 0.0, 0.0, 0.0, 0.0, 0.0, 0.0, 1.675809891359781E9, 0.0, 2023-02-07 17:44:51.359
61.0, 2923.0046776538707, 187500.0, 187500.0, 187500.0, -187500.02235174447, -187500.02235174447, -187500.02235174447, -187500.02235174447, 0.01, -0.028, -0.992, 192.0, 0.0, 0.0, 0.0, 0.0, 0.0, 0.0, 0.0, 0.0, 0.0, 1.675809891366472E9, 0.0, 2023-02-07 17:44:51.366
62.0, 2864.1972379919575, 187500.0, 187500.0, 187500.0, -187500.02235174447, -187500.02235174447, -187500.02235174447, -187500.02235174447, 0.01, -0.028, -0.992, 192.0, 0.0, 0.0, 0.0, 0.0, 0.0, 0.0, 0.0, 0.0, 0.0, 1.67580989136649E9, 0.0, 2023-02-07 17:44:51.366
63.0, 2853.669566353508, 187500.0, 187500.0, 187500.0, -187500.02235174447, -187500.02235174447, -187500.02235174447, -187500.02235174447, 0.01, -0.028, -0.992, 192.0, 0.0, 0.0, 0.0, 0.0, 0.0, 0.0, 0.0, 0.0, 0.0, 1.675809891374588E9, 0.0, 2023-02-07 17:44:51.374
64.0, 2876.5801044201976, 187500.0, 187500.0, 187500.0, -187500.02235174447, -187500.02235174447, -187500.02235174447, -187500.02235174447, 0.01, -0.028, -0.992, 192.0, 0.0, 0.0, 0.0, 0.0, 0.0, 0.0, 0.0, 0.0, 0.0, 1.675809891382514E9, 0.0, 2023-02-07 17:44:51.382
65.0, 2895.66849418503, 187500.0, 187500.0, 187500.0, -187500.02235174447, -187500.02235174447, -187500.02235174447, -187500.02235174447, 0.01, -0.028, -0.992, 192.0, 0.0, 0.0, 0.0, 0.0, 0.0, 0.0, 0.0, 0.0, 0.0, 1.675809891382529E9, 0.0, 2023-02-07 17:44:51.382
66.0, 2884.917305102027, 187500.0, 187500.0, 187500.0, -187500.02235174447, -187500.02235174447, -187500.02235174447, -187500.02235174447, 0.006, -0.026000000000000002, -0.994, 192.0, 0.0, 48.0, 255.0, 48.0, 224.0, 240.0, 0.0, 0.0, 0.0, 1.675809891389049E9, 0.0, 2023-02-07 17:44:51.389
67.0, 2887.8453836256726, 187500.0, 187500.0, 187500.0, -187500.02235174447, -187500.02235174447, -187500.02235174447, -187500.02235174447, 0.006, -0.026000000000000002, -0.994, 192.0, 0.0, 0.0, 0.0, 0.0, 0.0, 0.0, 0.0, 0.0, 0.0, 1.675809891389062E9, 0.0, 2023-02-07 17:44:51.389
68.0, 2896.920191874527, 187500.0, 187500.0, 187500.0, -187500.02235174447, -187500.02235174447, -187500.02235174447, -187500.02235174447, 0.006, -0.026000000000000002, -0.994, 192.0, 0.0, 0.0, 0.0, 0.0, 0.0, 0.0, 0.0, 0.0, 0.0, 1.675809891397172E9, 0.0, 2023-02-07 17:44:51.397
69.0, 2908.4313402690104, 187500.0, 187500.0, 187500.0, -187500.02235174447, -187500.02235174447, -187500.02235174447, -187500.02235174447, 0.006, -0.026000000000000002, -0.994, 192.0, 0.0, 0.0, 0.0, 0.0, 0.0, 0.0, 0.0, 0.0, 0.0, 1.675809891397192E9, 0.0, 2023-02-07 17:44:51.397
70.0, 2897.4119302525437, 187500.0, 187500.0, 187500.0, -187500.02235174447, -187500.02235174447, -187500.02235174447, -187500.02235174447, 0.006, -0.026000000000000002, -0.994, 192.0, 0.0, 0.0, 0.0, 0.0, 0.0, 0.0, 0.0, 0.0, 0.0, 1.675809891405394E9, 0.0, 2023-02-07 17:44:51.405
71.0, 2884.1349940460914, 187500.0, 187500.0, 187500.0, -187500.02235174447, -187500.02235174447, -187500.02235174447, -187500.02235174447, 0.006, -0.026000000000000002, -0.994, 192.0, 0.0, 0.0, 0.0, 0.0, 0.0, 0.0, 0.0, 0.0, 0.0, 1.675809891405416E9, 0.0, 2023-02-07 17:44:51.405
72.0, 2879.1729067770134, 187500.0, 187500.0, 187500.0, -187500.02235174447, -187500.02235174447, -187500.02235174447, -187500.02235174447, 0.006, -0.026000000000000002, -0.994, 192.0, 0.0, 0.0, 0.0, 0.0, 0.0, 0.0, 0.0, 0.0, 0.0, 1.675809891412109E9, 0.0, 2023-02-07 17:44:51.412
73.0, 2901.725816932418, 187500.0, 187500.0, 187500.0, -187500.02235174447, -187500.02235174447, -187500.02235174447, -187500.02235174447, 0.006, -0.026000000000000002, -0.994, 192.0, 0.0, 0.0, 0.0, 0.0, 0.0, 0.0, 0.0, 0.0, 0.0, 1.675809891412127E9, 0.0, 2023-02-07 17:44:51.412
74.0, 2892.8298226392058, 187500.0, 187500.0, 187500.0, -187500.02235174447, -187500.02235174447, -187500.02235174447, -187500.02235174447, 0.006, -0.026000000000000002, -0.994, 192.0, 0.0, 0.0, 0.0, 0.0, 0.0, 0.0, 0.0, 0.0, 0.0, 1.675809891419654E9, 0.0, 2023-02-07 17:44:51.419
75.0, 2886.2584097693457, 187500.0, 187500.0, 187500.0, -187500.02235174447, -187500.02235174447, -187500.02235174447, -187500.02235174447, 0.006, -0.026000000000000002, -0.994, 192.0, 0.0, 0.0, 0.0, 0.0, 0.0, 0.0, 0.0, 0.0, 0.0, 1.675809891419666E9, 0.0, 2023-02-07 17:44:51.419
76.0, 2907.9396018909933, 187500.0, 187500.0, 187500.0, -187500.02235174447, -187500.02235174447, -187500.02235174447, -187500.02235174447, 0.012, -0.024, -0.988, 192.0, 0.0, 96.0, 255.0, 64.0, 225.0, 32.0, 0.0, 0.0, 0.0, 1.675809891427666E9, 0.0, 2023-02-07 17:44:51.427
77.0, 2917.6402589845966, 187500.0, 187500.0, 187500.0, -187500.02235174447, -187500.02235174447, -187500.02235174447, -187500.02235174447, 0.012, -0.024, -0.988, 192.0, 0.0, 0.0, 0.0, 0.0, 0.0, 0.0, 0.0, 0.0, 0.0, 1.675809891427679E9, 0.0, 2023-02-07 17:44:51.427
78.0, 2910.7335699479067, 187500.0, 187500.0, 187500.0, -187500.02235174447, -187500.02235174447, -187500.02235174447, -187500.02235174447, 0.012, -0.024, -0.988, 192.0, 0.0, 0.0, 0.0, 0.0, 0.0, 0.0, 0.0, 0.0, 0.0, 1.675809891434706E9, 0.0, 2023-02-07 17:44:51.434
79.0, 2904.8997646450716, 187500.0, 187500.0, 187500.0, -187500.02235174447, -187500.02235174447, -187500.02235174447, -187500.02235174447, 0.012, -0.024, -0.988, 192.0, 0.0, 0.0, 0.0, 0.0, 0.0, 0.0, 0.0, 0.0, 0.0, 1.675809891442231E9, 0.0, 2023-02-07 17:44:51.442
80.0, 2972.089108477725, 187500.0, 187500.0, 187500.0, -187500.02235174447, -187500.02235174447, -187500.02235174447, -187500.02235174447, 0.012, -0.024, -0.988, 192.0, 0.0, 0.0, 0.0, 0.0, 0.0, 0.0, 0.0, 0.0, 0.0, 1.675809891442254E9, 0.0, 2023-02-07 17:44:51.442
81.0, 2930.4925120463986, 187500.0, 187500.0, 187500.0, -187500.02235174447, -187500.02235174447, -187500.02235174447, -187500.02235174447, 0.012, -0.024, -0.988, 192.0, 0.0, 0.0, 0.0, 0.0, 0.0, 0.0, 0.0, 0.0, 0.0, 1.675809891449329E9, 0.0, 2023-02-07 17:44:51.449
82.0, 2875.4625171974326, 187500.0, 187500.0, 187500.0, -187500.02235174447, -187500.02235174447, -187500.02235174447, -187500.02235174447, 0.012, -0.024, -0.988, 192.0, 0.0, 0.0, 0.0, 0.0, 0.0, 0.0, 0.0, 0.0, 0.0, 1.675809891449353E9, 0.0, 2023-02-07 17:44:51.449
83.0, 2919.048418885281, 187500.0, 187500.0, 187500.0, -187500.02235174447, -187500.02235174447, -187500.02235174447, -187500.02235174447, 0.012, -0.024, -0.988, 192.0, 0.0, 0.0, 0.0, 0.0, 0.0, 0.0, 0.0, 0.0, 0.0, 1.675809891458156E9, 0.0, 2023-02-07 17:44:51.458
84.0, 2866.253598481846, 187500.0, 187500.0, 187500.0, -187500.02235174447, -187500.02235174447, -187500.02235174447, -187500.02235174447, 0.012, -0.024, -0.988, 192.0, 0.0, 0.0, 0.0, 0.0, 0.0, 0.0, 0.0, 0.0, 0.0, 1.675809891458173E9, 0.0, 2023-02-07 17:44:51.458
85.0, 2935.1640266375575, 187500.0, 187500.0, 187500.0, -187500.02235174447, -187500.02235174447, -187500.02235174447, -187500.02235174447, 0.012, -0.024, -0.988, 192.0, 0.0, 0.0, 0.0, 0.0, 0.0, 0.0, 0.0, 0.0, 0.0, 1.675809891465396E9, 0.0, 2023-02-07 17:44:51.465
86.0, 2980.895695793116, 187500.0, 187500.0, 187500.0, -187500.02235174447, -187500.02235174447, -187500.02235174447, -187500.02235174447, 0.012, -0.028, -0.992, 192.0, 0.0, 96.0, 255.0, 32.0, 225.0, 0.0, 0.0, 0.0, 0.0, 1.675809891465411E9, 0.0, 2023-02-07 17:44:51.465
87.0, 2927.8773579451276, 187500.0, 187500.0, 187500.0, -187500.02235174447, -187500.02235174447, -187500.02235174447, -187500.02235174447, 0.012, -0.028, -0.992, 192.0, 0.0, 0.0, 0.0, 0.0, 0.0, 0.0, 0.0, 0.0, 0.0, 1.675809891471934E9, 0.0, 2023-02-07 17:44:51.471
88.0, 2858.3634326891224, 187500.0, 187500.0, 187500.0, -187500.02235174447, -187500.02235174447, -187500.02235174447, -187500.02235174447, 0.012, -0.028, -0.992, 192.0, 0.0, 0.0, 0.0, 0.0, 0.0, 0.0, 0.0, 0.0, 0.0, 1.675809891471951E9, 0.0, 2023-02-07 17:44:51.471
89.0, 2883.1738690345132, 187500.0, 187500.0, 187500.0, -187500.02235174447, -187500.02235174447, -187500.02235174447, -187500.02235174447, 0.012, -0.028, -0.992, 192.0, 0.0, 0.0, 0.0, 0.0, 0.0, 0.0, 0.0, 0.0, 0.0, 1.675809891479961E9, 0.0, 2023-02-07 17:44:51.479
90.0, 2864.7113281144298, 187500.0, 187500.0, 187500.0, -187500.02235174447, -187500.02235174447, -187500.02235174447, -187500.02235174447, 0.012, -0.028, -0.992, 192.0, 0.0, 0.0, 0.0, 0.0, 0.0, 0.0, 0.0, 0.0, 0.0, 1.675809891479981E9, 0.0, 2023-02-07 17:44:51.479
91.0, 2857.536418144276, 187500.0, 187500.0, 187500.0, -187500.02235174447, -187500.02235174447, -187500.02235174447, -187500.02235174447, 0.012, -0.028, -0.992, 192.0, 0.0, 0.0, 0.0, 0.0, 0.0, 0.0, 0.0, 0.0, 0.0, 1.675809891488008E9, 0.0, 2023-02-07 17:44:51.488
92.0, 2868.4217176940106, 187500.0, 187500.0, 187500.0, -187500.02235174447, -187500.02235174447, -187500.02235174447, -187500.02235174447, 0.012, -0.028, -0.992, 192.0, 0.0, 0.0, 0.0, 0.0, 0.0, 0.0, 0.0, 0.0, 0.0, 1.67580989148803E9, 0.0, 2023-02-07 17:44:51.488
93.0, 2887.3536452476555, 187500.0, 187500.0, 187500.0, -187500.02235174447, -187500.02235174447, -187500.02235174447, -187500.02235174447, 0.012, -0.028, -0.992, 192.0, 0.0, 0.0, 0.0, 0.0, 0.0, 0.0, 0.0, 0.0, 0.0, 1.675809891495195E9, 0.0, 2023-02-07 17:44:51.495
94.0, 2882.838592867684, 187500.0, 187500.0, 187500.0, -187500.02235174447, -187500.02235174447, -187500.02235174447, -187500.02235174447, 0.012, -0.028, -0.992, 192.0, 0.0, 0.0, 0.0, 0.0, 0.0, 0.0, 0.0, 0.0, 0.0, 1.675809891501576E9, 0.0, 2023-02-07 17:44:51.501
95.0, 2874.747261374863, 187500.0, 187500.0, 187500.0, -187500.02235174447, -187500.02235174447, -187500.02235174447, -187500.02235174447, 0.012, -0.028, -0.992, 192.0, 0.0, 0.0, 0.0, 0.0, 0.0, 0.0, 0.0, 0.0, 0.0, 1.67580989150159E9, 0.0, 2023-02-07 17:44:51.501
96.0, 2873.182639262991, 187500.0, 187500.0, 187500.0, -187500.02235174447, -187500.02235174447, -187500.02235174447, -187500.02235174447, 0.01, -0.028, -0.996, 192.0, 0.0, 80.0, 255.0, 32.0, 224.0, 224.0, 0.0, 0.0, 0.0, 1.675809891509573E9, 0.0, 2023-02-07 17:44:51.509
97.0, 2876.4236422090107, 187500.0, 187500.0, 187500.0, -187500.02235174447, -187500.02235174447, -187500.02235174447, -187500.02235174447, 0.01, -0.028, -0.996, 192.0, 0.0, 0.0, 0.0, 0.0, 0.0, 0.0, 0.0, 0.0, 0.0, 1.675809891509588E9, 0.0, 2023-02-07 17:44:51.509
98.0, 2887.5995144366643, 187500.0, 187500.0, 187500.0, -187500.02235174447, -187500.02235174447, -187500.02235174447, -187500.02235174447, 0.01, -0.028, -0.996, 192.0, 0.0, 0.0, 0.0, 0.0, 0.0, 0.0, 0.0, 0.0, 0.0, 1.675809891517616E9, 0.0, 2023-02-07 17:44:51.517
99.0, 2886.2360580248906, 187500.0, 187500.0, 187500.0, -187500.02235174447, -187500.02235174447, -187500.02235174447, -187500.02235174447, 0.01, -0.028, -0.996, 192.0, 0.0, 0.0, 0.0, 0.0, 0.0, 0.0, 0.0, 0.0, 0.0, 1.67580989151764E9, 0.0, 2023-02-07 17:44:51.517
100.0, 2881.698653900463, 187500.0, 187500.0, 187500.0, -187500.02235174447, -187500.02235174447, -187500.02235174447, -187500.02235174447, 0.01, -0.028, -0.996, 192.0, 0.0, 0.0, 0.0, 0.0, 0.0, 0.0, 0.0, 0.0, 0.0, 1.675809891524952E9, 0.0, 2023-02-07 17:44:51.524
101.0, 2895.534383718298, 187500.0, 187500.0, 187500.0, -187500.02235174447, -187500.02235174447, -187500.02235174447, -187500.02235174447, 0.01, -0.028, -0.996, 192.0, 0.0, 0.0, 0.0, 0.0, 0.0, 0.0, 0.0, 0.0, 0.0, 1.675809891524972E9, 0.0, 2023-02-07 17:44:51.524
102.0, 2895.623790696119, 187500.0, 187500.0, 187500.0, -187500.02235174447, -187500.02235174447, -187500.02235174447, -187500.02235174447, 0.01, -0.028, -0.996, 192.0, 0.0, 0.0, 0.0, 0.0, 0.0, 0.0, 0.0, 0.0, 0.0, 1.675809891532336E9, 0.0, 2023-02-07 17:44:51.532
103.0, 2901.9493343769714, 187500.0, 187500.0, 187500.0, -187500.02235174447, -187500.02235174447, -187500.02235174447, -187500.02235174447, 0.01, -0.028, -0.996, 192.0, 0.0, 0.0, 0.0, 0.0, 0.0, 0.0, 0.0, 0.0, 0.0, 1.675809891532353E9, 0.0, 2023-02-07 17:44:51.532
104.0, 2930.447808557488, 187500.0, 187500.0, 187500.0, -187500.02235174447, -187500.02235174447, -187500.02235174447, -187500.02235174447, 0.01, -0.028, -0.996, 192.0, 0.0, 0.0, 0.0, 0.0, 0.0, 0.0, 0.0, 0.0, 0.0, 1.675809891540315E9, 0.0, 2023-02-07 17:44:51.540
105.0, 2905.346799534178, 187500.0, 187500.0, 187500.0, -187500.02235174447, -187500.02235174447, -187500.02235174447, -187500.02235174447, 0.01, -0.028, -0.996, 192.0, 0.0, 0.0, 0.0, 0.0, 0.0, 0.0, 0.0, 0.0, 0.0, 1.675809891540331E9, 0.0, 2023-02-07 17:44:51.540
106.0, 2911.9405641484936, 187500.0, 187500.0, 187500.0, -187500.02235174447, -187500.02235174447, -187500.02235174447, -187500.02235174447, 0.012, -0.026000000000000002, -0.99, 192.0, 0.0, 96.0, 255.0, 48.0, 225.0, 16.0, 0.0, 0.0, 0.0, 1.675809891548216E9, 0.0, 2023-02-07 17:44:51.548
107.0, 2863.861961825128, 187500.0, 187500.0, 187500.0, -187500.02235174447, -187500.02235174447, -187500.02235174447, -187500.02235174447, 0.012, -0.026000000000000002, -0.99, 192.0, 0.0, 0.0, 0.0, 0.0, 0.0, 0.0, 0.0, 0.0, 0.0, 1.675809891548232E9, 0.0, 2023-02-07 17:44:51.548
108.0, 2877.7423951318738, 187500.0, 187500.0, 187500.0, -187500.02235174447, -187500.02235174447, -187500.02235174447, -187500.02235174447, 0.012, -0.026000000000000002, -0.99, 192.0, 0.0, 0.0, 0.0, 0.0, 0.0, 0.0, 0.0, 0.0, 0.0, 1.675809891554472E9, 0.0, 2023-02-07 17:44:51.554
109.0, 2879.1058515436475, 187500.0, 187500.0, 187500.0, -187500.02235174447, -187500.02235174447, -187500.02235174447, -187500.02235174447, 0.012, -0.026000000000000002, -0.99, 192.0, 0.0, 0.0, 0.0, 0.0, 0.0, 0.0, 0.0, 0.0, 0.0, 1.675809891561771E9, 0.0, 2023-02-07 17:44:51.561
110.0, 2908.8336716692056, 187500.0, 187500.0, 187500.0, -187500.02235174447, -187500.02235174447, -187500.02235174447, -187500.02235174447, 0.012, -0.026000000000000002, -0.99, 192.0, 0.0, 0.0, 0.0, 0.0, 0.0, 0.0, 0.0, 0.0, 0.0, 1.675809891561789E9, 0.0, 2023-02-07 17:44:51.561
111.0, 2950.027936700337, 187500.0, 187500.0, 187500.0, -187500.02235174447, -187500.02235174447, -187500.02235174447, -187500.02235174447, 0.012, -0.026000000000000002, -0.99, 192.0, 0.0, 0.0, 0.0, 0.0, 0.0, 0.0, 0.0, 0.0, 0.0, 1.675809891569904E9, 0.0, 2023-02-07 17:44:51.569
112.0, 2977.8111550582835, 187500.0, 187500.0, 187500.0, -187500.02235174447, -187500.02235174447, -187500.02235174447, -187500.02235174447, 0.012, -0.026000000000000002, -0.99, 192.0, 0.0, 0.0, 0.0, 0.0, 0.0, 0.0, 0.0, 0.0, 0.0, 1.675809891569923E9, 0.0, 2023-02-07 17:44:51.569
113.0, 2917.752017706873, 187500.0, 187500.0, 187500.0, -187500.02235174447, -187500.02235174447, -187500.02235174447, -187500.02235174447, 0.012, -0.026000000000000002, -0.99, 192.0, 0.0, 0.0, 0.0, 0.0, 0.0, 0.0, 0.0, 0.0, 0.0, 1.675809891577043E9, 0.0, 2023-02-07 17:44:51.577
114.0, 2834.6258800775863, 187500.0, 187500.0, 187500.0, -187500.02235174447, -187500.02235174447, -187500.02235174447, -187500.02235174447, 0.012, -0.026000000000000002, -0.99, 192.0, 0.0, 0.0, 0.0, 0.0, 0.0, 0.0, 0.0, 0.0, 0.0, 1.675809891577055E9, 0.0, 2023-02-07 17:44:51.577
115.0, 2882.503316700854, 187500.0, 187500.0, 187500.0, -187500.02235174447, -187500.02235174447, -187500.02235174447, -187500.02235174447, 0.012, -0.026000000000000002, -0.99, 192.0, 0.0, 0.0, 0.0, 0.0, 0.0, 0.0, 0.0, 0.0, 0.0, 1.675809891584485E9, 0.0, 2023-02-07 17:44:51.584
116.0, 3072.5154963154196, 187500.0, 187500.0, 187500.0, -187500.02235174447, -187500.02235174447, -187500.02235174447, -187500.02235174447, 0.01, -0.024, -0.986, 192.0, 0.0, 80.0, 255.0, 64.0, 225.0, 48.0, 0.0, 0.0, 0.0, 1.675809891584498E9, 0.0, 2023-02-07 17:44:51.584
117.0, 2842.3595836591226, 187500.0, 187500.0, 187500.0, -187500.02235174447, -187500.02235174447, -187500.02235174447, -187500.02235174447, 0.01, -0.024, -0.986, 192.0, 0.0, 0.0, 0.0, 0.0, 0.0, 0.0, 0.0, 0.0, 0.0, 1.675809891592492E9, 0.0, 2023-02-07 17:44:51.592
118.0, 2722.8448060565956, 187500.0, 187500.0, 187500.0, -187500.02235174447, -187500.02235174447, -187500.02235174447, -187500.02235174447, 0.01, -0.024, -0.986, 192.0, 0.0, 0.0, 0.0, 0.0, 0.0, 0.0, 0.0, 0.0, 0.0, 1.675809891592506E9, 0.0, 2023-02-07 17:44:51.592
119.0, 2853.289586697768, 187500.0, 187500.0, 187500.0, -187500.02235174447, -187500.02235174447, -187500.02235174447, -187500.02235174447, 0.01, -0.024, -0.986, 192.0, 0.0, 0.0, 0.0, 0.0, 0.0, 0.0, 0.0, 0.0, 0.0, 1.675809891600585E9, 0.0, 2023-02-07 17:44:51.600
120.0, 2924.993982910393, 187500.0, 187500.0, 187500.0, -187500.02235174447, -187500.02235174447, -187500.02235174447, -187500.02235174447, 0.01, -0.024, -0.986, 192.0, 0.0, 0.0, 0.0, 0.0, 0.0, 0.0, 0.0, 0.0, 0.0, 1.675809891600606E9, 0.0, 2023-02-07 17:44:51.600
121.0, 3003.314495481789, 187500.0, 187500.0, 187500.0, -187500.02235174447, -187500.02235174447, -187500.02235174447, -187500.02235174447, 0.01, -0.024, -0.986, 192.0, 0.0, 0.0, 0.0, 0.0, 0.0, 0.0, 0.0, 0.0, 0.0, 1.675809891607411E9, 0.0, 2023-02-07 17:44:51.607
122.0, 2856.955272788438, 187500.0, 187500.0, 187500.0, -187500.02235174447, -187500.02235174447, -187500.02235174447, -187500.02235174447, 0.01, -0.024, -0.986, 192.0, 0.0, 0.0, 0.0, 0.0, 0.0, 0.0, 0.0, 0.0, 0.0, 1.675809891607429E9, 0.0, 2023-02-07 17:44:51.607
123.0, 2938.7850092393173, 187500.0, 187500.0, 187500.0, -187500.02235174447, -187500.02235174447, -187500.02235174447, -187500.02235174447, 0.01, -0.024, -0.986, 192.0, 0.0, 0.0, 0.0, 0.0, 0.0, 0.0, 0.0, 0.0, 0.0, 1.675809891614202E9, 0.0, 2023-02-07 17:44:51.614
124.0, 2923.027029398326, 187500.0, 187500.0, 187500.0, -187500.02235174447, -187500.02235174447, -187500.02235174447, -187500.02235174447, 0.01, -0.024, -0.986, 192.0, 0.0, 0.0, 0.0, 0.0, 0.0, 0.0, 0.0, 0.0, 0.0, 1.675809891614217E9, 0.0, 2023-02-07 17:44:51.614
125.0, 2846.4946563833546, 187500.0, 187500.0, 187500.0, -187500.02235174447, -187500.02235174447, -187500.02235174447, -187500.02235174447, 0.012, -0.022, -0.99, 192.0, 0.0, 96.0, 255.0, 80.0, 225.0, 16.0, 0.0, 0.0, 0.0, 1.675809891622232E9, 0.0, 2023-02-07 17:44:51.622
126.0, 2979.0628527477807, 187500.0, 187500.0, 187500.0, -187500.02235174447, -187500.02235174447, -187500.02235174447, -187500.02235174447, 0.012, -0.022, -0.99, 192.0, 0.0, 0.0, 0.0, 0.0, 0.0, 0.0, 0.0, 0.0, 0.0, 1.675809891630278E9, 0.0, 2023-02-07 17:44:51.630
127.0, 2832.5918713321535, 187500.0, 187500.0, 187500.0, -187500.02235174447, -187500.02235174447, -187500.02235174447, -187500.02235174447, 0.012, -0.022, -0.99, 192.0, 0.0, 0.0, 0.0, 0.0, 0.0, 0.0, 0.0, 0.0, 0.0, 1.675809891630294E9, 0.0, 2023-02-07 17:44:51.630
128.0, 2902.8434041551836, 187500.0, 187500.0, 187500.0, -187500.02235174447, -187500.02235174447, -187500.02235174447, -187500.02235174447, 0.012, -0.022, -0.99, 192.0, 0.0, 0.0, 0.0, 0.0, 0.0, 0.0, 0.0, 0.0, 0.0, 1.675809891636806E9, 0.0, 2023-02-07 17:44:51.636
129.0, 2878.658816654541, 187500.0, 187500.0, 187500.0, -187500.02235174447, -187500.02235174447, -187500.02235174447, -187500.02235174447, 0.012, -0.022, -0.99, 192.0, 0.0, 0.0, 0.0, 0.0, 0.0, 0.0, 0.0, 0.0, 0.0, 1.675809891636817E9, 0.0, 2023-02-07 17:44:51.636
130.0, 2769.247027545813, 187500.0, 187500.0, 187500.0, -187500.02235174447, -187500.02235174447, -187500.02235174447, -187500.02235174447, 0.012, -0.022, -0.99, 192.0, 0.0, 0.0, 0.0, 0.0, 0.0, 0.0, 0.0, 0.0, 0.0, 1.675809891644871E9, 0.0, 2023-02-07 17:44:51.644
131.0, 2875.2389997528794, 187500.0, 187500.0, 187500.0, -187500.02235174447, -187500.02235174447, -187500.02235174447, -187500.02235174447, 0.012, -0.022, -0.99, 192.0, 0.0, 0.0, 0.0, 0.0, 0.0, 0.0, 0.0, 0.0, 0.0, 1.675809891644895E9, 0.0, 2023-02-07 17:44:51.644
132.0, 2931.8112649692616, 187500.0, 187500.0, 187500.0, -187500.02235174447, -187500.02235174447, -187500.02235174447, -187500.02235174447, 0.012, -0.022, -0.99, 192.0, 0.0, 0.0, 0.0, 0.0, 0.0, 0.0, 0.0, 0.0, 0.0, 1.675809891652848E9, 0.0, 2023-02-07 17:44:51.652
133.0, 2844.214778448913, 187500.0, 187500.0, 187500.0, -187500.02235174447, -187500.02235174447, -187500.02235174447, -187500.02235174447, 0.012, -0.022, -0.99, 192.0, 0.0, 0.0, 0.0, 0.0, 0.0, 0.0, 0.0, 0.0, 0.0, 1.675809891652867E9, 0.0, 2023-02-07 17:44:51.652
134.0, 2801.6794087504636, 187500.0, 187500.0, 187500.0, -187500.02235174447, -187500.02235174447, -187500.02235174447, -187500.02235174447, 0.012, -0.022, -0.99, 192.0, 0.0, 0.0, 0.0, 0.0, 0.0, 0.0, 0.0, 0.0, 0.0, 1.675809891659982E9, 0.0, 2023-02-07 17:44:51.659
135.0, 2929.7772562238288, 187500.0, 187500.0, 187500.0, -187500.02235174447, -187500.02235174447, -187500.02235174447, -187500.02235174447, 0.008, -0.022, -0.992, 192.0, 0.0, 64.0, 255.0, 80.0, 225.0, 0.0, 0.0, 0.0, 0.0, 1.675809891659995E9, 0.0, 2023-02-07 17:44:51.659
136.0, 3163.0177096149578, 187500.0, 187500.0, 187500.0, -187500.02235174447, -187500.02235174447, -187500.02235174447, -187500.02235174447, 0.008, -0.022, -0.992, 192.0, 0.0, 0.0, 0.0, 0.0, 0.0, 0.0, 0.0, 0.0, 0.0, 1.675809891667456E9, 0.0, 2023-02-07 17:44:51.667
137.0, 2930.783084724317, 187500.0, 187500.0, 187500.0, -187500.02235174447, -187500.02235174447, -187500.02235174447, -187500.02235174447, 0.008, -0.022, -0.992, 192.0, 0.0, 0.0, 0.0, 0.0, 0.0, 0.0, 0.0, 0.0, 0.0, 1.675809891667473E9, 0.0, 2023-02-07 17:44:51.667
138.0, 2660.90812217094, 187500.0, 187500.0, 187500.0, -187500.02235174447, -187500.02235174447, -187500.02235174447, -187500.02235174447, 0.008, -0.022, -0.992, 192.0, 0.0, 0.0, 0.0, 0.0, 0.0, 0.0, 0.0, 0.0, 0.0, 1.675809891675467E9, 0.0, 2023-02-07 17:44:51.675
139.0, 2809.5248710542764, 187500.0, 187500.0, 187500.0, -187500.02235174447, -187500.02235174447, -187500.02235174447, -187500.02235174447, 0.008, -0.022, -0.992, 192.0, 0.0, 0.0, 0.0, 0.0, 0.0, 0.0, 0.0, 0.0, 0.0, 1.67580989167548E9, 0.0, 2023-02-07 17:44:51.675
140.0, 2822.086551438159, 187500.0, 187500.0, 187500.0, -187500.02235174447, -187500.02235174447, -187500.02235174447, -187500.02235174447, 0.008, -0.022, -0.992, 192.0, 0.0, 0.0, 0.0, 0.0, 0.0, 0.0, 0.0, 0.0, 0.0, 1.675809891682477E9, 0.0, 2023-02-07 17:44:51.682
141.0, 2759.412259985478, 187500.0, 187500.0, 187500.0, -187500.02235174447, -187500.02235174447, -187500.02235174447, -187500.02235174447, 0.008, -0.022, -0.992, 192.0, 0.0, 0.0, 0.0, 0.0, 0.0, 0.0, 0.0, 0.0, 0.0, 1.675809891689654E9, 0.0, 2023-02-07 17:44:51.689
142.0, 2858.8775228115946, 187500.0, 187500.0, 187500.0, -187500.02235174447, -187500.02235174447, -187500.02235174447, -187500.02235174447, 0.008, -0.022, -0.992, 192.0, 0.0, 0.0, 0.0, 0.0, 0.0, 0.0, 0.0, 0.0, 0.0, 1.675809891689668E9, 0.0, 2023-02-07 17:44:51.689
143.0, 2897.3001715302676, 187500.0, 187500.0, 187500.0, -187500.02235174447, -187500.02235174447, -187500.02235174447, -187500.02235174447, 0.008, -0.022, -0.992, 192.0, 0.0, 0.0, 0.0, 0.0, 0.0, 0.0, 0.0, 0.0, 0.0, 1.675809891697085E9, 0.0, 2023-02-07 17:44:51.697
144.0, 2745.442419700911, 187500.0, 187500.0, 187500.0, -187500.02235174447, -187500.02235174447, -187500.02235174447, -187500.02235174447, 0.008, -0.022, -0.992, 192.0, 0.0, 0.0, 0.0, 0.0, 0.0, 0.0, 0.0, 0.0, 0.0, 1.675809891697106E9, 0.0, 2023-02-07 17:44:51.697
145.0, 2720.2743554442354, 187500.0, 187500.0, 187500.0, -187500.02235174447, -187500.02235174447, -187500.02235174447, -187500.02235174447, 0.012, -0.026000000000000002, -0.99, 192.0, 0.0, 96.0, 255.0, 48.0, 225.0, 16.0, 0.0, 0.0, 0.0, 1.675809891705091E9, 0.0, 2023-02-07 17:44:51.705
146.0, 2763.323815265157, 187500.0, 187500.0, 187500.0, -187500.02235174447, -187500.02235174447, -187500.02235174447, -187500.02235174447, 0.012, -0.026000000000000002, -0.99, 192.0, 0.0, 0.0, 0.0, 0.0, 0.0, 0.0, 0.0, 0.0, 0.0, 1.675809891705104E9, 0.0, 2023-02-07 17:44:51.705
147.0, 2761.870951875562, 187500.0, 187500.0, 187500.0, -187500.02235174447, -187500.02235174447, -187500.02235174447, -187500.02235174447, 0.012, -0.026000000000000002, -0.99, 192.0, 0.0, 0.0, 0.0, 0.0, 0.0, 0.0, 0.0, 0.0, 0.0, 1.675809891713229E9, 0.0, 2023-02-07 17:44:51.713
148.0, 2885.699616157963, 187500.0, 187500.0, 187500.0, -187500.02235174447, -187500.02235174447, -187500.02235174447, -187500.02235174447, 0.012, -0.026000000000000002, -0.99, 192.0, 0.0, 0.0, 0.0, 0.0, 0.0, 0.0, 0.0, 0.0, 0.0, 1.675809891713248E9, 0.0, 2023-02-07 17:44:51.713
149.0, 2995.983123300448, 187500.0, 187500.0, 187500.0, -187500.02235174447, -187500.02235174447, -187500.02235174447, -187500.02235174447, 0.012, -0.026000000000000002, -0.99, 192.0, 0.0, 0.0, 0.0, 0.0, 0.0, 0.0, 0.0, 0.0, 0.0, 1.67580989171975E9, 0.0, 2023-02-07 17:44:51.719
150.0, 2808.407283831511, 187500.0, 187500.0, 187500.0, -187500.02235174447, -187500.02235174447, -187500.02235174447, -187500.02235174447, 0.012, -0.026000000000000002, -0.99, 192.0, 0.0, 0.0, 0.0, 0.0, 0.0, 0.0, 0.0, 0.0, 0.0, 1.675809891719764E9, 0.0, 2023-02-07 17:44:51.719
151.0, 2795.376216814067, 187500.0, 187500.0, 187500.0, -187500.02235174447, -187500.02235174447, -187500.02235174447, -187500.02235174447, 0.012, -0.026000000000000002, -0.99, 192.0, 0.0, 0.0, 0.0, 0.0, 0.0, 0.0, 0.0, 0.0, 0.0, 1.675809891727756E9, 0.0, 2023-02-07 17:44:51.727
152.0, 2787.798975443718, 187500.0, 187500.0, 187500.0, -187500.02235174447, -187500.02235174447, -187500.02235174447, -187500.02235174447, 0.012, -0.026000000000000002, -0.99, 192.0, 0.0, 0.0, 0.0, 0.0, 0.0, 0.0, 0.0, 0.0, 0.0, 1.675809891727771E9, 0.0, 2023-02-07 17:44:51.727
153.0, 2810.3742373435784, 187500.0, 187500.0, 187500.0, -187500.02235174447, -187500.02235174447, -187500.02235174447, -187500.02235174447, 0.012, -0.026000000000000002, -0.99, 192.0, 0.0, 0.0, 0.0, 0.0, 0.0, 0.0, 0.0, 0.0, 0.0, 1.675809891735871E9, 0.0, 2023-02-07 17:44:51.735
154.0, 2816.900946724528, 187500.0, 187500.0, 187500.0, -187500.02235174447, -187500.02235174447, -187500.02235174447, -187500.02235174447, 0.012, -0.026000000000000002, -0.99, 192.0, 0.0, 0.0, 0.0, 0.0, 0.0, 0.0, 0.0, 0.0, 0.0, 1.675809891735971E9, 0.0, 2023-02-07 17:44:51.735
155.0, 2830.446103864444, 187500.0, 187500.0, 187500.0, -187500.02235174447, -187500.02235174447, -187500.02235174447, -187500.02235174447, 0.014, -0.026000000000000002, -0.992, 192.0, 0.0, 112.0, 255.0, 48.0, 225.0, 0.0, 0.0, 0.0, 0.0, 1.675809891742882E9, 0.0, 2023-02-07 17:44:51.742
156.0, 2863.012595535826, 187500.0, 187500.0, 187500.0, -187500.02235174447, -187500.02235174447, -187500.02235174447, -187500.02235174447, 0.014, -0.026000000000000002, -0.992, 192.0, 0.0, 0.0, 0.0, 0.0, 0.0, 0.0, 0.0, 0.0, 0.0, 1.675809891749468E9, 0.0, 2023-02-07 17:44:51.749
157.0, 2948.373907610644, 187500.0, 187500.0, 187500.0, -187500.02235174447, -187500.02235174447, -187500.02235174447, -187500.02235174447, 0.014, -0.026000000000000002, -0.992, 192.0, 0.0, 0.0, 0.0, 0.0, 0.0, 0.0, 0.0, 0.0, 0.0, 1.675809891749489E9, 0.0, 2023-02-07 17:44:51.749
158.0, 3133.5357586784075, 187500.0, 187500.0, 187500.0, -187500.02235174447, -187500.02235174447, -187500.02235174447, -187500.02235174447, 0.014, -0.026000000000000002, -0.992, 192.0, 0.0, 0.0, 0.0, 0.0, 0.0, 0.0, 0.0, 0.0, 0.0, 1.675809891757425E9, 0.0, 2023-02-07 17:44:51.757
159.0, 3003.40390245961, 187500.0, 187500.0, 187500.0, -187500.02235174447, -187500.02235174447, -187500.02235174447, -187500.02235174447, 0.014, -0.026000000000000002, -0.992, 192.0, 0.0, 0.0, 0.0, 0.0, 0.0, 0.0, 0.0, 0.0, 0.0, 1.675809891757447E9, 0.0, 2023-02-07 17:44:51.757
160.0, 2758.7864111407293, 187500.0, 187500.0, 187500.0, -187500.02235174447, -187500.02235174447, -187500.02235174447, -187500.02235174447, 0.014, -0.026000000000000002, -0.992, 192.0, 0.0, 0.0, 0.0, 0.0, 0.0, 0.0, 0.0, 0.0, 0.0, 1.675809891767372E9, 0.0, 2023-02-07 17:44:51.767
161.0, 2771.4598502468884, 187500.0, 187500.0, 187500.0, -187500.02235174447, -187500.02235174447, -187500.02235174447, -187500.02235174447, 0.014, -0.026000000000000002, -0.992, 192.0, 0.0, 0.0, 0.0, 0.0, 0.0, 0.0, 0.0, 0.0, 0.0, 1.67580989176739E9, 0.0, 2023-02-07 17:44:51.767
162.0, 2854.6753948539967, 187500.0, 187500.0, 187500.0, -187500.02235174447, -187500.02235174447, -187500.02235174447, -187500.02235174447, 0.014, -0.026000000000000002, -0.992, 192.0, 0.0, 0.0, 0.0, 0.0, 0.0, 0.0, 0.0, 0.0, 0.0, 1.675809891772556E9, 0.0, 2023-02-07 17:44:51.772
163.0, 2872.668549140519, 187500.0, 187500.0, 187500.0, -187500.02235174447, -187500.02235174447, -187500.02235174447, -187500.02235174447, 0.014, -0.026000000000000002, -0.992, 192.0, 0.0, 0.0, 0.0, 0.0, 0.0, 0.0, 0.0, 0.0, 0.0, 1.675809891772573E9, 0.0, 2023-02-07 17:44:51.772
164.0, 2933.957032436971, 187500.0, 187500.0, 187500.0, -187500.02235174447, -187500.02235174447, -187500.02235174447, -187500.02235174447, 0.014, -0.026000000000000002, -0.992, 192.0, 0.0, 0.0, 0.0, 0.0, 0.0, 0.0, 0.0, 0.0, 0.0, 1.67580989177999E9, 0.0, 2023-02-07 17:44:51.779
165.0, 3072.046109681858, 187500.0, 187500.0, 187500.0, -187500.02235174447, -187500.02235174447, -187500.02235174447, -187500.02235174447, 0.01, -0.022, -0.998, 192.0, 0.0, 80.0, 255.0, 80.0, 224.0, 208.0, 0.0, 0.0, 0.0, 1.675809891780015E9, 0.0, 2023-02-07 17:44:51.780
166.0, 3008.4553967065094, 187500.0, 187500.0, 187500.0, -187500.02235174447, -187500.02235174447, -187500.02235174447, -187500.02235174447, 0.01, -0.022, -0.998, 192.0, 0.0, 0.0, 0.0, 0.0, 0.0, 0.0, 0.0, 0.0, 0.0, 1.675809891788091E9, 0.0, 2023-02-07 17:44:51.788
167.0, 2751.3656319815677, 187500.0, 187500.0, 187500.0, -187500.02235174447, -187500.02235174447, -187500.02235174447, -187500.02235174447, 0.01, -0.022, -0.998, 192.0, 0.0, 0.0, 0.0, 0.0, 0.0, 0.0, 0.0, 0.0, 0.0, 1.675809891788106E9, 0.0, 2023-02-07 17:44:51.788
168.0, 2848.126333728592, 187500.0, 187500.0, 187500.0, -187500.02235174447, -187500.02235174447, -187500.02235174447, -187500.02235174447, 0.01, -0.022, -0.998, 192.0, 0.0, 0.0, 0.0, 0.0, 0.0, 0.0, 0.0, 0.0, 0.0, 1.675809891796118E9, 0.0, 2023-02-07 17:44:51.796
169.0, 2969.116326465169, 187500.0, 187500.0, 187500.0, -187500.02235174447, -187500.02235174447, -187500.02235174447, -187500.02235174447, 0.01, -0.022, -0.998, 192.0, 0.0, 0.0, 0.0, 0.0, 0.0, 0.0, 0.0, 0.0, 0.0, 1.675809891796134E9, 0.0, 2023-02-07 17:44:51.796
170.0, 2994.7090738664956, 187500.0, 187500.0, 187500.0, -187500.02235174447, -187500.02235174447, -187500.02235174447, -187500.02235174447, 0.01, -0.022, -0.998, 192.0, 0.0, 0.0, 0.0, 0.0, 0.0, 0.0, 0.0, 0.0, 0.0, 1.675809891802282E9, 0.0, 2023-02-07 17:44:51.802
171.0, 2904.2962675447784, 187500.0, 187500.0, 187500.0, -187500.02235174447, -187500.02235174447, -187500.02235174447, -187500.02235174447, 0.01, -0.022, -0.998, 192.0, 0.0, 0.0, 0.0, 0.0, 0.0, 0.0, 0.0, 0.0, 0.0, 1.675809891809685E9, 0.0, 2023-02-07 17:44:51.809
172.0, 3023.2298997914672, 187500.0, 187500.0, 187500.0, -187500.02235174447, -187500.02235174447, -187500.02235174447, -187500.02235174447, 0.01, -0.022, -0.998, 192.0, 0.0, 0.0, 0.0, 0.0, 0.0, 0.0, 0.0, 0.0, 0.0, 1.675809891809698E9, 0.0, 2023-02-07 17:44:51.809
173.0, 3075.2871126278774, 187500.0, 187500.0, 187500.0, -187500.02235174447, -187500.02235174447, -187500.02235174447, -187500.02235174447, 0.01, -0.022, -0.998, 192.0, 0.0, 0.0, 0.0, 0.0, 0.0, 0.0, 0.0, 0.0, 0.0, 1.675809891817744E9, 0.0, 2023-02-07 17:44:51.817
174.0, 2850.629729107586, 187500.0, 187500.0, 187500.0, -187500.02235174447, -187500.02235174447, -187500.02235174447, -187500.02235174447, 0.01, -0.022, -0.998, 192.0, 0.0, 0.0, 0.0, 0.0, 0.0, 0.0, 0.0, 0.0, 0.0, 1.675809891817765E9, 0.0, 2023-02-07 17:44:51.817
175.0, 2868.2652554828237, 187500.0, 187500.0, 187500.0, -187500.02235174447, -187500.02235174447, -187500.02235174447, -187500.02235174447, 0.006, -0.024, -0.992, 192.0, 0.0, 48.0, 255.0, 64.0, 225.0, 0.0, 0.0, 0.0, 0.0, 1.675809891824965E9, 0.0, 2023-02-07 17:44:51.824
176.0, 3105.5066711314525, 187500.0, 187500.0, 187500.0, -187500.02235174447, -187500.02235174447, -187500.02235174447, -187500.02235174447, 0.006, -0.024, -0.992, 192.0, 0.0, 0.0, 0.0, 0.0, 0.0, 0.0, 0.0, 0.0, 0.0, 1.675809891824985E9, 0.0, 2023-02-07 17:44:51.824
177.0, 3120.817616083338, 187500.0, 187500.0, 187500.0, -187500.02235174447, -187500.02235174447, -187500.02235174447, -187500.02235174447, 0.006, -0.024, -0.992, 192.0, 0.0, 0.0, 0.0, 0.0, 0.0, 0.0, 0.0, 0.0, 0.0, 1.675809891832242E9, 0.0, 2023-02-07 17:44:51.832
178.0, 2858.89987455605, 187500.0, 187500.0, 187500.0, -187500.02235174447, -187500.02235174447, -187500.02235174447, -187500.02235174447, 0.006, -0.024, -0.992, 192.0, 0.0, 0.0, 0.0, 0.0, 0.0, 0.0, 0.0, 0.0, 0.0, 1.675809891832255E9, 0.0, 2023-02-07 17:44:51.832
179.0, 2965.4506403744986, 187500.0, 187500.0, 187500.0, -187500.02235174447, -187500.02235174447, -187500.02235174447, -187500.02235174447, 0.006, -0.024, -0.992, 192.0, 0.0, 0.0, 0.0, 0.0, 0.0, 0.0, 0.0, 0.0, 0.0, 1.675809891840291E9, 0.0, 2023-02-07 17:44:51.840
180.0, 3141.9176628491477, 187500.0, 187500.0, 187500.0, -187500.02235174447, -187500.02235174447, -187500.02235174447, -187500.02235174447, 0.006, -0.024, -0.992, 192.0, 0.0, 0.0, 0.0, 0.0, 0.0, 0.0, 0.0, 0.0, 0.0, 1.675809891840305E9, 0.0, 2023-02-07 17:44:51.840
181.0, 2927.6538405005745, 187500.0, 187500.0, 187500.0, -187500.02235174447, -187500.02235174447, -187500.02235174447, -187500.02235174447, 0.006, -0.024, -0.992, 192.0, 0.0, 0.0, 0.0, 0.0, 0.0, 0.0, 0.0, 0.0, 0.0, 1.675809891848265E9, 0.0, 2023-02-07 17:44:51.848
182.0, 2755.7465738948076, 187500.0, 187500.0, 187500.0, -187500.02235174447, -187500.02235174447, -187500.02235174447, -187500.02235174447, 0.006, -0.024, -0.992, 192.0, 0.0, 0.0, 0.0, 0.0, 0.0, 0.0, 0.0, 0.0, 0.0, 1.675809891848279E9, 0.0, 2023-02-07 17:44:51.848
183.0, 2870.701595628452, 187500.0, 187500.0, 187500.0, -187500.02235174447, -187500.02235174447, -187500.02235174447, -187500.02235174447, 0.006, -0.024, -0.992, 192.0, 0.0, 0.0, 0.0, 0.0, 0.0, 0.0, 0.0, 0.0, 0.0, 1.675809891854934E9, 0.0, 2023-02-07 17:44:51.854
184.0, 2957.15814318158, 187500.0, 187500.0, 187500.0, -187500.02235174447, -187500.02235174447, -187500.02235174447, -187500.02235174447, 0.006, -0.024, -0.992, 192.0, 0.0, 0.0, 0.0, 0.0, 0.0, 0.0, 0.0, 0.0, 0.0, 1.675809891854967E9, 0.0, 2023-02-07 17:44:51.854
185.0, 3043.726449456984, 187500.0, 187500.0, 187500.0, -187500.02235174447, -187500.02235174447, -187500.02235174447, -187500.02235174447, 0.01, -0.032, -0.988, 192.0, 0.0, 80.0, 255.0, 0.0, 225.0, 32.0, 0.0, 0.0, 0.0, 1.675809891861991E9, 0.0, 2023-02-07 17:44:51.861
186.0, 2968.4234223870544, 187500.0, 187500.0, 187500.0, -187500.02235174447, -187500.02235174447, -187500.02235174447, -187500.02235174447, 0.01, -0.032, -0.988, 192.0, 0.0, 0.0, 0.0, 0.0, 0.0, 0.0, 0.0, 0.0, 0.0, 1.675809891862013E9, 0.0, 2023-02-07 17:44:51.862
187.0, 2993.658541877096, 187500.0, 187500.0, 187500.0, -187500.02235174447, -187500.02235174447, -187500.02235174447, -187500.02235174447, 0.01, -0.032, -0.988, 192.0, 0.0, 0.0, 0.0, 0.0, 0.0, 0.0, 0.0, 0.0, 0.0, 1.675809891869875E9, 0.0, 2023-02-07 17:44:51.869
188.0, 2974.5925038567193, 187500.0, 187500.0, 187500.0, -187500.02235174447, -187500.02235174447, -187500.02235174447, -187500.02235174447, 0.01, -0.032, -0.988, 192.0, 0.0, 0.0, 0.0, 0.0, 0.0, 0.0, 0.0, 0.0, 0.0, 1.67580989187799E9, 0.0, 2023-02-07 17:44:51.877
189.0, 2810.7542169993185, 187500.0, 187500.0, 187500.0, -187500.02235174447, -187500.02235174447, -187500.02235174447, -187500.02235174447, 0.01, -0.032, -0.988, 192.0, 0.0, 0.0, 0.0, 0.0, 0.0, 0.0, 0.0, 0.0, 0.0, 1.675809891878006E9, 0.0, 2023-02-07 17:44:51.878
190.0, 2922.5129392758536, 187500.0, 187500.0, 187500.0, -187500.02235174447, -187500.02235174447, -187500.02235174447, -187500.02235174447, 0.01, -0.032, -0.988, 192.0, 0.0, 0.0, 0.0, 0.0, 0.0, 0.0, 0.0, 0.0, 0.0, 1.675809891884599E9, 0.0, 2023-02-07 17:44:51.884
191.0, 2955.9958524699036, 187500.0, 187500.0, 187500.0, -187500.02235174447, -187500.02235174447, -187500.02235174447, -187500.02235174447, 0.01, -0.032, -0.988, 192.0, 0.0, 0.0, 0.0, 0.0, 0.0, 0.0, 0.0, 0.0, 0.0, 1.675809891884623E9, 0.0, 2023-02-07 17:44:51.884
192.0, 2931.855968458172, 187500.0, 187500.0, 187500.0, -187500.02235174447, -187500.02235174447, -187500.02235174447, -187500.02235174447, 0.01, -0.032, -0.988, 192.0, 0.0, 0.0, 0.0, 0.0, 0.0, 0.0, 0.0, 0.0, 0.0, 1.675809891892657E9, 0.0, 2023-02-07 17:44:51.892
193.0, 2974.5925038567193, 187500.0, 187500.0, 187500.0, -187500.02235174447, -187500.02235174447, -187500.02235174447, -187500.02235174447, 0.01, -0.032, -0.988, 192.0, 0.0, 0.0, 0.0, 0.0, 0.0, 0.0, 0.0, 0.0, 0.0, 1.675809891892677E9, 0.0, 2023-02-07 17:44:51.892
194.0, 3137.559072680363, 187500.0, 187500.0, 187500.0, -187500.02235174447, -187500.02235174447, -187500.02235174447, -187500.02235174447, 0.01, -0.026000000000000002, -0.99, 192.0, 0.0, 80.0, 255.0, 48.0, 225.0, 16.0, 0.0, 0.0, 0.0, 1.675809891900525E9, 0.0, 2023-02-07 17:44:51.900
195.0, 3208.838785748337, 187500.0, 187500.0, 187500.0, -187500.02235174447, -187500.02235174447, -187500.02235174447, -187500.02235174447, 0.01, -0.026000000000000002, -0.99, 192.0, 0.0, 0.0, 0.0, 0.0, 0.0, 0.0, 0.0, 0.0, 0.0, 1.675809891900549E9, 0.0, 2023-02-07 17:44:51.900
196.0, 2982.6838353495405, 187500.0, 187500.0, 187500.0, -187500.02235174447, -187500.02235174447, -187500.02235174447, -187500.02235174447, 0.01, -0.026000000000000002, -0.99, 192.0, 0.0, 0.0, 0.0, 0.0, 0.0, 0.0, 0.0, 0.0, 0.0, 1.675809891907683E9, 0.0, 2023-02-07 17:44:51.907
197.0, 2825.8192927621953, 187500.0, 187500.0, 187500.0, -187500.02235174447, -187500.02235174447, -187500.02235174447, -187500.02235174447, 0.01, -0.026000000000000002, -0.99, 192.0, 0.0, 0.0, 0.0, 0.0, 0.0, 0.0, 0.0, 0.0, 0.0, 1.6758098919077E9, 0.0, 2023-02-07 17:44:51.907
198.0, 3074.7953742498607, 187500.0, 187500.0, 187500.0, -187500.02235174447, -187500.02235174447, -187500.02235174447, -187500.02235174447, 0.01, -0.026000000000000002, -0.99, 192.0, 0.0, 0.0, 0.0, 0.0, 0.0, 0.0, 0.0, 0.0, 0.0, 1.675809891917056E9, 0.0, 2023-02-07 17:44:51.917
199.0, 3225.5355388564517, 187500.0, 187500.0, 187500.0, -187500.02235174447, -187500.02235174447, -187500.02235174447, -187500.02235174447, 0.01, -0.026000000000000002, -0.99, 192.0, 0.0, 0.0, 0.0, 0.0, 0.0, 0.0, 0.0, 0.0, 0.0, 1.675809891917077E9, 0.0, 2023-02-07 17:44:51.917
200.0, 2931.6100992691636, 187500.0, 187500.0, 187500.0, -187500.02235174447, -187500.02235174447, -187500.02235174447, -187500.02235174447, 0.01, -0.026000000000000002, -0.99, 192.0, 0.0, 0.0, 0.0, 0.0, 0.0, 0.0, 0.0, 0.0, 0.0, 1.675809891923193E9, 0.0, 2023-02-07 17:44:51.923
201.0, 2878.8152788657285, 187500.0, 187500.0, 187500.0, -187500.02235174447, -187500.02235174447, -187500.02235174447, -187500.02235174447, 0.01, -0.026000000000000002, -0.99, 192.0, 0.0, 0.0, 0.0, 0.0, 0.0, 0.0, 0.0, 0.0, 0.0, 1.675809891923212E9, 0.0, 2023-02-07 17:44:51.923
202.0, 2892.472194727921, 187500.0, 187500.0, 187500.0, -187500.02235174447, -187500.02235174447, -187500.02235174447, -187500.02235174447, 0.01, -0.026000000000000002, -0.99, 192.0, 0.0, 0.0, 0.0, 0.0, 0.0, 0.0, 0.0, 0.0, 0.0, 1.675809891930266E9, 0.0, 2023-02-07 17:44:51.930
203.0, 2916.075636872725, 187500.0, 187500.0, 187500.0, -187500.02235174447, -187500.02235174447, -187500.02235174447, -187500.02235174447, 0.01, -0.026000000000000002, -0.99, 192.0, 0.0, 0.0, 0.0, 0.0, 0.0, 0.0, 0.0, 0.0, 0.0, 1.675809891937341E9, 0.0, 2023-02-07 17:44:51.937
204.0, 2975.307759679289, 187500.0, 187500.0, 187500.0, -187500.02235174447, -187500.02235174447, -187500.02235174447, -187500.02235174447, 0.004, -0.028, -0.994, 192.0, 0.0, 32.0, 255.0, 32.0, 224.0, 240.0, 0.0, 0.0, 0.0, 1.67580989193736E9, 0.0, 2023-02-07 17:44:51.937
205.0, 2974.9724835124593, 187500.0, 187500.0, 187500.0, -187500.02235174447, -187500.02235174447, -187500.02235174447, -187500.02235174447, 0.004, -0.028, -0.994, 192.0, 0.0, 0.0, 0.0, 0.0, 0.0, 0.0, 0.0, 0.0, 0.0, 1.675809891944763E9, 0.0, 2023-02-07 17:44:51.944
206.0, 2983.756719083395, 187500.0, 187500.0, 187500.0, -187500.02235174447, -187500.02235174447, -187500.02235174447, -187500.02235174447, 0.004, -0.028, -0.994, 192.0, 0.0, 0.0, 0.0, 0.0, 0.0, 0.0, 0.0, 0.0, 0.0, 1.675809891944786E9, 0.0, 2023-02-07 17:44:51.944
207.0, 2971.239742188423, 187500.0, 187500.0, 187500.0, -187500.02235174447, -187500.02235174447, -187500.02235174447, -187500.02235174447, 0.004, -0.028, -0.994, 192.0, 0.0, 0.0, 0.0, 0.0, 0.0, 0.0, 0.0, 0.0, 0.0, 1.675809891952797E9, 0.0, 2023-02-07 17:44:51.952
208.0, 2977.3864719136327, 187500.0, 187500.0, 187500.0, -187500.02235174447, -187500.02235174447, -187500.02235174447, -187500.02235174447, 0.004, -0.028, -0.994, 192.0, 0.0, 0.0, 0.0, 0.0, 0.0, 0.0, 0.0, 0.0, 0.0, 1.675809891952809E9, 0.0, 2023-02-07 17:44:51.952
209.0, 2981.4321376600433, 187500.0, 187500.0, 187500.0, -187500.02235174447, -187500.02235174447, -187500.02235174447, -187500.02235174447, 0.004, -0.028, -0.994, 192.0, 0.0, 0.0, 0.0, 0.0, 0.0, 0.0, 0.0, 0.0, 0.0, 1.675809891960754E9, 0.0, 2023-02-07 17:44:51.960
210.0, 2986.6177423736744, 187500.0, 187500.0, 187500.0, -187500.02235174447, -187500.02235174447, -187500.02235174447, -187500.02235174447, 0.004, -0.028, -0.994, 192.0, 0.0, 0.0, 0.0, 0.0, 0.0, 0.0, 0.0, 0.0, 0.0, 1.675809891960768E9, 0.0, 2023-02-07 17:44:51.960
211.0, 3078.4610603405313, 187500.0, 187500.0, 187500.0, -187500.02235174447, -187500.02235174447, -187500.02235174447, -187500.02235174447, 0.004, -0.028, -0.994, 192.0, 0.0, 0.0, 0.0, 0.0, 0.0, 0.0, 0.0, 0.0, 0.0, 1.675809891967452E9, 0.0, 2023-02-07 17:44:51.967
212.0, 3133.7816278674163, 187500.0, 187500.0, 187500.0, -187500.02235174447, -187500.02235174447, -187500.02235174447, -187500.02235174447, 0.004, -0.028, -0.994, 192.0, 0.0, 0.0, 0.0, 0.0, 0.0, 0.0, 0.0, 0.0, 0.0, 1.675809891967468E9, 0.0, 2023-02-07 17:44:51.967
213.0, 3016.1667485435905, 187500.0, 187500.0, 187500.0, -187500.02235174447, -187500.02235174447, -187500.02235174447, -187500.02235174447, 0.004, -0.028, -0.994, 192.0, 0.0, 0.0, 0.0, 0.0, 0.0, 0.0, 0.0, 0.0, 0.0, 1.675809891975425E9, 0.0, 2023-02-07 17:44:51.975
214.0, 2936.885110960616, 187500.0, 187500.0, 187500.0, -187500.02235174447, -187500.02235174447, -187500.02235174447, -187500.02235174447, 0.004, -0.028, -0.994, 192.0, 0.0, 0.0, 255.0, 32.0, 224.0, 240.0, 0.0, 0.0, 0.0, 1.675809891975443E9, 0.0, 2023-02-07 17:44:51.975
215.0, 2978.504059136398, 187500.0, 187500.0, 187500.0, -187500.02235174447, -187500.02235174447, -187500.02235174447, -187500.02235174447, 0.004, -0.028, -0.994, 192.0, 0.0, 0.0, 0.0, 0.0, 0.0, 0.0, 0.0, 0.0, 0.0, 1.675809891983434E9, 0.0, 2023-02-07 17:44:51.983
216.0, 2987.9141435520824, 187500.0, 187500.0, 187500.0, -187500.02235174447, -187500.02235174447, -187500.02235174447, -187500.02235174447, 0.004, -0.028, -0.994, 192.0, 0.0, 0.0, 0.0, 0.0, 0.0, 0.0, 0.0, 0.0, 0.0, 1.675809891983455E9, 0.0, 2023-02-07 17:44:51.983
217.0, 3019.1842340450567, 187500.0, 187500.0, 187500.0, -187500.02235174447, -187500.02235174447, -187500.02235174447, -187500.02235174447, 0.004, -0.028, -0.994, 192.0, 0.0, 0.0, 0.0, 0.0, 0.0, 0.0, 0.0, 0.0, 0.0, 1.6758098919916E9, 0.0, 2023-02-07 17:44:51.991
218.0, 3030.181292317068, 187500.0, 187500.0, 187500.0, -187500.02235174447, -187500.02235174447, -187500.02235174447, -187500.02235174447, 0.004, -0.028, -0.994, 192.0, 0.0, 0.0, 0.0, 0.0, 0.0, 0.0, 0.0, 0.0, 0.0, 1.675809891997008E9, 0.0, 2023-02-07 17:44:51.997
219.0, 3049.336737315266, 187500.0, 187500.0, 187500.0, -187500.02235174447, -187500.02235174447, -187500.02235174447, -187500.02235174447, 0.004, -0.028, -0.994, 192.0, 0.0, 0.0, 0.0, 0.0, 0.0, 0.0, 0.0, 0.0, 0.0, 1.675809891997027E9, 0.0, 2023-02-07 17:44:51.997
220.0, 3128.6407266426954, 187500.0, 187500.0, 187500.0, -187500.02235174447, -187500.02235174447, -187500.02235174447, -187500.02235174447, 0.004, -0.028, -0.994, 192.0, 0.0, 0.0, 0.0, 0.0, 0.0, 0.0, 0.0, 0.0, 0.0, 1.67580989200513E9, 0.0, 2023-02-07 17:44:52.005
221.0, 3091.313313402333, 187500.0, 187500.0, 187500.0, -187500.02235174447, -187500.02235174447, -187500.02235174447, -187500.02235174447, 0.004, -0.028, -0.994, 192.0, 0.0, 0.0, 0.0, 0.0, 0.0, 0.0, 0.0, 0.0, 0.0, 1.675809892005143E9, 0.0, 2023-02-07 17:44:52.005
222.0, 3048.107391370224, 187500.0, 187500.0, 187500.0, -187500.02235174447, -187500.02235174447, -187500.02235174447, -187500.02235174447, 0.004, -0.028, -0.994, 192.0, 0.0, 0.0, 0.0, 0.0, 0.0, 0.0, 0.0, 0.0, 0.0, 1.675809892013046E9, 0.0, 2023-02-07 17:44:52.013
223.0, 3032.8635016517046, 187500.0, 187500.0, 187500.0, -187500.02235174447, -187500.02235174447, -187500.02235174447, -187500.02235174447, 0.004, -0.028, -0.994, 192.0, 0.0, 0.0, 0.0, 0.0, 0.0, 0.0, 0.0, 0.0, 0.0, 1.675809892013063E9, 0.0, 2023-02-07 17:44:52.013
224.0, 2947.368079110155, 187500.0, 187500.0, 187500.0, -187500.02235174447, -187500.02235174447, -187500.02235174447, -187500.02235174447, 0.004, -0.024, -0.992, 192.0, 0.0, 32.0, 255.0, 64.0, 225.0, 0.0, 0.0, 0.0, 0.0, 1.675809892020084E9, 0.0, 2023-02-07 17:44:52.020
225.0, 3041.692440711551, 187500.0, 187500.0, 187500.0, -187500.02235174447, -187500.02235174447, -187500.02235174447, -187500.02235174447, 0.004, -0.024, -0.992, 192.0, 0.0, 0.0, 0.0, 0.0, 0.0, 0.0, 0.0, 0.0, 0.0, 1.675809892020174E9, 0.0, 2023-02-07 17:44:52.020
226.0, 3136.821465113338, 187500.0, 187500.0, 187500.0, -187500.02235174447, -187500.02235174447, -187500.02235174447, -187500.02235174447, 0.004, -0.024, -0.992, 192.0, 0.0, 0.0, 0.0, 0.0, 0.0, 0.0, 0.0, 0.0, 0.0, 1.675809892027676E9, 0.0, 2023-02-07 17:44:52.027
227.0, 2937.823884227739, 187500.0, 187500.0, 187500.0, -187500.02235174447, -187500.02235174447, -187500.02235174447, -187500.02235174447, 0.004, -0.024, -0.992, 192.0, 0.0, 0.0, 0.0, 0.0, 0.0, 0.0, 0.0, 0.0, 0.0, 1.675809892027698E9, 0.0, 2023-02-07 17:44:52.027
228.0, 2913.48283451591, 187500.0, 187500.0, 187500.0, -187500.02235174447, -187500.02235174447, -187500.02235174447, -187500.02235174447, 0.004, -0.024, -0.992, 192.0, 0.0, 0.0, 0.0, 0.0, 0.0, 0.0, 0.0, 0.0, 0.0, 1.675809892035641E9, 0.0, 2023-02-07 17:44:52.035
229.0, 2976.090070735225, 187500.0, 187500.0, 187500.0, -187500.02235174447, -187500.02235174447, -187500.02235174447, -187500.02235174447, 0.004, -0.024, -0.992, 192.0, 0.0, 0.0, 0.0, 0.0, 0.0, 0.0, 0.0, 0.0, 0.0, 1.675809892035653E9, 0.0, 2023-02-07 17:44:52.035
230.0, 2979.8451638037163, 187500.0, 187500.0, 187500.0, -187500.02235174447, -187500.02235174447, -187500.02235174447, -187500.02235174447, 0.004, -0.024, -0.992, 192.0, 0.0, 0.0, 0.0, 0.0, 0.0, 0.0, 0.0, 0.0, 0.0, 1.675809892043739E9, 0.0, 2023-02-07 17:44:52.043
231.0, 3002.398073959121, 187500.0, 187500.0, 187500.0, -187500.02235174447, -187500.02235174447, -187500.02235174447, -187500.02235174447, 0.004, -0.024, -0.992, 192.0, 0.0, 0.0, 0.0, 0.0, 0.0, 0.0, 0.0, 0.0, 0.0, 1.675809892043752E9, 0.0, 2023-02-07 17:44:52.043
232.0, 3047.4144872921097, 187500.0, 187500.0, 187500.0, -187500.02235174447, -187500.02235174447, -187500.02235174447, -187500.02235174447, 0.004, -0.024, -0.992, 192.0, 0.0, 0.0, 0.0, 0.0, 0.0, 0.0, 0.0, 0.0, 0.0, 1.675809892049908E9, 0.0, 2023-02-07 17:44:52.049
233.0, 3068.0898509132685, 187500.0, 187500.0, 187500.0, -187500.02235174447, -187500.02235174447, -187500.02235174447, -187500.02235174447, 0.004, -0.024, -0.992, 192.0, 0.0, 0.0, 0.0, 0.0, 0.0, 0.0, 0.0, 0.0, 0.0, 1.675809892057308E9, 0.0, 2023-02-07 17:44:52.057
234.0, 3163.1071165927788, 187500.0, 187500.0, 187500.0, -187500.02235174447, -187500.02235174447, -187500.02235174447, -187500.02235174447, 0.008, -0.028, -0.992, 192.0, 0.0, 64.0, 255.0, 32.0, 225.0, 0.0, 0.0, 0.0, 0.0, 1.675809892057329E9, 0.0, 2023-02-07 17:44:52.057
235.0, 3064.89355145616, 187500.0, 187500.0, 187500.0, -187500.02235174447, -187500.02235174447, -187500.02235174447, -187500.02235174447, 0.008, -0.028, -0.992, 192.0, 0.0, 0.0, 0.0, 0.0, 0.0, 0.0, 0.0, 0.0, 0.0, 1.675809892066233E9, 0.0, 2023-02-07 17:44:52.066
236.0, 2938.7850092393173, 187500.0, 187500.0, 187500.0, -187500.02235174447, -187500.02235174447, -187500.02235174447, -187500.02235174447, 0.008, -0.028, -0.992, 192.0, 0.0, 0.0, 0.0, 0.0, 0.0, 0.0, 0.0, 0.0, 0.0, 1.67580989206629E9, 0.0, 2023-02-07 17:44:52.066
237.0, 2970.1668584545682, 187500.0, 187500.0, 187500.0, -187500.02235174447, -187500.02235174447, -187500.02235174447, -187500.02235174447, 0.008, -0.028, -0.992, 192.0, 0.0, 0.0, 0.0, 0.0, 0.0, 0.0, 0.0, 0.0, 0.0, 1.675809892072632E9, 0.0, 2023-02-07 17:44:52.072
238.0, 2959.102744949191, 187500.0, 187500.0, 187500.0, -187500.02235174447, -187500.02235174447, -187500.02235174447, -187500.02235174447, 0.008, -0.028, -0.992, 192.0, 0.0, 0.0, 0.0, 0.0, 0.0, 0.0, 0.0, 0.0, 0.0, 1.675809892072651E9, 0.0, 2023-02-07 17:44:52.072
239.0, 2993.4573761769984, 187500.0, 187500.0, 187500.0, -187500.02235174447, -187500.02235174447, -187500.02235174447, -187500.02235174447, 0.008, -0.028, -0.992, 192.0, 0.0, 0.0, 0.0, 0.0, 0.0, 0.0, 0.0, 0.0, 0.0, 1.675809892080034E9, 0.0, 2023-02-07 17:44:52.080
240.0, 3035.009269119414, 187500.0, 187500.0, 187500.0, -187500.02235174447, -187500.02235174447, -187500.02235174447, -187500.02235174447, 0.008, -0.028, -0.992, 192.0, 0.0, 0.0, 0.0, 0.0, 0.0, 0.0, 0.0, 0.0, 0.0, 1.675809892080048E9, 0.0, 2023-02-07 17:44:52.080
241.0, 3024.146321314135, 187500.0, 187500.0, 187500.0, -187500.02235174447, -187500.02235174447, -187500.02235174447, -187500.02235174447, 0.008, -0.028, -0.992, 192.0, 0.0, 0.0, 0.0, 0.0, 0.0, 0.0, 0.0, 0.0, 0.0, 1.675809892088026E9, 0.0, 2023-02-07 17:44:52.088
242.0, 3035.6798214530736, 187500.0, 187500.0, 187500.0, -187500.02235174447, -187500.02235174447, -187500.02235174447, -187500.02235174447, 0.008, -0.028, -0.992, 192.0, 0.0, 0.0, 0.0, 0.0, 0.0, 0.0, 0.0, 0.0, 0.0, 1.67580989208804E9, 0.0, 2023-02-07 17:44:52.088
243.0, 3066.301711356844, 187500.0, 187500.0, 187500.0, -187500.02235174447, -187500.02235174447, -187500.02235174447, -187500.02235174447, 0.008, -0.028, -0.992, 192.0, 0.0, 0.0, 0.0, 0.0, 0.0, 0.0, 0.0, 0.0, 0.0, 1.67580989209602E9, 0.0, 2023-02-07 17:44:52.096
244.0, 3078.014025451425, 187500.0, 187500.0, 187500.0, -187500.02235174447, -187500.02235174447, -187500.02235174447, -187500.02235174447, 0.01, -0.026000000000000002, -0.996, 192.0, 0.0, 80.0, 255.0, 48.0, 224.0, 224.0, 0.0, 0.0, 0.0, 1.675809892096033E9, 0.0, 2023-02-07 17:44:52.096
245.0, 3084.2948656433664, 187500.0, 187500.0, 187500.0, -187500.02235174447, -187500.02235174447, -187500.02235174447, -187500.02235174447, 0.01, -0.026000000000000002, -0.996, 192.0, 0.0, 0.0, 0.0, 0.0, 0.0, 0.0, 0.0, 0.0, 0.0, 1.675809892102657E9, 0.0, 2023-02-07 17:44:52.102
246.0, 2966.501172363898, 187500.0, 187500.0, 187500.0, -187500.02235174447, -187500.02235174447, -187500.02235174447, -187500.02235174447, 0.01, -0.026000000000000002, -0.996, 192.0, 0.0, 0.0, 0.0, 0.0, 0.0, 0.0, 0.0, 0.0, 0.0, 1.675809892102678E9, 0.0, 2023-02-07 17:44:52.102
247.0, 2954.833561758228, 187500.0, 187500.0, 187500.0, -187500.02235174447, -187500.02235174447, -187500.02235174447, -187500.02235174447, 0.01, -0.026000000000000002, -0.996, 192.0, 0.0, 0.0, 0.0, 0.0, 0.0, 0.0, 0.0, 0.0, 0.0, 1.67580989211019E9, 0.0, 2023-02-07 17:44:52.110
248.0, 3115.5873078807963, 187500.0, 187500.0, 187500.0, -187500.02235174447, -187500.02235174447, -187500.02235174447, -187500.02235174447, 0.01, -0.026000000000000002, -0.996, 192.0, 0.0, 0.0, 0.0, 0.0, 0.0, 0.0, 0.0, 0.0, 0.0, 1.675809892110212E9, 0.0, 2023-02-07 17:44:52.110
249.0, 3252.9164258142027, 187500.0, 187500.0, 187500.0, -187500.02235174447, -187500.02235174447, -187500.02235174447, -187500.02235174447, 0.01, -0.026000000000000002, -0.996, 192.0, 0.0, 0.0, 0.0, 0.0, 0.0, 0.0, 0.0, 0.0, 0.0, 1.675809892117645E9, 0.0, 2023-02-07 17:44:52.117
250.0, 3037.60207147623, 187500.0, 187500.0, 187500.0, -187500.02235174447, -187500.02235174447, -187500.02235174447, -187500.02235174447, 0.01, -0.026000000000000002, -0.996, 192.0, 0.0, 0.0, 0.0, 0.0, 0.0, 0.0, 0.0, 0.0, 0.0, 1.675809892125686E9, 0.0, 2023-02-07 17:44:52.125
251.0, 2869.539304916776, 187500.0, 187500.0, 187500.0, -187500.02235174447, -187500.02235174447, -187500.02235174447, -187500.02235174447, 0.01, -0.026000000000000002, -0.996, 192.0, 0.0, 0.0, 0.0, 0.0, 0.0, 0.0, 0.0, 0.0, 0.0, 1.675809892125741E9, 0.0, 2023-02-07 17:44:52.125
252.0, 2991.0657395202807, 187500.0, 187500.0, 187500.0, -187500.02235174447, -187500.02235174447, -187500.02235174447, -187500.02235174447, 0.01, -0.026000000000000002, -0.996, 192.0, 0.0, 0.0, 0.0, 0.0, 0.0, 0.0, 0.0, 0.0, 0.0, 1.675809892132794E9, 0.0, 2023-02-07 17:44:52.132
253.0, 3072.3590341042323, 187500.0, 187500.0, 187500.0, -187500.02235174447, -187500.02235174447, -187500.02235174447, -187500.02235174447, 0.01, -0.024, -0.992, 192.0, 0.0, 80.0, 255.0, 64.0, 225.0, 0.0, 0.0, 0.0, 0.0, 1.675809892132813E9, 0.0, 2023-02-07 17:44:52.132
254.0, 2993.367969199177, 187500.0, 187500.0, 187500.0, -187500.02235174447, -187500.02235174447, -187500.02235174447, -187500.02235174447, 0.01, -0.024, -0.992, 192.0, 0.0, 0.0, 0.0, 0.0, 0.0, 0.0, 0.0, 0.0, 0.0, 1.67580989214027E9, 0.0, 2023-02-07 17:44:52.140
255.0, 2969.9433410100155, 187500.0, 187500.0, 187500.0, -187500.02235174447, -187500.02235174447, -187500.02235174447, -187500.02235174447, 0.01, -0.024, -0.992, 192.0, 0.0, 0.0, 0.0, 0.0, 0.0, 0.0, 0.0, 0.0, 0.0, 1.675809892140285E9, 0.0, 2023-02-07 17:44:52.140
0.0, 3121.0858370168016, 187500.0, 187500.0, 187500.0, -187500.02235174447, -187500.02235174447, -187500.02235174447, -187500.02235174447, 0.01, -0.024, -0.992, 192.0, 0.0, 0.0, 0.0, 0.0, 0.0, 0.0, 0.0, 0.0, 0.0, 1.675809892148394E9, 0.0, 2023-02-07 17:44:52.148
1.0, 3236.264376194999, 187500.0, 187500.0, 187500.0, -187500.02235174447, -187500.02235174447, -187500.02235174447, -187500.02235174447, 0.01, -0.024, -0.992, 192.0, 0.0, 0.0, 0.0, 0.0, 0.0, 0.0, 0.0, 0.0, 0.0, 1.675809892148417E9, 0.0, 2023-02-07 17:44:52.148
2.0, 2921.954145664471, 187500.0, 187500.0, 187500.0, -187500.02235174447, -187500.02235174447, -187500.02235174447, -187500.02235174447, 0.01, -0.024, -0.992, 192.0, 0.0, 0.0, 0.0, 0.0, 0.0, 0.0, 0.0, 0.0, 0.0, 1.675809892155455E9, 0.0, 2023-02-07 17:44:52.155
3.0, 2906.084407101203, 187500.0, 187500.0, 187500.0, -187500.02235174447, -187500.02235174447, -187500.02235174447, -187500.02235174447, 0.01, -0.024, -0.992, 192.0, 0.0, 0.0, 0.0, 0.0, 0.0, 0.0, 0.0, 0.0, 0.0, 1.675809892155475E9, 0.0, 2023-02-07 17:44:52.155
4.0, 2920.411875297055, 187500.0, 187500.0, 187500.0, -187500.02235174447, -187500.02235174447, -187500.02235174447, -187500.02235174447, 0.01, -0.024, -0.992, 192.0, 0.0, 0.0, 0.0, 0.0, 0.0, 0.0, 0.0, 0.0, 0.0, 1.675809892162926E9, 0.0, 2023-02-07 17:44:52.162
5.0, 2974.3913381566213, 187500.0, 187500.0, 187500.0, -187500.02235174447, -187500.02235174447, -187500.02235174447, -187500.02235174447, 0.01, -0.024, -0.992, 192.0, 0.0, 0.0, 0.0, 0.0, 0.0, 0.0, 0.0, 0.0, 0.0, 1.675809892162942E9, 0.0, 2023-02-07 17:44:52.162
6.0, 2973.720785822962, 187500.0, 187500.0, 187500.0, -187500.02235174447, -187500.02235174447, -187500.02235174447, -187500.02235174447, 0.01, -0.024, -0.992, 192.0, 0.0, 0.0, 0.0, 0.0, 0.0, 0.0, 0.0, 0.0, 0.0, 1.67580989217086E9, 0.0, 2023-02-07 17:44:52.170
7.0, 3055.6622809961177, 187500.0, 187500.0, 187500.0, -187500.02235174447, -187500.02235174447, -187500.02235174447, -187500.02235174447, 0.014, -0.026000000000000002, -0.99, 192.0, 0.0, 112.0, 255.0, 48.0, 225.0, 16.0, 0.0, 0.0, 0.0, 1.675809892170878E9, 0.0, 2023-02-07 17:44:52.170
8.0, 3190.353893083798, 187500.0, 187500.0, 187500.0, -187500.02235174447, -187500.02235174447, -187500.02235174447, -187500.02235174447, 0.014, -0.026000000000000002, -0.99, 192.0, 0.0, 0.0, 0.0, 0.0, 0.0, 0.0, 0.0, 0.0, 0.0, 1.67580989217801E9, 0.0, 2023-02-07 17:44:52.178
9.0, 3078.4834120849864, 187500.0, 187500.0, 187500.0, -187500.02235174447, -187500.02235174447, -187500.02235174447, -187500.02235174447, 0.014, -0.026000000000000002, -0.99, 192.0, 0.0, 0.0, 0.0, 0.0, 0.0, 0.0, 0.0, 0.0, 0.0, 1.675809892185124E9, 0.0, 2023-02-07 17:44:52.185
10.0, 2819.5831560591646, 187500.0, 187500.0, 187500.0, -187500.02235174447, -187500.02235174447, -187500.02235174447, -187500.02235174447, 0.014, -0.026000000000000002, -0.99, 192.0, 0.0, 0.0, 0.0, 0.0, 0.0, 0.0, 0.0, 0.0, 0.0, 1.675809892185171E9, 0.0, 2023-02-07 17:44:52.185
11.0, 2910.822976925728, 187500.0, 187500.0, 187500.0, -187500.02235174447, -187500.02235174447, -187500.02235174447, -187500.02235174447, 0.014, -0.026000000000000002, -0.99, 192.0, 0.0, 0.0, 0.0, 0.0, 0.0, 0.0, 0.0, 0.0, 0.0, 1.675809892194313E9, 0.0, 2023-02-07 17:44:52.194
12.0, 2951.5478553232974, 187500.0, 187500.0, 187500.0, -187500.02235174447, -187500.02235174447, -187500.02235174447, -187500.02235174447, 0.014, -0.026000000000000002, -0.99, 192.0, 0.0, 0.0, 0.0, 0.0, 0.0, 0.0, 0.0, 0.0, 0.0, 1.675809892194333E9, 0.0, 2023-02-07 17:44:52.194
13.0, 3001.414597203088, 187500.0, 187500.0, 187500.0, -187500.02235174447, -187500.02235174447, -187500.02235174447, -187500.02235174447, 0.014, -0.026000000000000002, -0.99, 192.0, 0.0, 0.0, 0.0, 0.0, 0.0, 0.0, 0.0, 0.0, 0.0, 1.675809892200569E9, 0.0, 2023-02-07 17:44:52.200
14.0, 3069.475659069498, 187500.0, 187500.0, 187500.0, -187500.02235174447, -187500.02235174447, -187500.02235174447, -187500.02235174447, 0.014, -0.026000000000000002, -0.99, 192.0, 0.0, 0.0, 0.0, 0.0, 0.0, 0.0, 0.0, 0.0, 0.0, 1.675809892200581E9, 0.0, 2023-02-07 17:44:52.200
15.0, 2959.5274280938424, 187500.0, 187500.0, 187500.0, -187500.02235174447, -187500.02235174447, -187500.02235174447, -187500.02235174447, 0.014, -0.026000000000000002, -0.99, 192.0, 0.0, 0.0, 0.0, 0.0, 0.0, 0.0, 0.0, 0.0, 0.0, 1.675809892208608E9, 0.0, 2023-02-07 17:44:52.208
16.0, 2927.0279916558256, 187500.0, 187500.0, 187500.0, -187500.02235174447, -187500.02235174447, -187500.02235174447, -187500.02235174447, 0.014, -0.026000000000000002, -0.99, 192.0, 0.0, 0.0, 0.0, 0.0, 0.0, 0.0, 0.0, 0.0, 0.0, 1.675809892208625E9, 0.0, 2023-02-07 17:44:52.208
17.0, 2985.6119138731856, 187500.0, 187500.0, 187500.0, -187500.02235174447, -187500.02235174447, -187500.02235174447, -187500.02235174447, 0.012, -0.024, -0.99, 192.0, 0.0, 96.0, 255.0, 64.0, 225.0, 16.0, 0.0, 0.0, 0.0, 1.675809892215207E9, 0.0, 2023-02-07 17:44:52.215
18.0, 3120.1917672385894, 187500.0, 187500.0, 187500.0, -187500.02235174447, -187500.02235174447, -187500.02235174447, -187500.02235174447, 0.012, -0.024, -0.99, 192.0, 0.0, 0.0, 0.0, 0.0, 0.0, 0.0, 0.0, 0.0, 0.0, 1.67580989221522E9, 0.0, 2023-02-07 17:44:52.215
19.0, 3151.886540876215, 187500.0, 187500.0, 187500.0, -187500.02235174447, -187500.02235174447, -187500.02235174447, -187500.02235174447, 0.012, -0.024, -0.99, 192.0, 0.0, 0.0, 0.0, 0.0, 0.0, 0.0, 0.0, 0.0, 0.0, 1.675809892223097E9, 0.0, 2023-02-07 17:44:52.223
20.0, 2876.468345697921, 187500.0, 187500.0, 187500.0, -187500.02235174447, -187500.02235174447, -187500.02235174447, -187500.02235174447, 0.012, -0.024, -0.99, 192.0, 0.0, 0.0, 0.0, 0.0, 0.0, 0.0, 0.0, 0.0, 0.0, 1.67580989222311E9, 0.0, 2023-02-07 17:44:52.223
21.0, 2871.841534595673, 187500.0, 187500.0, 187500.0, -187500.02235174447, -187500.02235174447, -187500.02235174447, -187500.02235174447, 0.012, -0.024, -0.99, 192.0, 0.0, 0.0, 0.0, 0.0, 0.0, 0.0, 0.0, 0.0, 0.0, 1.675809892231338E9, 0.0, 2023-02-07 17:44:52.231
22.0, 2933.9346806925155, 187500.0, 187500.0, 187500.0, -187500.02235174447, -187500.02235174447, -187500.02235174447, -187500.02235174447, 0.012, -0.024, -0.99, 192.0, 0.0, 0.0, 0.0, 0.0, 0.0, 0.0, 0.0, 0.0, 0.0, 1.67580989223137E9, 0.0, 2023-02-07 17:44:52.231
23.0, 2945.7140500204623, 187500.0, 187500.0, 187500.0, -187500.02235174447, -187500.02235174447, -187500.02235174447, -187500.02235174447, 0.012, -0.024, -0.99, 192.0, 0.0, 0.0, 0.0, 0.0, 0.0, 0.0, 0.0, 0.0, 0.0, 1.675809892250665E9, 0.0, 2023-02-07 17:44:52.250
24.0, 2952.598387312697, 187500.0, 187500.0, 187500.0, -187500.02235174447, -187500.02235174447, -187500.02235174447, -187500.02235174447, 0.012, -0.024, -0.99, 192.0, 0.0, 0.0, 0.0, 0.0, 0.0, 0.0, 0.0, 0.0, 0.0, 1.675809892250778E9, 0.0, 2023-02-07 17:44:52.250
25.0, 2967.9987392424036, 187500.0, 187500.0, 187500.0, -187500.02235174447, -187500.02235174447, -187500.02235174447, -187500.02235174447, 0.012, -0.024, -0.99, 192.0, 0.0, 0.0, 0.0, 0.0, 0.0, 0.0, 0.0, 0.0, 0.0, 1.675809892250791E9, 0.0, 2023-02-07 17:44:52.250
26.0, 2995.7819576003503, 187500.0, 187500.0, 187500.0, -187500.02235174447, -187500.02235174447, -187500.02235174447, -187500.02235174447, 0.012, -0.024, -0.99, 192.0, 0.0, 0.0, 0.0, 0.0, 0.0, 0.0, 0.0, 0.0, 0.0, 1.675809892252996E9, 0.0, 2023-02-07 17:44:52.252
27.0, 3013.6410014201406, 187500.0, 187500.0, 187500.0, -187500.02235174447, -187500.02235174447, -187500.02235174447, -187500.02235174447, 0.014, -0.022, -0.992, 192.0, 0.0, 112.0, 255.0, 80.0, 225.0, 0.0, 0.0, 0.0, 0.0, 1.675809892253007E9, 0.0, 2023-02-07 17:44:52.253
28.0, 2972.8714195336606, 187500.0, 187500.0, 187500.0, -187500.02235174447, -187500.02235174447, -187500.02235174447, -187500.02235174447, 0.014, -0.022, -0.992, 192.0, 0.0, 0.0, 0.0, 0.0, 0.0, 0.0, 0.0, 0.0, 0.0, 1.675809892260892E9, 0.0, 2023-02-07 17:44:52.260
29.0, 3047.8391704367605, 187500.0, 187500.0, 187500.0, -187500.02235174447, -187500.02235174447, -187500.02235174447, -187500.02235174447, 0.014, -0.022, -0.992, 192.0, 0.0, 0.0, 0.0, 0.0, 0.0, 0.0, 0.0, 0.0, 0.0, 1.675809892260914E9, 0.0, 2023-02-07 17:44:52.260
30.0, 2998.5759256572637, 187500.0, 187500.0, 187500.0, -187500.02235174447, -187500.02235174447, -187500.02235174447, -187500.02235174447, 0.014, -0.022, -0.992, 192.0, 0.0, 0.0, 0.0, 0.0, 0.0, 0.0, 0.0, 0.0, 0.0, 1.675809892267889E9, 0.0, 2023-02-07 17:44:52.267
31.0, 2916.8802996731165, 187500.0, 187500.0, 187500.0, -187500.02235174447, -187500.02235174447, -187500.02235174447, -187500.02235174447, 0.014, -0.022, -0.992, 192.0, 0.0, 0.0, 0.0, 0.0, 0.0, 0.0, 0.0, 0.0, 0.0, 1.675809892267906E9, 0.0, 2023-02-07 17:44:52.267
32.0, 2942.9871371969152, 187500.0, 187500.0, 187500.0, -187500.02235174447, -187500.02235174447, -187500.02235174447, -187500.02235174447, 0.014, -0.022, -0.992, 192.0, 0.0, 0.0, 0.0, 0.0, 0.0, 0.0, 0.0, 0.0, 0.0, 1.675809892275396E9, 0.0, 2023-02-07 17:44:52.275
33.0, 3077.1199556732126, 187500.0, 187500.0, 187500.0, -187500.02235174447, -187500.02235174447, -187500.02235174447, -187500.02235174447, 0.014, -0.022, -0.992, 192.0, 0.0, 0.0, 0.0, 0.0, 0.0, 0.0, 0.0, 0.0, 0.0, 1.67580989227542E9, 0.0, 2023-02-07 17:44:52.275
34.0, 3055.3940600626543, 187500.0, 187500.0, 187500.0, -187500.02235174447, -187500.02235174447, -187500.02235174447, -187500.02235174447, 0.014, -0.022, -0.992, 192.0, 0.0, 0.0, 0.0, 0.0, 0.0, 0.0, 0.0, 0.0, 0.0, 1.675809892283481E9, 0.0, 2023-02-07 17:44:52.283
35.0, 2848.014575006315, 187500.0, 187500.0, 187500.0, -187500.02235174447, -187500.02235174447, -187500.02235174447, -187500.02235174447, 0.014, -0.022, -0.992, 192.0, 0.0, 0.0, 0.0, 0.0, 0.0, 0.0, 0.0, 0.0, 0.0, 1.675809892283502E9, 0.0, 2023-02-07 17:44:52.283
36.0, 3002.2416117479343, 187500.0, 187500.0, 187500.0, -187500.02235174447, -187500.02235174447, -187500.02235174447, -187500.02235174447, 0.014, -0.022, -0.992, 192.0, 0.0, 0.0, 0.0, 0.0, 0.0, 0.0, 0.0, 0.0, 0.0, 1.67580989229142E9, 0.0, 2023-02-07 17:44:52.291
37.0, 3107.8089008103493, 187500.0, 187500.0, 187500.0, -187500.02235174447, -187500.02235174447, -187500.02235174447, -187500.02235174447, 0.016, -0.022, -0.994, 192.0, 0.0, 128.0, 255.0, 80.0, 224.0, 240.0, 0.0, 0.0, 0.0, 1.675809892291444E9, 0.0, 2023-02-07 17:44:52.291
38.0, 3075.2200573945115, 187500.0, 187500.0, 187500.0, -187500.02235174447, -187500.02235174447, -187500.02235174447, -187500.02235174447, 0.016, -0.022, -0.994, 192.0, 0.0, 0.0, 0.0, 0.0, 0.0, 0.0, 0.0, 0.0, 0.0, 1.675809892297549E9, 0.0, 2023-02-07 17:44:52.297
39.0, 2978.2581899473894, 187500.0, 187500.0, 187500.0, -187500.02235174447, -187500.02235174447, -187500.02235174447, -187500.02235174447, 0.016, -0.022, -0.994, 192.0, 0.0, 0.0, 0.0, 0.0, 0.0, 0.0, 0.0, 0.0, 0.0, 1.675809892305041E9, 0.0, 2023-02-07 17:44:52.305
40.0, 2848.3722029176, 187500.0, 187500.0, 187500.0, -187500.02235174447, -187500.02235174447, -187500.02235174447, -187500.02235174447, 0.016, -0.022, -0.994, 192.0, 0.0, 0.0, 0.0, 0.0, 0.0, 0.0, 0.0, 0.0, 0.0, 1.675809892305057E9, 0.0, 2023-02-07 17:44:52.305
41.0, 2836.4587231229216, 187500.0, 187500.0, 187500.0, -187500.02235174447, -187500.02235174447, -187500.02235174447, -187500.02235174447, 0.016, -0.022, -0.994, 192.0, 0.0, 0.0, 0.0, 0.0, 0.0, 0.0, 0.0, 0.0, 0.0, 1.675809892313137E9, 0.0, 2023-02-07 17:44:52.313
42.0, 2917.081465373214, 187500.0, 187500.0, 187500.0, -187500.02235174447, -187500.02235174447, -187500.02235174447, -187500.02235174447, 0.016, -0.022, -0.994, 192.0, 0.0, 0.0, 0.0, 0.0, 0.0, 0.0, 0.0, 0.0, 0.0, 1.675809892313156E9, 0.0, 2023-02-07 17:44:52.313
43.0, 2947.1892651545127, 187500.0, 187500.0, 187500.0, -187500.02235174447, -187500.02235174447, -187500.02235174447, -187500.02235174447, 0.016, -0.022, -0.994, 192.0, 0.0, 0.0, 0.0, 0.0, 0.0, 0.0, 0.0, 0.0, 0.0, 1.675809892320258E9, 0.0, 2023-02-07 17:44:52.320
44.0, 2932.9065004475715, 187500.0, 187500.0, 187500.0, -187500.02235174447, -187500.02235174447, -187500.02235174447, -187500.02235174447, 0.016, -0.022, -0.994, 192.0, 0.0, 0.0, 0.0, 0.0, 0.0, 0.0, 0.0, 0.0, 0.0, 1.675809892320278E9, 0.0, 2023-02-07 17:44:52.320
45.0, 2982.3485591827107, 187500.0, 187500.0, 187500.0, -187500.02235174447, -187500.02235174447, -187500.02235174447, -187500.02235174447, 0.016, -0.022, -0.994, 192.0, 0.0, 0.0, 0.0, 0.0, 0.0, 0.0, 0.0, 0.0, 0.0, 1.675809892327635E9, 0.0, 2023-02-07 17:44:52.327
46.0, 2965.0930124632137, 187500.0, 187500.0, 187500.0, -187500.02235174447, -187500.02235174447, -187500.02235174447, -187500.02235174447, 0.016, -0.022, -0.994, 192.0, 0.0, 0.0, 0.0, 0.0, 0.0, 0.0, 0.0, 0.0, 0.0, 1.67580989232765E9, 0.0, 2023-02-07 17:44:52.327
47.0, 2929.8443114571946, 187500.0, 187500.0, 187500.0, -187500.02235174447, -187500.02235174447, -187500.02235174447, -187500.02235174447, 0.01, -0.028, -1.002, 192.0, 0.0, 80.0, 255.0, 32.0, 224.0, 176.0, 0.0, 0.0, 0.0, 1.675809892335667E9, 0.0, 2023-02-07 17:44:52.335
48.0, 2996.0054750449035, 187500.0, 187500.0, 187500.0, -187500.02235174447, -187500.02235174447, -187500.02235174447, -187500.02235174447, 0.01, -0.028, -1.002, 192.0, 0.0, 0.0, 0.0, 0.0, 0.0, 0.0, 0.0, 0.0, 0.0, 1.67580989233568E9, 0.0, 2023-02-07 17:44:52.335
49.0, 3042.8323796787718, 187500.0, 187500.0, 187500.0, -187500.02235174447, -187500.02235174447, -187500.02235174447, -187500.02235174447, 0.01, -0.028, -1.002, 192.0, 0.0, 0.0, 0.0, 0.0, 0.0, 0.0, 0.0, 0.0, 0.0, 1.675809892343709E9, 0.0, 2023-02-07 17:44:52.343
50.0, 2983.3543876831995, 187500.0, 187500.0, 187500.0, -187500.02235174447, -187500.02235174447, -187500.02235174447, -187500.02235174447, 0.01, -0.028, -1.002, 192.0, 0.0, 0.0, 0.0, 0.0, 0.0, 0.0, 0.0, 0.0, 0.0, 1.675809892343722E9, 0.0, 2023-02-07 17:44:52.343
51.0, 2915.5168432613427, 187500.0, 187500.0, 187500.0, -187500.02235174447, -187500.02235174447, -187500.02235174447, -187500.02235174447, 0.01, -0.028, -1.002, 192.0, 0.0, 0.0, 0.0, 0.0, 0.0, 0.0, 0.0, 0.0, 0.0, 1.675809892350434E9, 0.0, 2023-02-07 17:44:52.350
52.0, 2971.1950386995127, 187500.0, 187500.0, 187500.0, -187500.02235174447, -187500.02235174447, -187500.02235174447, -187500.02235174447, 0.01, -0.028, -1.002, 192.0, 0.0, 0.0, 0.0, 0.0, 0.0, 0.0, 0.0, 0.0, 0.0, 1.675809892350447E9, 0.0, 2023-02-07 17:44:52.350
53.0, 2981.6556551045965, 187500.0, 187500.0, 187500.0, -187500.02235174447, -187500.02235174447, -187500.02235174447, -187500.02235174447, 0.01, -0.028, -1.002, 192.0, 0.0, 0.0, 0.0, 0.0, 0.0, 0.0, 0.0, 0.0, 0.0, 1.675809892357321E9, 0.0, 2023-02-07 17:44:52.357
54.0, 2977.028844002348, 187500.0, 187500.0, 187500.0, -187500.02235174447, -187500.02235174447, -187500.02235174447, -187500.02235174447, 0.01, -0.028, -1.002, 192.0, 0.0, 0.0, 0.0, 0.0, 0.0, 0.0, 0.0, 0.0, 0.0, 1.675809892357344E9, 0.0, 2023-02-07 17:44:52.357
55.0, 3057.115144385713, 187500.0, 187500.0, 187500.0, -187500.02235174447, -187500.02235174447, -187500.02235174447, -187500.02235174447, 0.01, -0.028, -1.002, 192.0, 0.0, 0.0, 0.0, 0.0, 0.0, 0.0, 0.0, 0.0, 0.0, 1.675809892365389E9, 0.0, 2023-02-07 17:44:52.365
56.0, 3229.9611842586023, 187500.0, 187500.0, 187500.0, -187500.02235174447, -187500.02235174447, -187500.02235174447, -187500.02235174447, 0.012, -0.028, -0.996, 192.0, 0.0, 96.0, 255.0, 32.0, 224.0, 224.0, 0.0, 0.0, 0.0, 1.675809892373337E9, 0.0, 2023-02-07 17:44:52.373
57.0, 3089.636932568185, 187500.0, 187500.0, 187500.0, -187500.02235174447, -187500.02235174447, -187500.02235174447, -187500.02235174447, 0.012, -0.028, -0.996, 192.0, 0.0, 0.0, 0.0, 0.0, 0.0, 0.0, 0.0, 0.0, 0.0, 1.67580989237335E9, 0.0, 2023-02-07 17:44:52.373
58.0, 2974.8160213012725, 187500.0, 187500.0, 187500.0, -187500.02235174447, -187500.02235174447, -187500.02235174447, -187500.02235174447, 0.012, -0.028, -0.996, 192.0, 0.0, 0.0, 0.0, 0.0, 0.0, 0.0, 0.0, 0.0, 0.0, 1.675809892380133E9, 0.0, 2023-02-07 17:44:52.380
59.0, 2948.083334932725, 187500.0, 187500.0, 187500.0, -187500.02235174447, -187500.02235174447, -187500.02235174447, -187500.02235174447, 0.012, -0.028, -0.996, 192.0, 0.0, 0.0, 0.0, 0.0, 0.0, 0.0, 0.0, 0.0, 0.0, 1.675809892380146E9, 0.0, 2023-02-07 17:44:52.380
60.0, 2904.475081500421, 187500.0, 187500.0, 187500.0, -187500.02235174447, -187500.02235174447, -187500.02235174447, -187500.02235174447, 0.012, -0.028, -0.996, 192.0, 0.0, 0.0, 0.0, 0.0, 0.0, 0.0, 0.0, 0.0, 0.0, 1.675809892387986E9, 0.0, 2023-02-07 17:44:52.387
61.0, 2849.959176773927, 187500.0, 187500.0, 187500.0, -187500.02235174447, -187500.02235174447, -187500.02235174447, -187500.02235174447, 0.012, -0.028, -0.996, 192.0, 0.0, 0.0, 0.0, 0.0, 0.0, 0.0, 0.0, 0.0, 0.0, 1.675809892388007E9, 0.0, 2023-02-07 17:44:52.388
62.0, 2864.8454385811615, 187500.0, 187500.0, 187500.0, -187500.02235174447, -187500.02235174447, -187500.02235174447, -187500.02235174447, 0.012, -0.028, -0.996, 192.0, 0.0, 0.0, 0.0, 0.0, 0.0, 0.0, 0.0, 0.0, 0.0, 1.67580989239599E9, 0.0, 2023-02-07 17:44:52.395
63.0, 2982.929704538549, 187500.0, 187500.0, 187500.0, -187500.02235174447, -187500.02235174447, -187500.02235174447, -187500.02235174447, 0.012, -0.028, -0.996, 192.0, 0.0, 0.0, 0.0, 0.0, 0.0, 0.0, 0.0, 0.0, 0.0, 1.675809892396006E9, 0.0, 2023-02-07 17:44:52.396
64.0, 3151.7971338983934, 187500.0, 187500.0, 187500.0, -187500.02235174447, -187500.02235174447, -187500.02235174447, -187500.02235174447, 0.012, -0.028, -0.996, 192.0, 0.0, 0.0, 0.0, 0.0, 0.0, 0.0, 0.0, 0.0, 0.0, 1.675809892403084E9, 0.0, 2023-02-07 17:44:52.403
65.0, 3138.0508110583796, 187500.0, 187500.0, 187500.0, -187500.02235174447, -187500.02235174447, -187500.02235174447, -187500.02235174447, 0.012, -0.028, -0.996, 192.0, 0.0, 0.0, 0.0, 0.0, 0.0, 0.0, 0.0, 0.0, 0.0, 1.675809892403113E9, 0.0, 2023-02-07 17:44:52.403
66.0, 2971.3067974217893, 187500.0, 187500.0, 187500.0, -187500.02235174447, -187500.02235174447, -187500.02235174447, -187500.02235174447, 0.01, -0.028, -0.994, 192.0, 0.0, 80.0, 255.0, 32.0, 224.0, 240.0, 0.0, 0.0, 0.0, 1.675809892410608E9, 0.0, 2023-02-07 17:44:52.410
67.0, 2836.346964400645, 187500.0, 187500.0, 187500.0, -187500.02235174447, -187500.02235174447, -187500.02235174447, -187500.02235174447, 0.01, -0.028, -0.994, 192.0, 0.0, 0.0, 0.0, 0.0, 0.0, 0.0, 0.0, 0.0, 0.0, 1.675809892410627E9, 0.0, 2023-02-07 17:44:52.410
68.0, 2785.2061730869023, 187500.0, 187500.0, 187500.0, -187500.02235174447, -187500.02235174447, -187500.02235174447, -187500.02235174447, 0.01, -0.028, -0.994, 192.0, 0.0, 0.0, 0.0, 0.0, 0.0, 0.0, 0.0, 0.0, 0.0, 1.675809892418624E9, 0.0, 2023-02-07 17:44:52.418
69.0, 2893.3886162505887, 187500.0, 187500.0, 187500.0, -187500.02235174447, -187500.02235174447, -187500.02235174447, -187500.02235174447, 0.01, -0.028, -0.994, 192.0, 0.0, 0.0, 0.0, 0.0, 0.0, 0.0, 0.0, 0.0, 0.0, 1.675809892418637E9, 0.0, 2023-02-07 17:44:52.418
70.0, 3050.051993137836, 187500.0, 187500.0, 187500.0, -187500.02235174447, -187500.02235174447, -187500.02235174447, -187500.02235174447, 0.01, -0.028, -0.994, 192.0, 0.0, 0.0, 0.0, 0.0, 0.0, 0.0, 0.0, 0.0, 0.0, 1.675809892425706E9, 0.0, 2023-02-07 17:44:52.425
71.0, 2999.3135332242887, 187500.0, 187500.0, 187500.0, -187500.02235174447, -187500.02235174447, -187500.02235174447, -187500.02235174447, 0.01, -0.028, -0.994, 192.0, 0.0, 0.0, 0.0, 0.0, 0.0, 0.0, 0.0, 0.0, 0.0, 1.675809892432961E9, 0.0, 2023-02-07 17:44:52.432
72.0, 2809.7260367543745, 187500.0, 187500.0, 187500.0, -187500.02235174447, -187500.02235174447, -187500.02235174447, -187500.02235174447, 0.01, -0.028, -0.994, 192.0, 0.0, 0.0, 0.0, 0.0, 0.0, 0.0, 0.0, 0.0, 0.0, 1.675809892432976E9, 0.0, 2023-02-07 17:44:52.432
73.0, 2871.573313662209, 187500.0, 187500.0, 187500.0, -187500.02235174447, -187500.02235174447, -187500.02235174447, -187500.02235174447, 0.01, -0.028, -0.994, 192.0, 0.0, 0.0, 0.0, 0.0, 0.0, 0.0, 0.0, 0.0, 0.0, 1.675809892440453E9, 0.0, 2023-02-07 17:44:52.440
74.0, 2874.3672817191223, 187500.0, 187500.0, 187500.0, -187500.02235174447, -187500.02235174447, -187500.02235174447, -187500.02235174447, 0.01, -0.028, -0.994, 192.0, 0.0, 0.0, 0.0, 0.0, 0.0, 0.0, 0.0, 0.0, 0.0, 1.675809892440474E9, 0.0, 2023-02-07 17:44:52.440
75.0, 2908.2972298022783, 187500.0, 187500.0, 187500.0, -187500.02235174447, -187500.02235174447, -187500.02235174447, -187500.02235174447, 0.01, -0.028, -0.994, 192.0, 0.0, 0.0, 0.0, 0.0, 0.0, 0.0, 0.0, 0.0, 0.0, 1.675809892448233E9, 0.0, 2023-02-07 17:44:52.448
76.0, 2970.211561943479, 187500.0, 187500.0, 187500.0, -187500.02235174447, -187500.02235174447, -187500.02235174447, -187500.02235174447, 0.012, -0.028, -0.996, 192.0, 0.0, 96.0, 255.0, 32.0, 224.0, 224.0, 0.0, 0.0, 0.0, 1.675809892448254E9, 0.0, 2023-02-07 17:44:52.448
77.0, 2936.728648749429, 187500.0, 187500.0, 187500.0, -187500.02235174447, -187500.02235174447, -187500.02235174447, -187500.02235174447, 0.012, -0.028, -0.996, 192.0, 0.0, 0.0, 0.0, 0.0, 0.0, 0.0, 0.0, 0.0, 0.0, 1.675809892456316E9, 0.0, 2023-02-07 17:44:52.456
78.0, 2881.028101566804, 187500.0, 187500.0, 187500.0, -187500.02235174447, -187500.02235174447, -187500.02235174447, -187500.02235174447, 0.012, -0.028, -0.996, 192.0, 0.0, 0.0, 0.0, 0.0, 0.0, 0.0, 0.0, 0.0, 0.0, 1.675809892456328E9, 0.0, 2023-02-07 17:44:52.456
79.0, 2911.180604837013, 187500.0, 187500.0, 187500.0, -187500.02235174447, -187500.02235174447, -187500.02235174447, -187500.02235174447, 0.012, -0.028, -0.996, 192.0, 0.0, 0.0, 0.0, 0.0, 0.0, 0.0, 0.0, 0.0, 0.0, 1.675809892462893E9, 0.0, 2023-02-07 17:44:52.462
80.0, 2963.3272246512443, 187500.0, 187500.0, 187500.0, -187500.02235174447, -187500.02235174447, -187500.02235174447, -187500.02235174447, 0.012, -0.028, -0.996, 192.0, 0.0, 0.0, 0.0, 0.0, 0.0, 0.0, 0.0, 0.0, 0.0, 1.675809892462906E9, 0.0, 2023-02-07 17:44:52.462
81.0, 2950.542026822809, 187500.0, 187500.0, 187500.0, -187500.02235174447, -187500.02235174447, -187500.02235174447, -187500.02235174447, 0.012, -0.028, -0.996, 192.0, 0.0, 0.0, 0.0, 0.0, 0.0, 0.0, 0.0, 0.0, 0.0, 1.675809892470978E9, 0.0, 2023-02-07 17:44:52.470
82.0, 2951.0337652008257, 187500.0, 187500.0, 187500.0, -187500.02235174447, -187500.02235174447, -187500.02235174447, -187500.02235174447, 0.012, -0.028, -0.996, 192.0, 0.0, 0.0, 0.0, 0.0, 0.0, 0.0, 0.0, 0.0, 0.0, 1.675809892470996E9, 0.0, 2023-02-07 17:44:52.470
83.0, 2986.2824662068447, 187500.0, 187500.0, 187500.0, -187500.02235174447, -187500.02235174447, -187500.02235174447, -187500.02235174447, 0.012, -0.028, -0.996, 192.0, 0.0, 0.0, 0.0, 0.0, 0.0, 0.0, 0.0, 0.0, 0.0, 1.675809892478872E9, 0.0, 2023-02-07 17:44:52.478
84.0, 2927.497378289387, 187500.0, 187500.0, 187500.0, -187500.02235174447, -187500.02235174447, -187500.02235174447, -187500.02235174447, 0.012, -0.028, -0.996, 192.0, 0.0, 0.0, 0.0, 0.0, 0.0, 0.0, 0.0, 0.0, 0.0, 1.675809892478884E9, 0.0, 2023-02-07 17:44:52.478
85.0, 2921.7082764754628, 187500.0, 187500.0, 187500.0, -187500.02235174447, -187500.02235174447, -187500.02235174447, -187500.02235174447, 0.012, -0.028, -0.996, 192.0, 0.0, 0.0, 0.0, 0.0, 0.0, 0.0, 0.0, 0.0, 0.0, 1.675809892486228E9, 0.0, 2023-02-07 17:44:52.486
86.0, 2988.048254018814, 187500.0, 187500.0, 187500.0, -187500.02235174447, -187500.02235174447, -187500.02235174447, -187500.02235174447, 0.008, -0.026000000000000002, -0.994, 192.0, 0.0, 64.0, 255.0, 48.0, 224.0, 240.0, 0.0, 0.0, 0.0, 1.675809892492563E9, 0.0, 2023-02-07 17:44:52.492
87.0, 3046.6098244917184, 187500.0, 187500.0, 187500.0, -187500.02235174447, -187500.02235174447, -187500.02235174447, -187500.02235174447, 0.008, -0.026000000000000002, -0.994, 192.0, 0.0, 0.0, 0.0, 0.0, 0.0, 0.0, 0.0, 0.0, 0.0, 1.675809892492582E9, 0.0, 2023-02-07 17:44:52.492
88.0, 2954.5876925692196, 187500.0, 187500.0, 187500.0, -187500.02235174447, -187500.02235174447, -187500.02235174447, -187500.02235174447, 0.008, -0.026000000000000002, -0.994, 192.0, 0.0, 0.0, 0.0, 0.0, 0.0, 0.0, 0.0, 0.0, 0.0, 1.675809892500493E9, 0.0, 2023-02-07 17:44:52.500
89.0, 3001.414597203088, 187500.0, 187500.0, 187500.0, -187500.02235174447, -187500.02235174447, -187500.02235174447, -187500.02235174447, 0.008, -0.026000000000000002, -0.994, 192.0, 0.0, 0.0, 0.0, 0.0, 0.0, 0.0, 0.0, 0.0, 0.0, 1.67580989250051E9, 0.0, 2023-02-07 17:44:52.500
90.0, 3004.8120623602945, 187500.0, 187500.0, 187500.0, -187500.02235174447, -187500.02235174447, -187500.02235174447, -187500.02235174447, 0.008, -0.026000000000000002, -0.994, 192.0, 0.0, 0.0, 0.0, 0.0, 0.0, 0.0, 0.0, 0.0, 0.0, 1.675809892508633E9, 0.0, 2023-02-07 17:44:52.508
91.0, 2877.965912576427, 187500.0, 187500.0, 187500.0, -187500.02235174447, -187500.02235174447, -187500.02235174447, -187500.02235174447, 0.008, -0.026000000000000002, -0.994, 192.0, 0.0, 0.0, 0.0, 0.0, 0.0, 0.0, 0.0, 0.0, 0.0, 1.675809892508649E9, 0.0, 2023-02-07 17:44:52.508
92.0, 2832.8824440100725, 187500.0, 187500.0, 187500.0, -187500.02235174447, -187500.02235174447, -187500.02235174447, -187500.02235174447, 0.008, -0.026000000000000002, -0.994, 192.0, 0.0, 0.0, 0.0, 0.0, 0.0, 0.0, 0.0, 0.0, 0.0, 1.675809892515808E9, 0.0, 2023-02-07 17:44:52.515
93.0, 2930.380753324122, 187500.0, 187500.0, 187500.0, -187500.02235174447, -187500.02235174447, -187500.02235174447, -187500.02235174447, 0.008, -0.026000000000000002, -0.994, 192.0, 0.0, 0.0, 0.0, 0.0, 0.0, 0.0, 0.0, 0.0, 0.0, 1.675809892515824E9, 0.0, 2023-02-07 17:44:52.515
94.0, 2907.0678838572367, 187500.0, 187500.0, 187500.0, -187500.02235174447, -187500.02235174447, -187500.02235174447, -187500.02235174447, 0.008, -0.026000000000000002, -0.994, 192.0, 0.0, 0.0, 0.0, 0.0, 0.0, 0.0, 0.0, 0.0, 0.0, 1.675809892523201E9, 0.0, 2023-02-07 17:44:52.523
95.0, 2912.7452269488845, 187500.0, 187500.0, 187500.0, -187500.02235174447, -187500.02235174447, -187500.02235174447, -187500.02235174447, 0.008, -0.026000000000000002, -0.994, 192.0, 0.0, 0.0, 0.0, 0.0, 0.0, 0.0, 0.0, 0.0, 0.0, 1.675809892523217E9, 0.0, 2023-02-07 17:44:52.523
96.0, 2968.0434427313144, 187500.0, 187500.0, 187500.0, -187500.02235174447, -187500.02235174447, -187500.02235174447, -187500.02235174447, 0.006, -0.03, -0.99, 192.0, 0.0, 48.0, 255.0, 16.0, 225.0, 16.0, 0.0, 0.0, 0.0, 1.675809892531377E9, 0.0, 2023-02-07 17:44:52.531
97.0, 2973.0278817448475, 187500.0, 187500.0, 187500.0, -187500.02235174447, -187500.02235174447, -187500.02235174447, -187500.02235174447, 0.006, -0.03, -0.99, 192.0, 0.0, 0.0, 0.0, 0.0, 0.0, 0.0, 0.0, 0.0, 0.0, 1.675809892531397E9, 0.0, 2023-02-07 17:44:52.531
98.0, 2929.3972765680883, 187500.0, 187500.0, 187500.0, -187500.02235174447, -187500.02235174447, -187500.02235174447, -187500.02235174447, 0.006, -0.03, -0.99, 192.0, 0.0, 0.0, 0.0, 0.0, 0.0, 0.0, 0.0, 0.0, 0.0, 1.675809892539225E9, 0.0, 2023-02-07 17:44:52.539
99.0, 2926.156273622069, 187500.0, 187500.0, 187500.0, -187500.02235174447, -187500.02235174447, -187500.02235174447, -187500.02235174447, 0.006, -0.03, -0.99, 192.0, 0.0, 0.0, 0.0, 0.0, 0.0, 0.0, 0.0, 0.0, 0.0, 1.675809892539243E9, 0.0, 2023-02-07 17:44:52.539
100.0, 2927.3632678226554, 187500.0, 187500.0, 187500.0, -187500.02235174447, -187500.02235174447, -187500.02235174447, -187500.02235174447, 0.006, -0.03, -0.99, 192.0, 0.0, 0.0, 0.0, 0.0, 0.0, 0.0, 0.0, 0.0, 0.0, 1.675809892545411E9, 0.0, 2023-02-07 17:44:52.545
101.0, 2943.121247663647, 187500.0, 187500.0, 187500.0, -187500.02235174447, -187500.02235174447, -187500.02235174447, -187500.02235174447, 0.006, -0.03, -0.99, 192.0, 0.0, 0.0, 0.0, 0.0, 0.0, 0.0, 0.0, 0.0, 0.0, 1.675809892552848E9, 0.0, 2023-02-07 17:44:52.552
102.0, 2901.6587616990523, 187500.0, 187500.0, 187500.0, -187500.02235174447, -187500.02235174447, -187500.02235174447, -187500.02235174447, 0.006, -0.03, -0.99, 192.0, 0.0, 0.0, 0.0, 0.0, 0.0, 0.0, 0.0, 0.0, 0.0, 1.675809892552861E9, 0.0, 2023-02-07 17:44:52.552
103.0, 2979.1299079811465, 187500.0, 187500.0, 187500.0, -187500.02235174447, -187500.02235174447, -187500.02235174447, -187500.02235174447, 0.006, -0.03, -0.99, 192.0, 0.0, 0.0, 0.0, 0.0, 0.0, 0.0, 0.0, 0.0, 0.0, 1.675809892560933E9, 0.0, 2023-02-07 17:44:52.560
104.0, 3002.018094303381, 187500.0, 187500.0, 187500.0, -187500.02235174447, -187500.02235174447, -187500.02235174447, -187500.02235174447, 0.006, -0.03, -0.99, 192.0, 0.0, 0.0, 0.0, 0.0, 0.0, 0.0, 0.0, 0.0, 0.0, 1.67580989256095E9, 0.0, 2023-02-07 17:44:52.560
105.0, 2893.567430206231, 187500.0, 187500.0, 187500.0, -187500.02235174447, -187500.02235174447, -187500.02235174447, -187500.02235174447, 0.006, -0.03, -0.99, 192.0, 0.0, 0.0, 0.0, 0.0, 0.0, 0.0, 0.0, 0.0, 0.0, 1.675809892568134E9, 0.0, 2023-02-07 17:44:52.568
106.0, 2918.1767008515244, 187500.0, 187500.0, 187500.0, -187500.02235174447, -187500.02235174447, -187500.02235174447, -187500.02235174447, 0.008, -0.026000000000000002, -0.988, 192.0, 0.0, 64.0, 255.0, 48.0, 225.0, 32.0, 0.0, 0.0, 0.0, 1.675809892568155E9, 0.0, 2023-02-07 17:44:52.568
107.0, 2908.029008868815, 187500.0, 187500.0, 187500.0, -187500.02235174447, -187500.02235174447, -187500.02235174447, -187500.02235174447, 0.008, -0.026000000000000002, -0.988, 192.0, 0.0, 0.0, 0.0, 0.0, 0.0, 0.0, 0.0, 0.0, 0.0, 1.675809892575614E9, 0.0, 2023-02-07 17:44:52.575
108.0, 2896.5178604743314, 187500.0, 187500.0, 187500.0, -187500.02235174447, -187500.02235174447, -187500.02235174447, -187500.02235174447, 0.008, -0.026000000000000002, -0.988, 192.0, 0.0, 0.0, 0.0, 0.0, 0.0, 0.0, 0.0, 0.0, 0.0, 1.675809892575637E9, 0.0, 2023-02-07 17:44:52.575
109.0, 3175.646445232206, 187500.0, 187500.0, 187500.0, -187500.02235174447, -187500.02235174447, -187500.02235174447, -187500.02235174447, 0.008, -0.026000000000000002, -0.988, 192.0, 0.0, 0.0, 0.0, 0.0, 0.0, 0.0, 0.0, 0.0, 0.0, 1.675809892583461E9, 0.0, 2023-02-07 17:44:52.583
110.0, 2873.540267174276, 187500.0, 187500.0, 187500.0, -187500.02235174447, -187500.02235174447, -187500.02235174447, -187500.02235174447, 0.008, -0.026000000000000002, -0.988, 192.0, 0.0, 0.0, 0.0, 0.0, 0.0, 0.0, 0.0, 0.0, 0.0, 1.675809892583475E9, 0.0, 2023-02-07 17:44:52.583
111.0, 2708.673800071931, 187500.0, 187500.0, 187500.0, -187500.02235174447, -187500.02235174447, -187500.02235174447, -187500.02235174447, 0.008, -0.026000000000000002, -0.988, 192.0, 0.0, 0.0, 0.0, 0.0, 0.0, 0.0, 0.0, 0.0, 0.0, 1.675809892591539E9, 0.0, 2023-02-07 17:44:52.591
112.0, 2862.118525757614, 187500.0, 187500.0, 187500.0, -187500.02235174447, -187500.02235174447, -187500.02235174447, -187500.02235174447, 0.008, -0.026000000000000002, -0.988, 192.0, 0.0, 0.0, 0.0, 0.0, 0.0, 0.0, 0.0, 0.0, 0.0, 1.675809892591552E9, 0.0, 2023-02-07 17:44:52.591
113.0, 2891.376959249611, 187500.0, 187500.0, 187500.0, -187500.02235174447, -187500.02235174447, -187500.02235174447, -187500.02235174447, 0.008, -0.026000000000000002, -0.988, 192.0, 0.0, 0.0, 0.0, 0.0, 0.0, 0.0, 0.0, 0.0, 0.0, 1.675809892598087E9, 0.0, 2023-02-07 17:44:52.598
114.0, 2880.335197488689, 187500.0, 187500.0, 187500.0, -187500.02235174447, -187500.02235174447, -187500.02235174447, -187500.02235174447, 0.008, -0.026000000000000002, -0.988, 192.0, 0.0, 0.0, 0.0, 0.0, 0.0, 0.0, 0.0, 0.0, 0.0, 1.6758098925981E9, 0.0, 2023-02-07 17:44:52.598
115.0, 3060.691423498562, 187500.0, 187500.0, 187500.0, -187500.02235174447, -187500.02235174447, -187500.02235174447, -187500.02235174447, 0.01, -0.028, -0.992, 192.0, 0.0, 80.0, 255.0, 32.0, 225.0, 0.0, 0.0, 0.0, 0.0, 1.675809892605097E9, 0.0, 2023-02-07 17:44:52.605
116.0, 3020.2571177789114, 187500.0, 187500.0, 187500.0, -187500.02235174447, -187500.02235174447, -187500.02235174447, -187500.02235174447, 0.01, -0.028, -0.992, 192.0, 0.0, 0.0, 0.0, 0.0, 0.0, 0.0, 0.0, 0.0, 0.0, 1.675809892605134E9, 0.0, 2023-02-07 17:44:52.605
117.0, 2729.0585910151713, 187500.0, 187500.0, 187500.0, -187500.02235174447, -187500.02235174447, -187500.02235174447, -187500.02235174447, 0.01, -0.028, -0.992, 192.0, 0.0, 0.0, 0.0, 0.0, 0.0, 0.0, 0.0, 0.0, 0.0, 1.675809892613081E9, 0.0, 2023-02-07 17:44:52.613
118.0, 2847.187560461469, 187500.0, 187500.0, 187500.0, -187500.02235174447, -187500.02235174447, -187500.02235174447, -187500.02235174447, 0.01, -0.028, -0.992, 192.0, 0.0, 0.0, 0.0, 0.0, 0.0, 0.0, 0.0, 0.0, 0.0, 1.675809892621179E9, 0.0, 2023-02-07 17:44:52.621
119.0, 2855.569464632209, 187500.0, 187500.0, 187500.0, -187500.02235174447, -187500.02235174447, -187500.02235174447, -187500.02235174447, 0.01, -0.028, -0.992, 192.0, 0.0, 0.0, 0.0, 0.0, 0.0, 0.0, 0.0, 0.0, 0.0, 1.675809892621202E9, 0.0, 2023-02-07 17:44:52.621
120.0, 2961.628492072641, 187500.0, 187500.0, 187500.0, -187500.02235174447, -187500.02235174447, -187500.02235174447, -187500.02235174447, 0.01, -0.028, -0.992, 192.0, 0.0, 0.0, 0.0, 0.0, 0.0, 0.0, 0.0, 0.0, 0.0, 1.675809892627736E9, 0.0, 2023-02-07 17:44:52.627
121.0, 2974.3242829232554, 187500.0, 187500.0, 187500.0, -187500.02235174447, -187500.02235174447, -187500.02235174447, -187500.02235174447, 0.01, -0.028, -0.992, 192.0, 0.0, 0.0, 0.0, 0.0, 0.0, 0.0, 0.0, 0.0, 0.0, 1.675809892627749E9, 0.0, 2023-02-07 17:44:52.627
122.0, 2862.0067670353374, 187500.0, 187500.0, 187500.0, -187500.02235174447, -187500.02235174447, -187500.02235174447, -187500.02235174447, 0.01, -0.028, -0.992, 192.0, 0.0, 0.0, 0.0, 0.0, 0.0, 0.0, 0.0, 0.0, 0.0, 1.675809892635649E9, 0.0, 2023-02-07 17:44:52.635
123.0, 2832.435409120966, 187500.0, 187500.0, 187500.0, -187500.02235174447, -187500.02235174447, -187500.02235174447, -187500.02235174447, 0.01, -0.028, -0.992, 192.0, 0.0, 0.0, 0.0, 0.0, 0.0, 0.0, 0.0, 0.0, 0.0, 1.675809892635662E9, 0.0, 2023-02-07 17:44:52.635
124.0, 2836.414019634011, 187500.0, 187500.0, 187500.0, -187500.02235174447, -187500.02235174447, -187500.02235174447, -187500.02235174447, 0.01, -0.028, -0.992, 192.0, 0.0, 0.0, 0.0, 0.0, 0.0, 0.0, 0.0, 0.0, 0.0, 1.675809892643763E9, 0.0, 2023-02-07 17:44:52.643
125.0, 2870.925113073005, 187500.0, 187500.0, 187500.0, -187500.02235174447, -187500.02235174447, -187500.02235174447, -187500.02235174447, 0.014, -0.028, -0.99, 192.0, 0.0, 112.0, 255.0, 32.0, 225.0, 16.0, 0.0, 0.0, 0.0, 1.675809892643778E9, 0.0, 2023-02-07 17:44:52.643
126.0, 2906.978476879415, 187500.0, 187500.0, 187500.0, -187500.02235174447, -187500.02235174447, -187500.02235174447, -187500.02235174447, 0.014, -0.028, -0.99, 192.0, 0.0, 0.0, 0.0, 0.0, 0.0, 0.0, 0.0, 0.0, 0.0, 1.675809892650799E9, 0.0, 2023-02-07 17:44:52.650
127.0, 2900.8764506431166, 187500.0, 187500.0, 187500.0, -187500.02235174447, -187500.02235174447, -187500.02235174447, -187500.02235174447, 0.014, -0.028, -0.99, 192.0, 0.0, 0.0, 0.0, 0.0, 0.0, 0.0, 0.0, 0.0, 0.0, 1.675809892650812E9, 0.0, 2023-02-07 17:44:52.650
128.0, 2989.724634852962, 187500.0, 187500.0, 187500.0, -187500.02235174447, -187500.02235174447, -187500.02235174447, -187500.02235174447, 0.014, -0.028, -0.99, 192.0, 0.0, 0.0, 0.0, 0.0, 0.0, 0.0, 0.0, 0.0, 0.0, 1.675809892658384E9, 0.0, 2023-02-07 17:44:52.658
129.0, 3018.8489578782273, 187500.0, 187500.0, 187500.0, -187500.02235174447, -187500.02235174447, -187500.02235174447, -187500.02235174447, 0.014, -0.028, -0.99, 192.0, 0.0, 0.0, 0.0, 0.0, 0.0, 0.0, 0.0, 0.0, 0.0, 1.675809892658413E9, 0.0, 2023-02-07 17:44:52.658
130.0, 2873.450860196455, 187500.0, 187500.0, 187500.0, -187500.02235174447, -187500.02235174447, -187500.02235174447, -187500.02235174447, 0.014, -0.028, -0.99, 192.0, 0.0, 0.0, 0.0, 0.0, 0.0, 0.0, 0.0, 0.0, 0.0, 1.675809892666461E9, 0.0, 2023-02-07 17:44:52.666
131.0, 2878.636464910086, 187500.0, 187500.0, 187500.0, -187500.02235174447, -187500.02235174447, -187500.02235174447, -187500.02235174447, 0.014, -0.028, -0.99, 192.0, 0.0, 0.0, 0.0, 0.0, 0.0, 0.0, 0.0, 0.0, 0.0, 1.675809892666509E9, 0.0, 2023-02-07 17:44:52.666
132.0, 2890.7511104048626, 187500.0, 187500.0, 187500.0, -187500.02235174447, -187500.02235174447, -187500.02235174447, -187500.02235174447, 0.014, -0.028, -0.99, 192.0, 0.0, 0.0, 0.0, 0.0, 0.0, 0.0, 0.0, 0.0, 0.0, 1.675809892673846E9, 0.0, 2023-02-07 17:44:52.673
133.0, 2911.627639726119, 187500.0, 187500.0, 187500.0, -187500.02235174447, -187500.02235174447, -187500.02235174447, -187500.02235174447, 0.014, -0.028, -0.99, 192.0, 0.0, 0.0, 0.0, 0.0, 0.0, 0.0, 0.0, 0.0, 0.0, 1.675809892680524E9, 0.0, 2023-02-07 17:44:52.680
134.0, 2908.8336716692056, 187500.0, 187500.0, 187500.0, -187500.02235174447, -187500.02235174447, -187500.02235174447, -187500.02235174447, 0.014, -0.028, -0.99, 192.0, 0.0, 0.0, 0.0, 0.0, 0.0, 0.0, 0.0, 0.0, 0.0, 1.675809892680539E9, 0.0, 2023-02-07 17:44:52.680
135.0, 2851.4790953968877, 187500.0, 187500.0, 187500.0, -187500.02235174447, -187500.02235174447, -187500.02235174447, -187500.02235174447, 0.016, -0.024, -0.994, 192.0, 0.0, 128.0, 255.0, 64.0, 224.0, 240.0, 0.0, 0.0, 0.0, 1.675809892688001E9, 0.0, 2023-02-07 17:44:52.688
136.0, 2850.5850256186754, 187500.0, 187500.0, 187500.0, -187500.02235174447, -187500.02235174447, -187500.02235174447, -187500.02235174447, 0.016, -0.024, -0.994, 192.0, 0.0, 0.0, 0.0, 0.0, 0.0, 0.0, 0.0, 0.0, 0.0, 1.67580989268802E9, 0.0, 2023-02-07 17:44:52.688
137.0, 2908.8783751581163, 187500.0, 187500.0, 187500.0, -187500.02235174447, -187500.02235174447, -187500.02235174447, -187500.02235174447, 0.016, -0.024, -0.994, 192.0, 0.0, 0.0, 0.0, 0.0, 0.0, 0.0, 0.0, 0.0, 0.0, 1.675809892696073E9, 0.0, 2023-02-07 17:44:52.696
138.0, 2926.871529444639, 187500.0, 187500.0, 187500.0, -187500.02235174447, -187500.02235174447, -187500.02235174447, -187500.02235174447, 0.016, -0.024, -0.994, 192.0, 0.0, 0.0, 0.0, 0.0, 0.0, 0.0, 0.0, 0.0, 0.0, 1.675809892696088E9, 0.0, 2023-02-07 17:44:52.696
139.0, 2916.0085816393594, 187500.0, 187500.0, 187500.0, -187500.02235174447, -187500.02235174447, -187500.02235174447, -187500.02235174447, 0.016, -0.024, -0.994, 192.0, 0.0, 0.0, 0.0, 0.0, 0.0, 0.0, 0.0, 0.0, 0.0, 1.675809892703967E9, 0.0, 2023-02-07 17:44:52.703
140.0, 2922.4011805535774, 187500.0, 187500.0, 187500.0, -187500.02235174447, -187500.02235174447, -187500.02235174447, -187500.02235174447, 0.016, -0.024, -0.994, 192.0, 0.0, 0.0, 0.0, 0.0, 0.0, 0.0, 0.0, 0.0, 0.0, 1.675809892703991E9, 0.0, 2023-02-07 17:44:52.703
141.0, 2891.399310994066, 187500.0, 187500.0, 187500.0, -187500.02235174447, -187500.02235174447, -187500.02235174447, -187500.02235174447, 0.016, -0.024, -0.994, 192.0, 0.0, 0.0, 0.0, 0.0, 0.0, 0.0, 0.0, 0.0, 0.0, 1.675809892710587E9, 0.0, 2023-02-07 17:44:52.710
142.0, 2879.5305346882983, 187500.0, 187500.0, 187500.0, -187500.02235174447, -187500.02235174447, -187500.02235174447, -187500.02235174447, 0.016, -0.024, -0.994, 192.0, 0.0, 0.0, 0.0, 0.0, 0.0, 0.0, 0.0, 0.0, 0.0, 1.675809892710605E9, 0.0, 2023-02-07 17:44:52.710
143.0, 3019.5195102118864, 187500.0, 187500.0, 187500.0, -187500.02235174447, -187500.02235174447, -187500.02235174447, -187500.02235174447, 0.016, -0.024, -0.994, 192.0, 0.0, 0.0, 0.0, 0.0, 0.0, 0.0, 0.0, 0.0, 0.0, 1.675809892718633E9, 0.0, 2023-02-07 17:44:52.718
144.0, 2980.3592539261886, 187500.0, 187500.0, 187500.0, -187500.02235174447, -187500.02235174447, -187500.02235174447, -187500.02235174447, 0.016, -0.024, -0.994, 192.0, 0.0, 0.0, 0.0, 0.0, 0.0, 0.0, 0.0, 0.0, 0.0, 1.675809892718646E9, 0.0, 2023-02-07 17:44:52.718
145.0, 2870.3216159727117, 187500.0, 187500.0, 187500.0, -187500.02235174447, -187500.02235174447, -187500.02235174447, -187500.02235174447, 0.01, -0.024, -0.992, 192.0, 0.0, 80.0, 255.0, 64.0, 225.0, 0.0, 0.0, 0.0, 0.0, 1.675809892727089E9, 0.0, 2023-02-07 17:44:52.727
146.0, 2919.987192152404, 187500.0, 187500.0, 187500.0, -187500.02235174447, -187500.02235174447, -187500.02235174447, -187500.02235174447, 0.01, -0.024, -0.992, 192.0, 0.0, 0.0, 0.0, 0.0, 0.0, 0.0, 0.0, 0.0, 0.0, 1.675809892727109E9, 0.0, 2023-02-07 17:44:52.727
147.0, 2853.1331244865805, 187500.0, 187500.0, 187500.0, -187500.02235174447, -187500.02235174447, -187500.02235174447, -187500.02235174447, 0.01, -0.024, -0.992, 192.0, 0.0, 0.0, 0.0, 0.0, 0.0, 0.0, 0.0, 0.0, 0.0, 1.675809892733711E9, 0.0, 2023-02-07 17:44:52.733
148.0, 2890.371130749122, 187500.0, 187500.0, 187500.0, -187500.02235174447, -187500.02235174447, -187500.02235174447, -187500.02235174447, 0.01, -0.024, -0.992, 192.0, 0.0, 0.0, 0.0, 0.0, 0.0, 0.0, 0.0, 0.0, 0.0, 1.675809892740218E9, 0.0, 2023-02-07 17:44:52.740
149.0, 2980.560419626286, 187500.0, 187500.0, 187500.0, -187500.02235174447, -187500.02235174447, -187500.02235174447, -187500.02235174447, 0.01, -0.024, -0.992, 192.0, 0.0, 0.0, 0.0, 0.0, 0.0, 0.0, 0.0, 0.0, 0.0, 1.675809892740233E9, 0.0, 2023-02-07 17:44:52.740
150.0, 2961.673195561552, 187500.0, 187500.0, 187500.0, -187500.02235174447, -187500.02235174447, -187500.02235174447, -187500.02235174447, 0.01, -0.024, -0.992, 192.0, 0.0, 0.0, 0.0, 0.0, 0.0, 0.0, 0.0, 0.0, 0.0, 1.675809892748414E9, 0.0, 2023-02-07 17:44:52.748
151.0, 2911.3817705371107, 187500.0, 187500.0, 187500.0, -187500.02235174447, -187500.02235174447, -187500.02235174447, -187500.02235174447, 0.01, -0.024, -0.992, 192.0, 0.0, 0.0, 0.0, 0.0, 0.0, 0.0, 0.0, 0.0, 0.0, 1.675809892748436E9, 0.0, 2023-02-07 17:44:52.748
152.0, 2822.980621216371, 187500.0, 187500.0, 187500.0, -187500.02235174447, -187500.02235174447, -187500.02235174447, -187500.02235174447, 0.01, -0.024, -0.992, 192.0, 0.0, 0.0, 0.0, 0.0, 0.0, 0.0, 0.0, 0.0, 0.0, 1.675809892756402E9, 0.0, 2023-02-07 17:44:52.756
153.0, 2860.6433106235636, 187500.0, 187500.0, 187500.0, -187500.02235174447, -187500.02235174447, -187500.02235174447, -187500.02235174447, 0.01, -0.024, -0.992, 192.0, 0.0, 0.0, 0.0, 0.0, 0.0, 0.0, 0.0, 0.0, 0.0, 1.675809892756424E9, 0.0, 2023-02-07 17:44:52.756
154.0, 2935.0969714041917, 187500.0, 187500.0, 187500.0, -187500.02235174447, -187500.02235174447, -187500.02235174447, -187500.02235174447, 0.01, -0.024, -0.992, 192.0, 0.0, 0.0, 0.0, 0.0, 0.0, 0.0, 0.0, 0.0, 0.0, 1.675809892763442E9, 0.0, 2023-02-07 17:44:52.763
155.0, 2939.0979336616915, 187500.0, 187500.0, 187500.0, -187500.02235174447, -187500.02235174447, -187500.02235174447, -187500.02235174447, 0.008, -0.024, -0.992, 192.0, 0.0, 64.0, 255.0, 64.0, 225.0, 0.0, 0.0, 0.0, 0.0, 1.675809892763461E9, 0.0, 2023-02-07 17:44:52.763
156.0, 2872.1097555291362, 187500.0, 187500.0, 187500.0, -187500.02235174447, -187500.02235174447, -187500.02235174447, -187500.02235174447, 0.008, -0.024, -0.992, 192.0, 0.0, 0.0, 0.0, 0.0, 0.0, 0.0, 0.0, 0.0, 0.0, 1.675809892770863E9, 0.0, 2023-02-07 17:44:52.770
157.0, 2910.0630176142477, 187500.0, 187500.0, 187500.0, -187500.02235174447, -187500.02235174447, -187500.02235174447, -187500.02235174447, 0.008, -0.024, -0.992, 192.0, 0.0, 0.0, 0.0, 0.0, 0.0, 0.0, 0.0, 0.0, 0.0, 1.67580989277088E9, 0.0, 2023-02-07 17:44:52.770
158.0, 2892.5168982168316, 187500.0, 187500.0, 187500.0, -187500.02235174447, -187500.02235174447, -187500.02235174447, -187500.02235174447, 0.008, -0.024, -0.992, 192.0, 0.0, 0.0, 0.0, 0.0, 0.0, 0.0, 0.0, 0.0, 0.0, 1.675809892778894E9, 0.0, 2023-02-07 17:44:52.778
159.0, 2956.4205356145544, 187500.0, 187500.0, 187500.0, -187500.02235174447, -187500.02235174447, -187500.02235174447, -187500.02235174447, 0.008, -0.024, -0.992, 192.0, 0.0, 0.0, 0.0, 0.0, 0.0, 0.0, 0.0, 0.0, 0.0, 1.675809892778911E9, 0.0, 2023-02-07 17:44:52.778
160.0, 2884.537325446287, 187500.0, 187500.0, 187500.0, -187500.02235174447, -187500.02235174447, -187500.02235174447, -187500.02235174447, 0.008, -0.024, -0.992, 192.0, 0.0, 0.0, 0.0, 0.0, 0.0, 0.0, 0.0, 0.0, 0.0, 1.675809892786963E9, 0.0, 2023-02-07 17:44:52.786
161.0, 2918.8696049296386, 187500.0, 187500.0, 187500.0, -187500.02235174447, -187500.02235174447, -187500.02235174447, -187500.02235174447, 0.008, -0.024, -0.992, 192.0, 0.0, 0.0, 0.0, 0.0, 0.0, 0.0, 0.0, 0.0, 0.0, 1.675809892786987E9, 0.0, 2023-02-07 17:44:52.786
162.0, 2975.4865736349316, 187500.0, 187500.0, 187500.0, -187500.02235174447, -187500.02235174447, -187500.02235174447, -187500.02235174447, 0.008, -0.024, -0.992, 192.0, 0.0, 0.0, 0.0, 0.0, 0.0, 0.0, 0.0, 0.0, 0.0, 1.675809892793143E9, 0.0, 2023-02-07 17:44:52.793
163.0, 2910.800625181273, 187500.0, 187500.0, 187500.0, -187500.02235174447, -187500.02235174447, -187500.02235174447, -187500.02235174447, 0.008, -0.024, -0.992, 192.0, 0.0, 0.0, 0.0, 0.0, 0.0, 0.0, 0.0, 0.0, 0.0, 1.675809892800575E9, 0.0, 2023-02-07 17:44:52.800
164.0, 3008.723617639973, 187500.0, 187500.0, 187500.0, -187500.02235174447, -187500.02235174447, -187500.02235174447, -187500.02235174447, 0.008, -0.024, -0.992, 192.0, 0.0, 0.0, 0.0, 0.0, 0.0, 0.0, 0.0, 0.0, 0.0, 1.675809892800587E9, 0.0, 2023-02-07 17:44:52.800
165.0, 2794.1468708690254, 187500.0, 187500.0, 187500.0, -187500.02235174447, -187500.02235174447, -187500.02235174447, -187500.02235174447, 0.016, -0.026000000000000002, -0.992, 192.0, 0.0, 128.0, 255.0, 48.0, 225.0, 0.0, 0.0, 0.0, 0.0, 1.675809892808485E9, 0.0, 2023-02-07 17:44:52.808
166.0, 2756.1712570394584, 187500.0, 187500.0, 187500.0, -187500.02235174447, -187500.02235174447, -187500.02235174447, -187500.02235174447, 0.016, -0.026000000000000002, -0.992, 192.0, 0.0, 0.0, 0.0, 0.0, 0.0, 0.0, 0.0, 0.0, 0.0, 1.675809892808498E9, 0.0, 2023-02-07 17:44:52.808
167.0, 2847.8581127951284, 187500.0, 187500.0, 187500.0, -187500.02235174447, -187500.02235174447, -187500.02235174447, -187500.02235174447, 0.016, -0.026000000000000002, -0.992, 192.0, 0.0, 0.0, 0.0, 0.0, 0.0, 0.0, 0.0, 0.0, 0.0, 1.675809892815806E9, 0.0, 2023-02-07 17:44:52.815
168.0, 2860.442144923466, 187500.0, 187500.0, 187500.0, -187500.02235174447, -187500.02235174447, -187500.02235174447, -187500.02235174447, 0.016, -0.026000000000000002, -0.992, 192.0, 0.0, 0.0, 0.0, 0.0, 0.0, 0.0, 0.0, 0.0, 0.0, 1.675809892815821E9, 0.0, 2023-02-07 17:44:52.815
169.0, 2856.888217555072, 187500.0, 187500.0, 187500.0, -187500.02235174447, -187500.02235174447, -187500.02235174447, -187500.02235174447, 0.016, -0.026000000000000002, -0.992, 192.0, 0.0, 0.0, 0.0, 0.0, 0.0, 0.0, 0.0, 0.0, 0.0, 1.675809892823254E9, 0.0, 2023-02-07 17:44:52.823
170.0, 2874.054357296748, 187500.0, 187500.0, 187500.0, -187500.02235174447, -187500.02235174447, -187500.02235174447, -187500.02235174447, 0.016, -0.026000000000000002, -0.992, 192.0, 0.0, 0.0, 0.0, 0.0, 0.0, 0.0, 0.0, 0.0, 0.0, 1.675809892823267E9, 0.0, 2023-02-07 17:44:52.823
171.0, 2892.315732516734, 187500.0, 187500.0, 187500.0, -187500.02235174447, -187500.02235174447, -187500.02235174447, -187500.02235174447, 0.016, -0.026000000000000002, -0.992, 192.0, 0.0, 0.0, 0.0, 0.0, 0.0, 0.0, 0.0, 0.0, 0.0, 1.675809892831214E9, 0.0, 2023-02-07 17:44:52.831
172.0, 2979.0628527477807, 187500.0, 187500.0, 187500.0, -187500.02235174447, -187500.02235174447, -187500.02235174447, -187500.02235174447, 0.016, -0.026000000000000002, -0.992, 192.0, 0.0, 0.0, 0.0, 0.0, 0.0, 0.0, 0.0, 0.0, 0.0, 1.675809892831238E9, 0.0, 2023-02-07 17:44:52.831
173.0, 2962.410803128577, 187500.0, 187500.0, 187500.0, -187500.02235174447, -187500.02235174447, -187500.02235174447, -187500.02235174447, 0.016, -0.026000000000000002, -0.992, 192.0, 0.0, 0.0, 0.0, 0.0, 0.0, 0.0, 0.0, 0.0, 0.0, 1.675809892839194E9, 0.0, 2023-02-07 17:44:52.839
174.0, 2848.8415895511616, 187500.0, 187500.0, 187500.0, -187500.02235174447, -187500.02235174447, -187500.02235174447, -187500.02235174447, 0.008, -0.028, -0.992, 192.0, 0.0, 64.0, 255.0, 32.0, 225.0, 0.0, 0.0, 0.0, 0.0, 1.675809892839213E9, 0.0, 2023-02-07 17:44:52.839
175.0, 2896.4061017520553, 187500.0, 187500.0, 187500.0, -187500.02235174447, -187500.02235174447, -187500.02235174447, -187500.02235174447, 0.008, -0.028, -0.992, 192.0, 0.0, 0.0, 0.0, 0.0, 0.0, 0.0, 0.0, 0.0, 0.0, 1.675809892845795E9, 0.0, 2023-02-07 17:44:52.845
176.0, 3032.751742929428, 187500.0, 187500.0, 187500.0, -187500.02235174447, -187500.02235174447, -187500.02235174447, -187500.02235174447, 0.008, -0.028, -0.992, 192.0, 0.0, 0.0, 0.0, 0.0, 0.0, 0.0, 0.0, 0.0, 0.0, 1.675809892845809E9, 0.0, 2023-02-07 17:44:52.845
177.0, 3017.3290392552663, 187500.0, 187500.0, 187500.0, -187500.02235174447, -187500.02235174447, -187500.02235174447, -187500.02235174447, 0.008, -0.028, -0.992, 192.0, 0.0, 0.0, 0.0, 0.0, 0.0, 0.0, 0.0, 0.0, 0.0, 1.675809892852848E9, 0.0, 2023-02-07 17:44:52.852
178.0, 2770.2081525573913, 187500.0, 187500.0, 187500.0, -187500.02235174447, -187500.02235174447, -187500.02235174447, -187500.02235174447, 0.008, -0.028, -0.992, 192.0, 0.0, 0.0, 0.0, 0.0, 0.0, 0.0, 0.0, 0.0, 0.0, 1.675809892852862E9, 0.0, 2023-02-07 17:44:52.852
179.0, 2795.7785482142626, 187500.0, 187500.0, 187500.0, -187500.02235174447, -187500.02235174447, -187500.02235174447, -187500.02235174447, 0.008, -0.028, -0.992, 192.0, 0.0, 0.0, 0.0, 0.0, 0.0, 0.0, 0.0, 0.0, 0.0, 1.67580989286069E9, 0.0, 2023-02-07 17:44:52.860
180.0, 2866.633578137586, 187500.0, 187500.0, 187500.0, -187500.02235174447, -187500.02235174447, -187500.02235174447, -187500.02235174447, 0.008, -0.028, -0.992, 192.0, 0.0, 0.0, 0.0, 0.0, 0.0, 0.0, 0.0, 0.0, 0.0, 1.675809892868899E9, 0.0, 2023-02-07 17:44:52.868
181.0, 2946.1387331651135, 187500.0, 187500.0, 187500.0, -187500.02235174447, -187500.02235174447, -187500.02235174447, -187500.02235174447, 0.008, -0.028, -0.992, 192.0, 0.0, 0.0, 0.0, 0.0, 0.0, 0.0, 0.0, 0.0, 0.0, 1.675809892868913E9, 0.0, 2023-02-07 17:44:52.868
182.0, 2933.1747213810354, 187500.0, 187500.0, 187500.0, -187500.02235174447, -187500.02235174447, -187500.02235174447, -187500.02235174447, 0.008, -0.028, -0.992, 192.0, 0.0, 0.0, 0.0, 0.0, 0.0, 0.0, 0.0, 0.0, 0.0, 1.675809892875649E9, 0.0, 2023-02-07 17:44:52.875
183.0, 2857.0670315107145, 187500.0, 187500.0, 187500.0, -187500.02235174447, -187500.02235174447, -187500.02235174447, -187500.02235174447, 0.008, -0.028, -0.992, 192.0, 0.0, 0.0, 0.0, 0.0, 0.0, 0.0, 0.0, 0.0, 0.0, 1.67580989287567E9, 0.0, 2023-02-07 17:44:52.875
