%OpenBCI Raw EEG Data
%Number of channels = 8
%Sample Rate = 250 Hz
%Board = OpenBCI_GUI$BoardCytonSerial
Sample Index, EXG Channel 0, EXG Channel 1, EXG Channel 2, EXG Channel 3, EXG Channel 4, EXG Channel 5, EXG Channel 6, EXG Channel 7, Accel Channel 0, Accel Channel 1, Accel Channel 2, Other, Other, Other, Other, Other, Other, Other, Analog Channel 0, Analog Channel 1, Analog Channel 2, Timestamp, Other, Timestamp (Formatted)
101.0, 13562.435038380032, 187500.0, 187500.0, 187500.0, -187500.02235174447, -187500.02235174447, -187500.02235174447, -187500.02235174447, 0.0, 0.0, 0.0, 192.0, 0.0, 0.0, 0.0, 0.0, 0.0, 0.0, 0.0, 0.0, 0.0, 1.675809683156314E9, 0.0, 2023-02-07 17:41:23.156
102.0, 13531.544927542798, 187500.0, 187500.0, 187500.0, -187500.02235174447, -187500.02235174447, -187500.02235174447, -187500.02235174447, 0.0, 0.0, 0.0, 192.0, 0.0, 0.0, 0.0, 0.0, 0.0, 0.0, 0.0, 0.0, 0.0, 1.675809683156332E9, 0.0, 2023-02-07 17:41:23.156
103.0, 13529.980305430927, 187500.0, 187500.0, 187500.0, -187500.02235174447, -187500.02235174447, -187500.02235174447, -187500.02235174447, 0.0, 0.0, 0.0, 192.0, 0.0, 0.0, 0.0, 0.0, 0.0, 0.0, 0.0, 0.0, 0.0, 1.675809683156342E9, 0.0, 2023-02-07 17:41:23.156
104.0, 13547.235852150423, 187500.0, 187500.0, 187500.0, -187500.02235174447, -187500.02235174447, -187500.02235174447, -187500.02235174447, 0.0, 0.0, 0.0, 192.0, 0.0, 0.0, 0.0, 0.0, 0.0, 0.0, 0.0, 0.0, 0.0, 1.675809683156351E9, 0.0, 2023-02-07 17:41:23.156
0.0, 0.0, 0.0, 0.0, 0.0, 0.0, 0.0, 0.0, 0.0, 0.014, -0.022, -0.996, 192.0, 0.0, 112.0, 255.0, 80.0, 224.0, 224.0, 0.0, 0.0, 0.0, 1.675809683245958E9, 0.0, 2023-02-07 17:41:23.245
1.0, 9561.495132624523, 187500.0, 187500.0, 187500.0, -187500.02235174447, -187500.02235174447, -187500.02235174447, -187500.02235174447, 0.014, -0.022, -0.996, 192.0, 0.0, 0.0, 0.0, 0.0, 0.0, 0.0, 0.0, 0.0, 0.0, 1.675809683257097E9, 0.0, 2023-02-07 17:41:23.257
2.0, 9577.051946765418, 187500.0, 187500.0, 187500.0, -187500.02235174447, -187500.02235174447, -187500.02235174447, -187500.02235174447, 0.014, -0.022, -0.996, 192.0, 0.0, 0.0, 0.0, 0.0, 0.0, 0.0, 0.0, 0.0, 0.0, 1.675809683264633E9, 0.0, 2023-02-07 17:41:23.264
3.0, 9506.845117431298, 187500.0, 187500.0, 187500.0, -187500.02235174447, -187500.02235174447, -187500.02235174447, -187500.02235174447, 0.014, -0.022, -0.996, 192.0, 0.0, 0.0, 0.0, 0.0, 0.0, 0.0, 0.0, 0.0, 0.0, 1.675809683264651E9, 0.0, 2023-02-07 17:41:23.264
4.0, 9441.399209666159, 187500.0, 187500.0, 187500.0, -187500.02235174447, -187500.02235174447, -187500.02235174447, -187500.02235174447, 0.014, -0.022, -0.996, 192.0, 0.0, 0.0, 0.0, 0.0, 0.0, 0.0, 0.0, 0.0, 0.0, 1.675809683271163E9, 0.0, 2023-02-07 17:41:23.271
5.0, 9470.657643158156, 187500.0, 187500.0, 187500.0, -187500.02235174447, -187500.02235174447, -187500.02235174447, -187500.02235174447, 0.014, -0.022, -0.996, 192.0, 0.0, 0.0, 0.0, 0.0, 0.0, 0.0, 0.0, 0.0, 0.0, 1.675809683271176E9, 0.0, 2023-02-07 17:41:23.271
6.0, 9519.384446070724, 187500.0, 187500.0, 187500.0, -187500.02235174447, -187500.02235174447, -187500.02235174447, -187500.02235174447, 0.014, -0.022, -0.996, 192.0, 0.0, 0.0, 0.0, 0.0, 0.0, 0.0, 0.0, 0.0, 0.0, 1.675809683279536E9, 0.0, 2023-02-07 17:41:23.279
7.0, 9526.872280463253, 187500.0, 187500.0, 187500.0, -187500.02235174447, -187500.02235174447, -187500.02235174447, -187500.02235174447, 0.014, -0.022, -0.996, 192.0, 0.0, 0.0, 0.0, 0.0, 0.0, 0.0, 0.0, 0.0, 0.0, 1.675809683279557E9, 0.0, 2023-02-07 17:41:23.279
8.0, 9488.82961140032, 187500.0, 187500.0, 187500.0, -187500.02235174447, -187500.02235174447, -187500.02235174447, -187500.02235174447, 0.014, -0.024, -0.994, 192.0, 0.0, 112.0, 255.0, 64.0, 224.0, 240.0, 0.0, 0.0, 0.0, 1.675809683287232E9, 0.0, 2023-02-07 17:41:23.287
9.0, 9497.144460337695, 187500.0, 187500.0, 187500.0, -187500.02235174447, -187500.02235174447, -187500.02235174447, -187500.02235174447, 0.014, -0.024, -0.994, 192.0, 0.0, 0.0, 0.0, 0.0, 0.0, 0.0, 0.0, 0.0, 0.0, 1.675809683287252E9, 0.0, 2023-02-07 17:41:23.287
10.0, 9561.741001813532, 187500.0, 187500.0, 187500.0, -187500.02235174447, -187500.02235174447, -187500.02235174447, -187500.02235174447, 0.014, -0.024, -0.994, 192.0, 0.0, 0.0, 0.0, 0.0, 0.0, 0.0, 0.0, 0.0, 0.0, 1.675809683294283E9, 0.0, 2023-02-07 17:41:23.294
11.0, 9666.257758886548, 187500.0, 187500.0, 187500.0, -187500.02235174447, -187500.02235174447, -187500.02235174447, -187500.02235174447, 0.014, -0.024, -0.994, 192.0, 0.0, 0.0, 0.0, 0.0, 0.0, 0.0, 0.0, 0.0, 0.0, 1.675809683294294E9, 0.0, 2023-02-07 17:41:23.294
12.0, 9553.64967032071, 187500.0, 187500.0, 187500.0, -187500.02235174447, -187500.02235174447, -187500.02235174447, -187500.02235174447, 0.014, -0.024, -0.994, 192.0, 0.0, 0.0, 0.0, 0.0, 0.0, 0.0, 0.0, 0.0, 0.0, 1.675809683301862E9, 0.0, 2023-02-07 17:41:23.301
13.0, 9516.299905335893, 187500.0, 187500.0, 187500.0, -187500.02235174447, -187500.02235174447, -187500.02235174447, -187500.02235174447, 0.014, -0.024, -0.994, 192.0, 0.0, 0.0, 0.0, 0.0, 0.0, 0.0, 0.0, 0.0, 0.0, 1.675809683301879E9, 0.0, 2023-02-07 17:41:23.301
14.0, 9507.716835465055, 187500.0, 187500.0, 187500.0, -187500.02235174447, -187500.02235174447, -187500.02235174447, -187500.02235174447, 0.014, -0.024, -0.994, 192.0, 0.0, 0.0, 0.0, 0.0, 0.0, 0.0, 0.0, 0.0, 0.0, 1.675809683309775E9, 0.0, 2023-02-07 17:41:23.309
15.0, 9479.64304442919, 187500.0, 187500.0, 187500.0, -187500.02235174447, -187500.02235174447, -187500.02235174447, -187500.02235174447, 0.014, -0.024, -0.994, 192.0, 0.0, 0.0, 0.0, 0.0, 0.0, 0.0, 0.0, 0.0, 0.0, 1.675809683309788E9, 0.0, 2023-02-07 17:41:23.309
16.0, 9578.817734577386, 187500.0, 187500.0, 187500.0, -187500.02235174447, -187500.02235174447, -187500.02235174447, -187500.02235174447, 0.014, -0.024, -0.994, 192.0, 0.0, 0.0, 0.0, 0.0, 0.0, 0.0, 0.0, 0.0, 0.0, 1.675809683317166E9, 0.0, 2023-02-07 17:41:23.317
17.0, 9627.589240978867, 187500.0, 187500.0, 187500.0, -187500.02235174447, -187500.02235174447, -187500.02235174447, -187500.02235174447, 0.01, -0.02, -0.992, 192.0, 0.0, 80.0, 255.0, 96.0, 225.0, 0.0, 0.0, 0.0, 0.0, 1.675809683324052E9, 0.0, 2023-02-07 17:41:23.324
18.0, 9678.350052636868, 187500.0, 187500.0, 187500.0, -187500.02235174447, -187500.02235174447, -187500.02235174447, -187500.02235174447, 0.01, -0.02, -0.992, 192.0, 0.0, 0.0, 0.0, 0.0, 0.0, 0.0, 0.0, 0.0, 0.0, 1.675809683324077E9, 0.0, 2023-02-07 17:41:23.324
19.0, 9535.611812545278, 187500.0, 187500.0, 187500.0, -187500.02235174447, -187500.02235174447, -187500.02235174447, -187500.02235174447, 0.01, -0.02, -0.992, 192.0, 0.0, 0.0, 0.0, 0.0, 0.0, 0.0, 0.0, 0.0, 0.0, 1.675809683331543E9, 0.0, 2023-02-07 17:41:23.331
20.0, 9488.44963174458, 187500.0, 187500.0, 187500.0, -187500.02235174447, -187500.02235174447, -187500.02235174447, -187500.02235174447, 0.01, -0.02, -0.992, 192.0, 0.0, 0.0, 0.0, 0.0, 0.0, 0.0, 0.0, 0.0, 0.0, 1.675809683331556E9, 0.0, 2023-02-07 17:41:23.331
21.0, 9576.291987453937, 187500.0, 187500.0, 187500.0, -187500.02235174447, -187500.02235174447, -187500.02235174447, -187500.02235174447, 0.01, -0.02, -0.992, 192.0, 0.0, 0.0, 0.0, 0.0, 0.0, 0.0, 0.0, 0.0, 0.0, 1.675809683339476E9, 0.0, 2023-02-07 17:41:23.339
22.0, 9507.73918720951, 187500.0, 187500.0, 187500.0, -187500.02235174447, -187500.02235174447, -187500.02235174447, -187500.02235174447, 0.01, -0.02, -0.992, 192.0, 0.0, 0.0, 0.0, 0.0, 0.0, 0.0, 0.0, 0.0, 0.0, 1.675809683339488E9, 0.0, 2023-02-07 17:41:23.339
23.0, 9460.398192453169, 187500.0, 187500.0, 187500.0, -187500.02235174447, -187500.02235174447, -187500.02235174447, -187500.02235174447, 0.01, -0.02, -0.992, 192.0, 0.0, 0.0, 0.0, 0.0, 0.0, 0.0, 0.0, 0.0, 0.0, 1.6758096833475E9, 0.0, 2023-02-07 17:41:23.347
24.0, 9439.007573009441, 187500.0, 187500.0, 187500.0, -187500.02235174447, -187500.02235174447, -187500.02235174447, -187500.02235174447, 0.01, -0.02, -0.992, 192.0, 0.0, 0.0, 0.0, 0.0, 0.0, 0.0, 0.0, 0.0, 0.0, 1.675809683347517E9, 0.0, 2023-02-07 17:41:23.347
25.0, 9522.580745527834, 187500.0, 187500.0, 187500.0, -187500.02235174447, -187500.02235174447, -187500.02235174447, -187500.02235174447, 0.01, -0.02, -0.992, 192.0, 0.0, 0.0, 0.0, 0.0, 0.0, 0.0, 0.0, 0.0, 0.0, 1.675809683354142E9, 0.0, 2023-02-07 17:41:23.354
26.0, 9677.05365145846, 187500.0, 187500.0, 187500.0, -187500.02235174447, -187500.02235174447, -187500.02235174447, -187500.02235174447, 0.01, -0.02, -0.992, 192.0, 0.0, 0.0, 0.0, 0.0, 0.0, 0.0, 0.0, 0.0, 0.0, 1.675809683354158E9, 0.0, 2023-02-07 17:41:23.354
27.0, 9654.880720958796, 187500.0, 187500.0, 187500.0, -187500.02235174447, -187500.02235174447, -187500.02235174447, -187500.02235174447, 0.012, -0.024, -0.994, 192.0, 0.0, 96.0, 255.0, 64.0, 224.0, 240.0, 0.0, 0.0, 0.0, 1.67580968336264E9, 0.0, 2023-02-07 17:41:23.362
28.0, 9600.655388910222, 187500.0, 187500.0, 187500.0, -187500.02235174447, -187500.02235174447, -187500.02235174447, -187500.02235174447, 0.012, -0.024, -0.994, 192.0, 0.0, 0.0, 0.0, 0.0, 0.0, 0.0, 0.0, 0.0, 0.0, 1.675809683362663E9, 0.0, 2023-02-07 17:41:23.362
29.0, 9506.845117431298, 187500.0, 187500.0, 187500.0, -187500.02235174447, -187500.02235174447, -187500.02235174447, -187500.02235174447, 0.012, -0.024, -0.994, 192.0, 0.0, 0.0, 0.0, 0.0, 0.0, 0.0, 0.0, 0.0, 0.0, 1.675809683370224E9, 0.0, 2023-02-07 17:41:23.370
30.0, 9433.330229917792, 187500.0, 187500.0, 187500.0, -187500.02235174447, -187500.02235174447, -187500.02235174447, -187500.02235174447, 0.012, -0.024, -0.994, 192.0, 0.0, 0.0, 0.0, 0.0, 0.0, 0.0, 0.0, 0.0, 0.0, 1.675809683370239E9, 0.0, 2023-02-07 17:41:23.370
31.0, 9503.447652274092, 187500.0, 187500.0, 187500.0, -187500.02235174447, -187500.02235174447, -187500.02235174447, -187500.02235174447, 0.012, -0.024, -0.994, 192.0, 0.0, 0.0, 0.0, 0.0, 0.0, 0.0, 0.0, 0.0, 0.0, 1.675809683377315E9, 0.0, 2023-02-07 17:41:23.377
32.0, 9572.045156007429, 187500.0, 187500.0, 187500.0, -187500.02235174447, -187500.02235174447, -187500.02235174447, -187500.02235174447, 0.012, -0.024, -0.994, 192.0, 0.0, 0.0, 0.0, 0.0, 0.0, 0.0, 0.0, 0.0, 0.0, 1.67580968338381E9, 0.0, 2023-02-07 17:41:23.383
33.0, 9638.921575417708, 187500.0, 187500.0, 187500.0, -187500.02235174447, -187500.02235174447, -187500.02235174447, -187500.02235174447, 0.012, -0.024, -0.994, 192.0, 0.0, 0.0, 0.0, 0.0, 0.0, 0.0, 0.0, 0.0, 0.0, 1.675809683383828E9, 0.0, 2023-02-07 17:41:23.383
34.0, 9665.810723997442, 187500.0, 187500.0, 187500.0, -187500.02235174447, -187500.02235174447, -187500.02235174447, -187500.02235174447, 0.012, -0.024, -0.994, 192.0, 0.0, 0.0, 0.0, 0.0, 0.0, 0.0, 0.0, 0.0, 0.0, 1.675809683392349E9, 0.0, 2023-02-07 17:41:23.392
35.0, 9728.932050339228, 187500.0, 187500.0, 187500.0, -187500.02235174447, -187500.02235174447, -187500.02235174447, -187500.02235174447, 0.012, -0.024, -0.994, 192.0, 0.0, 0.0, 0.0, 0.0, 0.0, 0.0, 0.0, 0.0, 0.0, 1.675809683392363E9, 0.0, 2023-02-07 17:41:23.392
36.0, 9594.575714418377, 187500.0, 187500.0, 187500.0, -187500.02235174447, -187500.02235174447, -187500.02235174447, -187500.02235174447, 0.012, -0.024, -0.994, 192.0, 0.0, 0.0, 0.0, 0.0, 0.0, 0.0, 0.0, 0.0, 0.0, 1.675809683399845E9, 0.0, 2023-02-07 17:41:23.399
37.0, 9435.76657006342, 187500.0, 187500.0, 187500.0, -187500.02235174447, -187500.02235174447, -187500.02235174447, -187500.02235174447, 0.012, -0.022, -0.99, 192.0, 0.0, 96.0, 255.0, 80.0, 225.0, 16.0, 0.0, 0.0, 0.0, 1.675809683399872E9, 0.0, 2023-02-07 17:41:23.399
38.0, 9480.69357641859, 187500.0, 187500.0, 187500.0, -187500.02235174447, -187500.02235174447, -187500.02235174447, -187500.02235174447, 0.012, -0.022, -0.99, 192.0, 0.0, 0.0, 0.0, 0.0, 0.0, 0.0, 0.0, 0.0, 0.0, 1.675809683406854E9, 0.0, 2023-02-07 17:41:23.406
39.0, 9563.5067896255, 187500.0, 187500.0, 187500.0, -187500.02235174447, -187500.02235174447, -187500.02235174447, -187500.02235174447, 0.012, -0.022, -0.99, 192.0, 0.0, 0.0, 0.0, 0.0, 0.0, 0.0, 0.0, 0.0, 0.0, 1.675809683406873E9, 0.0, 2023-02-07 17:41:23.406
40.0, 9509.281457576926, 187500.0, 187500.0, 187500.0, -187500.02235174447, -187500.02235174447, -187500.02235174447, -187500.02235174447, 0.012, -0.022, -0.99, 192.0, 0.0, 0.0, 0.0, 0.0, 0.0, 0.0, 0.0, 0.0, 0.0, 1.675809683414435E9, 0.0, 2023-02-07 17:41:23.414
41.0, 9535.298888122903, 187500.0, 187500.0, 187500.0, -187500.02235174447, -187500.02235174447, -187500.02235174447, -187500.02235174447, 0.012, -0.022, -0.99, 192.0, 0.0, 0.0, 0.0, 0.0, 0.0, 0.0, 0.0, 0.0, 0.0, 1.675809683414455E9, 0.0, 2023-02-07 17:41:23.414
42.0, 9644.420104553712, 187500.0, 187500.0, 187500.0, -187500.02235174447, -187500.02235174447, -187500.02235174447, -187500.02235174447, 0.012, -0.022, -0.99, 192.0, 0.0, 0.0, 0.0, 0.0, 0.0, 0.0, 0.0, 0.0, 0.0, 1.67580968342242E9, 0.0, 2023-02-07 17:41:23.422
43.0, 9715.073968776938, 187500.0, 187500.0, 187500.0, -187500.02235174447, -187500.02235174447, -187500.02235174447, -187500.02235174447, 0.012, -0.022, -0.99, 192.0, 0.0, 0.0, 0.0, 0.0, 0.0, 0.0, 0.0, 0.0, 0.0, 1.675809683422431E9, 0.0, 2023-02-07 17:41:23.422
44.0, 9494.126974836228, 187500.0, 187500.0, 187500.0, -187500.02235174447, -187500.02235174447, -187500.02235174447, -187500.02235174447, 0.012, -0.022, -0.99, 192.0, 0.0, 0.0, 0.0, 0.0, 0.0, 0.0, 0.0, 0.0, 0.0, 1.675809683429536E9, 0.0, 2023-02-07 17:41:23.429
45.0, 9493.88110564722, 187500.0, 187500.0, 187500.0, -187500.02235174447, -187500.02235174447, -187500.02235174447, -187500.02235174447, 0.012, -0.022, -0.99, 192.0, 0.0, 0.0, 0.0, 0.0, 0.0, 0.0, 0.0, 0.0, 0.0, 1.675809683429549E9, 0.0, 2023-02-07 17:41:23.429
46.0, 9642.833130697385, 187500.0, 187500.0, 187500.0, -187500.02235174447, -187500.02235174447, -187500.02235174447, -187500.02235174447, 0.012, -0.022, -0.99, 192.0, 0.0, 0.0, 0.0, 0.0, 0.0, 0.0, 0.0, 0.0, 0.0, 1.675809683436159E9, 0.0, 2023-02-07 17:41:23.436
47.0, 9615.161671061716, 187500.0, 187500.0, 187500.0, -187500.02235174447, -187500.02235174447, -187500.02235174447, -187500.02235174447, 0.014, -0.022, -0.988, 192.0, 0.0, 112.0, 255.0, 80.0, 225.0, 32.0, 0.0, 0.0, 0.0, 1.675809683444181E9, 0.0, 2023-02-07 17:41:23.444
48.0, 9459.660584886144, 187500.0, 187500.0, 187500.0, -187500.02235174447, -187500.02235174447, -187500.02235174447, -187500.02235174447, 0.014, -0.022, -0.988, 192.0, 0.0, 0.0, 0.0, 0.0, 0.0, 0.0, 0.0, 0.0, 0.0, 1.675809683444202E9, 0.0, 2023-02-07 17:41:23.444
49.0, 9475.463268216046, 187500.0, 187500.0, 187500.0, -187500.02235174447, -187500.02235174447, -187500.02235174447, -187500.02235174447, 0.014, -0.022, -0.988, 192.0, 0.0, 0.0, 0.0, 0.0, 0.0, 0.0, 0.0, 0.0, 0.0, 1.675809683452023E9, 0.0, 2023-02-07 17:41:23.452
50.0, 9528.79453048641, 187500.0, 187500.0, 187500.0, -187500.02235174447, -187500.02235174447, -187500.02235174447, -187500.02235174447, 0.014, -0.022, -0.988, 192.0, 0.0, 0.0, 0.0, 0.0, 0.0, 0.0, 0.0, 0.0, 0.0, 1.675809683452035E9, 0.0, 2023-02-07 17:41:23.452
51.0, 9550.520426096968, 187500.0, 187500.0, 187500.0, -187500.02235174447, -187500.02235174447, -187500.02235174447, -187500.02235174447, 0.014, -0.022, -0.988, 192.0, 0.0, 0.0, 0.0, 0.0, 0.0, 0.0, 0.0, 0.0, 0.0, 1.675809683459115E9, 0.0, 2023-02-07 17:41:23.459
52.0, 9508.409739543169, 187500.0, 187500.0, 187500.0, -187500.02235174447, -187500.02235174447, -187500.02235174447, -187500.02235174447, 0.014, -0.022, -0.988, 192.0, 0.0, 0.0, 0.0, 0.0, 0.0, 0.0, 0.0, 0.0, 0.0, 1.675809683459128E9, 0.0, 2023-02-07 17:41:23.459
53.0, 9536.349420112303, 187500.0, 187500.0, 187500.0, -187500.02235174447, -187500.02235174447, -187500.02235174447, -187500.02235174447, 0.014, -0.022, -0.988, 192.0, 0.0, 0.0, 0.0, 0.0, 0.0, 0.0, 0.0, 0.0, 0.0, 1.675809683466627E9, 0.0, 2023-02-07 17:41:23.466
54.0, 9556.331879655347, 187500.0, 187500.0, 187500.0, -187500.02235174447, -187500.02235174447, -187500.02235174447, -187500.02235174447, 0.014, -0.022, -0.988, 192.0, 0.0, 0.0, 0.0, 0.0, 0.0, 0.0, 0.0, 0.0, 0.0, 1.675809683466639E9, 0.0, 2023-02-07 17:41:23.466
55.0, 9629.37738053529, 187500.0, 187500.0, 187500.0, -187500.02235174447, -187500.02235174447, -187500.02235174447, -187500.02235174447, 0.014, -0.022, -0.988, 192.0, 0.0, 0.0, 0.0, 0.0, 0.0, 0.0, 0.0, 0.0, 0.0, 1.675809683474617E9, 0.0, 2023-02-07 17:41:23.474
56.0, 9718.560840911967, 187500.0, 187500.0, 187500.0, -187500.02235174447, -187500.02235174447, -187500.02235174447, -187500.02235174447, 0.014, -0.022, -0.988, 192.0, 0.0, 0.0, 0.0, 0.0, 0.0, 0.0, 0.0, 0.0, 0.0, 1.67580968347463E9, 0.0, 2023-02-07 17:41:23.474
57.0, 9481.028852585418, 187500.0, 187500.0, 187500.0, -187500.02235174447, -187500.02235174447, -187500.02235174447, -187500.02235174447, 0.014, -0.02, -0.99, 192.0, 0.0, 112.0, 255.0, 96.0, 225.0, 16.0, 0.0, 0.0, 0.0, 1.675809683482606E9, 0.0, 2023-02-07 17:41:23.482
58.0, 9432.614974095222, 187500.0, 187500.0, 187500.0, -187500.02235174447, -187500.02235174447, -187500.02235174447, -187500.02235174447, 0.014, -0.02, -0.99, 192.0, 0.0, 0.0, 0.0, 0.0, 0.0, 0.0, 0.0, 0.0, 0.0, 1.67580968348264E9, 0.0, 2023-02-07 17:41:23.482
59.0, 9564.5573216149, 187500.0, 187500.0, 187500.0, -187500.02235174447, -187500.02235174447, -187500.02235174447, -187500.02235174447, 0.014, -0.02, -0.99, 192.0, 0.0, 0.0, 0.0, 0.0, 0.0, 0.0, 0.0, 0.0, 0.0, 1.675809683489307E9, 0.0, 2023-02-07 17:41:23.489
60.0, 9620.123758330794, 187500.0, 187500.0, 187500.0, -187500.02235174447, -187500.02235174447, -187500.02235174447, -187500.02235174447, 0.014, -0.02, -0.99, 192.0, 0.0, 0.0, 0.0, 0.0, 0.0, 0.0, 0.0, 0.0, 0.0, 1.675809683489321E9, 0.0, 2023-02-07 17:41:23.489
61.0, 9570.32407168437, 187500.0, 187500.0, 187500.0, -187500.02235174447, -187500.02235174447, -187500.02235174447, -187500.02235174447, 0.014, -0.02, -0.99, 192.0, 0.0, 0.0, 0.0, 0.0, 0.0, 0.0, 0.0, 0.0, 0.0, 1.675809683496411E9, 0.0, 2023-02-07 17:41:23.496
62.0, 9491.869448646243, 187500.0, 187500.0, 187500.0, -187500.02235174447, -187500.02235174447, -187500.02235174447, -187500.02235174447, 0.014, -0.02, -0.99, 192.0, 0.0, 0.0, 0.0, 0.0, 0.0, 0.0, 0.0, 0.0, 0.0, 1.675809683496426E9, 0.0, 2023-02-07 17:41:23.496
63.0, 9558.589405845334, 187500.0, 187500.0, 187500.0, -187500.02235174447, -187500.02235174447, -187500.02235174447, -187500.02235174447, 0.014, -0.02, -0.99, 192.0, 0.0, 0.0, 0.0, 0.0, 0.0, 0.0, 0.0, 0.0, 0.0, 1.675809683504337E9, 0.0, 2023-02-07 17:41:23.504
64.0, 9595.983874319063, 187500.0, 187500.0, 187500.0, -187500.02235174447, -187500.02235174447, -187500.02235174447, -187500.02235174447, 0.014, -0.02, -0.99, 192.0, 0.0, 0.0, 0.0, 0.0, 0.0, 0.0, 0.0, 0.0, 0.0, 1.675809683512326E9, 0.0, 2023-02-07 17:41:23.512
65.0, 9505.839288930809, 187500.0, 187500.0, 187500.0, -187500.02235174447, -187500.02235174447, -187500.02235174447, -187500.02235174447, 0.014, -0.02, -0.99, 192.0, 0.0, 0.0, 0.0, 0.0, 0.0, 0.0, 0.0, 0.0, 0.0, 1.67580968351234E9, 0.0, 2023-02-07 17:41:23.512
66.0, 9431.407979894637, 187500.0, 187500.0, 187500.0, -187500.02235174447, -187500.02235174447, -187500.02235174447, -187500.02235174447, 0.014, -0.02, -0.99, 192.0, 0.0, 0.0, 0.0, 0.0, 0.0, 0.0, 0.0, 0.0, 0.0, 1.675809683518958E9, 0.0, 2023-02-07 17:41:23.518
67.0, 9462.409849454147, 187500.0, 187500.0, 187500.0, -187500.02235174447, -187500.02235174447, -187500.02235174447, -187500.02235174447, 0.012, -0.022, -0.988, 192.0, 0.0, 96.0, 255.0, 80.0, 225.0, 32.0, 0.0, 0.0, 0.0, 1.675809683518978E9, 0.0, 2023-02-07 17:41:23.518
68.0, 9517.015161158462, 187500.0, 187500.0, 187500.0, -187500.02235174447, -187500.02235174447, -187500.02235174447, -187500.02235174447, 0.012, -0.022, -0.988, 192.0, 0.0, 0.0, 0.0, 0.0, 0.0, 0.0, 0.0, 0.0, 0.0, 1.675809683527046E9, 0.0, 2023-02-07 17:41:23.527
69.0, 9612.837089638364, 187500.0, 187500.0, 187500.0, -187500.02235174447, -187500.02235174447, -187500.02235174447, -187500.02235174447, 0.012, -0.022, -0.988, 192.0, 0.0, 0.0, 0.0, 0.0, 0.0, 0.0, 0.0, 0.0, 0.0, 1.675809683527063E9, 0.0, 2023-02-07 17:41:23.527
70.0, 9490.014253856452, 187500.0, 187500.0, 187500.0, -187500.02235174447, -187500.02235174447, -187500.02235174447, -187500.02235174447, 0.012, -0.022, -0.988, 192.0, 0.0, 0.0, 0.0, 0.0, 0.0, 0.0, 0.0, 0.0, 0.0, 1.67580968353496E9, 0.0, 2023-02-07 17:41:23.534
71.0, 9564.982004759551, 187500.0, 187500.0, 187500.0, -187500.02235174447, -187500.02235174447, -187500.02235174447, -187500.02235174447, 0.012, -0.022, -0.988, 192.0, 0.0, 0.0, 0.0, 0.0, 0.0, 0.0, 0.0, 0.0, 0.0, 1.675809683534974E9, 0.0, 2023-02-07 17:41:23.534
72.0, 9584.919760813686, 187500.0, 187500.0, 187500.0, -187500.02235174447, -187500.02235174447, -187500.02235174447, -187500.02235174447, 0.012, -0.022, -0.988, 192.0, 0.0, 0.0, 0.0, 0.0, 0.0, 0.0, 0.0, 0.0, 0.0, 1.675809683541901E9, 0.0, 2023-02-07 17:41:23.541
73.0, 9453.178578994106, 187500.0, 187500.0, 187500.0, -187500.02235174447, -187500.02235174447, -187500.02235174447, -187500.02235174447, 0.012, -0.022, -0.988, 192.0, 0.0, 0.0, 0.0, 0.0, 0.0, 0.0, 0.0, 0.0, 0.0, 1.675809683541914E9, 0.0, 2023-02-07 17:41:23.541
74.0, 9480.023024084929, 187500.0, 187500.0, 187500.0, -187500.02235174447, -187500.02235174447, -187500.02235174447, -187500.02235174447, 0.012, -0.022, -0.988, 192.0, 0.0, 0.0, 0.0, 0.0, 0.0, 0.0, 0.0, 0.0, 0.0, 1.675809683549495E9, 0.0, 2023-02-07 17:41:23.549
75.0, 9549.179321429649, 187500.0, 187500.0, 187500.0, -187500.02235174447, -187500.02235174447, -187500.02235174447, -187500.02235174447, 0.012, -0.022, -0.988, 192.0, 0.0, 0.0, 0.0, 0.0, 0.0, 0.0, 0.0, 0.0, 0.0, 1.675809683549508E9, 0.0, 2023-02-07 17:41:23.549
76.0, 9470.165904780139, 187500.0, 187500.0, 187500.0, -187500.02235174447, -187500.02235174447, -187500.02235174447, -187500.02235174447, 0.012, -0.024, -0.988, 192.0, 0.0, 96.0, 255.0, 64.0, 225.0, 32.0, 0.0, 0.0, 0.0, 1.675809683557591E9, 0.0, 2023-02-07 17:41:23.557
77.0, 9397.746252744944, 187500.0, 187500.0, 187500.0, -187500.02235174447, -187500.02235174447, -187500.02235174447, -187500.02235174447, 0.012, -0.024, -0.988, 192.0, 0.0, 0.0, 0.0, 0.0, 0.0, 0.0, 0.0, 0.0, 0.0, 1.675809683557611E9, 0.0, 2023-02-07 17:41:23.557
78.0, 9638.251023084047, 187500.0, 187500.0, 187500.0, -187500.02235174447, -187500.02235174447, -187500.02235174447, -187500.02235174447, 0.012, -0.024, -0.988, 192.0, 0.0, 0.0, 0.0, 0.0, 0.0, 0.0, 0.0, 0.0, 0.0, 1.675809683564653E9, 0.0, 2023-02-07 17:41:23.564
79.0, 9903.186250112802, 187500.0, 187500.0, 187500.0, -187500.02235174447, -187500.02235174447, -187500.02235174447, -187500.02235174447, 0.012, -0.024, -0.988, 192.0, 0.0, 0.0, 0.0, 0.0, 0.0, 0.0, 0.0, 0.0, 0.0, 1.675809683571612E9, 0.0, 2023-02-07 17:41:23.571
80.0, 9346.292537008827, 187500.0, 187500.0, 187500.0, -187500.02235174447, -187500.02235174447, -187500.02235174447, -187500.02235174447, 0.012, -0.024, -0.988, 192.0, 0.0, 0.0, 0.0, 0.0, 0.0, 0.0, 0.0, 0.0, 0.0, 1.675809683571631E9, 0.0, 2023-02-07 17:41:23.571
81.0, 9215.378369734093, 187500.0, 187500.0, 187500.0, -187500.02235174447, -187500.02235174447, -187500.02235174447, -187500.02235174447, 0.012, -0.024, -0.988, 192.0, 0.0, 0.0, 0.0, 0.0, 0.0, 0.0, 0.0, 0.0, 0.0, 1.675809683579129E9, 0.0, 2023-02-07 17:41:23.579
82.0, 9426.20002343655, 187500.0, 187500.0, 187500.0, -187500.02235174447, -187500.02235174447, -187500.02235174447, -187500.02235174447, 0.012, -0.024, -0.988, 192.0, 0.0, 0.0, 0.0, 0.0, 0.0, 0.0, 0.0, 0.0, 0.0, 1.675809683579149E9, 0.0, 2023-02-07 17:41:23.579
83.0, 9450.630480126201, 187500.0, 187500.0, 187500.0, -187500.02235174447, -187500.02235174447, -187500.02235174447, -187500.02235174447, 0.012, -0.024, -0.988, 192.0, 0.0, 0.0, 0.0, 0.0, 0.0, 0.0, 0.0, 0.0, 0.0, 1.675809683587267E9, 0.0, 2023-02-07 17:41:23.587
84.0, 9446.24953821296, 187500.0, 187500.0, 187500.0, -187500.02235174447, -187500.02235174447, -187500.02235174447, -187500.02235174447, 0.012, -0.024, -0.988, 192.0, 0.0, 0.0, 0.0, 0.0, 0.0, 0.0, 0.0, 0.0, 0.0, 1.675809683587282E9, 0.0, 2023-02-07 17:41:23.587
85.0, 9464.890893088686, 187500.0, 187500.0, 187500.0, -187500.02235174447, -187500.02235174447, -187500.02235174447, -187500.02235174447, 0.012, -0.024, -0.988, 192.0, 0.0, 0.0, 0.0, 0.0, 0.0, 0.0, 0.0, 0.0, 0.0, 1.675809683595216E9, 0.0, 2023-02-07 17:41:23.595
86.0, 9618.156804818727, 187500.0, 187500.0, 187500.0, -187500.02235174447, -187500.02235174447, -187500.02235174447, -187500.02235174447, 0.012, -0.024, -0.992, 192.0, 0.0, 96.0, 255.0, 64.0, 225.0, 0.0, 0.0, 0.0, 0.0, 1.675809683595234E9, 0.0, 2023-02-07 17:41:23.595
87.0, 9806.514955343599, 187500.0, 187500.0, 187500.0, -187500.02235174447, -187500.02235174447, -187500.02235174447, -187500.02235174447, 0.012, -0.024, -0.992, 192.0, 0.0, 0.0, 0.0, 0.0, 0.0, 0.0, 0.0, 0.0, 0.0, 1.675809683601797E9, 0.0, 2023-02-07 17:41:23.601
88.0, 9421.550860589847, 187500.0, 187500.0, 187500.0, -187500.02235174447, -187500.02235174447, -187500.02235174447, -187500.02235174447, 0.012, -0.024, -0.992, 192.0, 0.0, 0.0, 0.0, 0.0, 0.0, 0.0, 0.0, 0.0, 0.0, 1.67580968360182E9, 0.0, 2023-02-07 17:41:23.601
89.0, 9278.723213520434, 187500.0, 187500.0, 187500.0, -187500.02235174447, -187500.02235174447, -187500.02235174447, -187500.02235174447, 0.012, -0.024, -0.992, 192.0, 0.0, 0.0, 0.0, 0.0, 0.0, 0.0, 0.0, 0.0, 0.0, 1.675809683609932E9, 0.0, 2023-02-07 17:41:23.609
90.0, 9434.604279351744, 187500.0, 187500.0, 187500.0, -187500.02235174447, -187500.02235174447, -187500.02235174447, -187500.02235174447, 0.012, -0.024, -0.992, 192.0, 0.0, 0.0, 0.0, 0.0, 0.0, 0.0, 0.0, 0.0, 0.0, 1.675809683609951E9, 0.0, 2023-02-07 17:41:23.609
91.0, 9512.589515756312, 187500.0, 187500.0, 187500.0, -187500.02235174447, -187500.02235174447, -187500.02235174447, -187500.02235174447, 0.012, -0.024, -0.992, 192.0, 0.0, 0.0, 0.0, 0.0, 0.0, 0.0, 0.0, 0.0, 0.0, 1.675809683617994E9, 0.0, 2023-02-07 17:41:23.617
92.0, 9486.616788699244, 187500.0, 187500.0, 187500.0, -187500.02235174447, -187500.02235174447, -187500.02235174447, -187500.02235174447, 0.012, -0.024, -0.992, 192.0, 0.0, 0.0, 0.0, 0.0, 0.0, 0.0, 0.0, 0.0, 0.0, 1.675809683618008E9, 0.0, 2023-02-07 17:41:23.618
93.0, 9642.38609580828, 187500.0, 187500.0, 187500.0, -187500.02235174447, -187500.02235174447, -187500.02235174447, -187500.02235174447, 0.012, -0.024, -0.992, 192.0, 0.0, 0.0, 0.0, 0.0, 0.0, 0.0, 0.0, 0.0, 0.0, 1.675809683623981E9, 0.0, 2023-02-07 17:41:23.623
94.0, 9558.142370956228, 187500.0, 187500.0, 187500.0, -187500.02235174447, -187500.02235174447, -187500.02235174447, -187500.02235174447, 0.012, -0.024, -0.992, 192.0, 0.0, 0.0, 0.0, 0.0, 0.0, 0.0, 0.0, 0.0, 0.0, 1.675809683631408E9, 0.0, 2023-02-07 17:41:23.631
95.0, 9230.175224563507, 187500.0, 187500.0, 187500.0, -187500.02235174447, -187500.02235174447, -187500.02235174447, -187500.02235174447, 0.012, -0.024, -0.992, 192.0, 0.0, 0.0, 0.0, 0.0, 0.0, 0.0, 0.0, 0.0, 0.0, 1.67580968363142E9, 0.0, 2023-02-07 17:41:23.631
96.0, 9371.415897776593, 187500.0, 187500.0, 187500.0, -187500.02235174447, -187500.02235174447, -187500.02235174447, -187500.02235174447, 0.014, -0.02, -0.994, 192.0, 0.0, 112.0, 255.0, 96.0, 224.0, 240.0, 0.0, 0.0, 0.0, 1.67580968363945E9, 0.0, 2023-02-07 17:41:23.639
97.0, 9430.759779305432, 187500.0, 187500.0, 187500.0, -187500.02235174447, -187500.02235174447, -187500.02235174447, -187500.02235174447, 0.014, -0.02, -0.994, 192.0, 0.0, 0.0, 0.0, 0.0, 0.0, 0.0, 0.0, 0.0, 0.0, 1.675809683639471E9, 0.0, 2023-02-07 17:41:23.639
98.0, 9478.771326395432, 187500.0, 187500.0, 187500.0, -187500.02235174447, -187500.02235174447, -187500.02235174447, -187500.02235174447, 0.014, -0.02, -0.994, 192.0, 0.0, 0.0, 0.0, 0.0, 0.0, 0.0, 0.0, 0.0, 0.0, 1.675809683647633E9, 0.0, 2023-02-07 17:41:23.647
99.0, 9404.988217948463, 187500.0, 187500.0, 187500.0, -187500.02235174447, -187500.02235174447, -187500.02235174447, -187500.02235174447, 0.014, -0.02, -0.994, 192.0, 0.0, 0.0, 0.0, 0.0, 0.0, 0.0, 0.0, 0.0, 0.0, 1.675809683647654E9, 0.0, 2023-02-07 17:41:23.647
100.0, 9372.779354188366, 187500.0, 187500.0, 187500.0, -187500.02235174447, -187500.02235174447, -187500.02235174447, -187500.02235174447, 0.014, -0.02, -0.994, 192.0, 0.0, 0.0, 0.0, 0.0, 0.0, 0.0, 0.0, 0.0, 0.0, 1.675809683654257E9, 0.0, 2023-02-07 17:41:23.654
101.0, 9438.605241609244, 187500.0, 187500.0, 187500.0, -187500.02235174447, -187500.02235174447, -187500.02235174447, -187500.02235174447, 0.014, -0.02, -0.994, 192.0, 0.0, 0.0, 0.0, 0.0, 0.0, 0.0, 0.0, 0.0, 0.0, 1.675809683654269E9, 0.0, 2023-02-07 17:41:23.654
102.0, 9605.349255245836, 187500.0, 187500.0, 187500.0, -187500.02235174447, -187500.02235174447, -187500.02235174447, -187500.02235174447, 0.014, -0.02, -0.994, 192.0, 0.0, 0.0, 0.0, 0.0, 0.0, 0.0, 0.0, 0.0, 0.0, 1.675809683662041E9, 0.0, 2023-02-07 17:41:23.662
103.0, 9789.75114700212, 187500.0, 187500.0, 187500.0, -187500.02235174447, -187500.02235174447, -187500.02235174447, -187500.02235174447, 0.014, -0.02, -0.994, 192.0, 0.0, 0.0, 0.0, 0.0, 0.0, 0.0, 0.0, 0.0, 0.0, 1.675809683662054E9, 0.0, 2023-02-07 17:41:23.662
104.0, 9363.168104072583, 187500.0, 187500.0, 187500.0, -187500.02235174447, -187500.02235174447, -187500.02235174447, -187500.02235174447, 0.014, -0.02, -0.994, 192.0, 0.0, 0.0, 0.0, 0.0, 0.0, 0.0, 0.0, 0.0, 0.0, 1.675809683670166E9, 0.0, 2023-02-07 17:41:23.670
105.0, 9297.923362007543, 187500.0, 187500.0, 187500.0, -187500.02235174447, -187500.02235174447, -187500.02235174447, -187500.02235174447, 0.014, -0.02, -0.994, 192.0, 0.0, 0.0, 0.0, 0.0, 0.0, 0.0, 0.0, 0.0, 0.0, 1.675809683670178E9, 0.0, 2023-02-07 17:41:23.670
106.0, 9573.006281019007, 187500.0, 187500.0, 187500.0, -187500.02235174447, -187500.02235174447, -187500.02235174447, -187500.02235174447, 0.014, -0.018000000000000002, -0.994, 192.0, 0.0, 112.0, 255.0, 112.0, 224.0, 240.0, 0.0, 0.0, 0.0, 1.675809683677129E9, 0.0, 2023-02-07 17:41:23.677
107.0, 9391.554819530824, 187500.0, 187500.0, 187500.0, -187500.02235174447, -187500.02235174447, -187500.02235174447, -187500.02235174447, 0.014, -0.018000000000000002, -0.994, 192.0, 0.0, 0.0, 0.0, 0.0, 0.0, 0.0, 0.0, 0.0, 0.0, 1.675809683677143E9, 0.0, 2023-02-07 17:41:23.677
108.0, 9270.967158194442, 187500.0, 187500.0, 187500.0, -187500.02235174447, -187500.02235174447, -187500.02235174447, -187500.02235174447, 0.014, -0.018000000000000002, -0.994, 192.0, 0.0, 0.0, 0.0, 0.0, 0.0, 0.0, 0.0, 0.0, 0.0, 1.675809683683724E9, 0.0, 2023-02-07 17:41:23.683
109.0, 9465.24852099997, 187500.0, 187500.0, 187500.0, -187500.02235174447, -187500.02235174447, -187500.02235174447, -187500.02235174447, 0.014, -0.018000000000000002, -0.994, 192.0, 0.0, 0.0, 0.0, 0.0, 0.0, 0.0, 0.0, 0.0, 0.0, 1.675809683691833E9, 0.0, 2023-02-07 17:41:23.691
110.0, 9407.20104064954, 187500.0, 187500.0, 187500.0, -187500.02235174447, -187500.02235174447, -187500.02235174447, -187500.02235174447, 0.014, -0.018000000000000002, -0.994, 192.0, 0.0, 0.0, 0.0, 0.0, 0.0, 0.0, 0.0, 0.0, 0.0, 1.675809683691854E9, 0.0, 2023-02-07 17:41:23.691
111.0, 9313.726045337444, 187500.0, 187500.0, 187500.0, -187500.02235174447, -187500.02235174447, -187500.02235174447, -187500.02235174447, 0.014, -0.018000000000000002, -0.994, 192.0, 0.0, 0.0, 0.0, 0.0, 0.0, 0.0, 0.0, 0.0, 0.0, 1.675809683699782E9, 0.0, 2023-02-07 17:41:23.699
112.0, 9375.863894923199, 187500.0, 187500.0, 187500.0, -187500.02235174447, -187500.02235174447, -187500.02235174447, -187500.02235174447, 0.014, -0.018000000000000002, -0.994, 192.0, 0.0, 0.0, 0.0, 0.0, 0.0, 0.0, 0.0, 0.0, 0.0, 1.675809683699795E9, 0.0, 2023-02-07 17:41:23.699
113.0, 9424.456587369035, 187500.0, 187500.0, 187500.0, -187500.02235174447, -187500.02235174447, -187500.02235174447, -187500.02235174447, 0.014, -0.018000000000000002, -0.994, 192.0, 0.0, 0.0, 0.0, 0.0, 0.0, 0.0, 0.0, 0.0, 0.0, 1.675809683706882E9, 0.0, 2023-02-07 17:41:23.706
114.0, 9445.556634134846, 187500.0, 187500.0, 187500.0, -187500.02235174447, -187500.02235174447, -187500.02235174447, -187500.02235174447, 0.014, -0.018000000000000002, -0.994, 192.0, 0.0, 0.0, 0.0, 0.0, 0.0, 0.0, 0.0, 0.0, 0.0, 1.675809683706895E9, 0.0, 2023-02-07 17:41:23.706
115.0, 9360.552949971312, 187500.0, 187500.0, 187500.0, -187500.02235174447, -187500.02235174447, -187500.02235174447, -187500.02235174447, 0.014, -0.018000000000000002, -0.994, 192.0, 0.0, 0.0, 0.0, 0.0, 0.0, 0.0, 0.0, 0.0, 0.0, 1.675809683714322E9, 0.0, 2023-02-07 17:41:23.714
116.0, 9386.52567702838, 187500.0, 187500.0, 187500.0, -187500.02235174447, -187500.02235174447, -187500.02235174447, -187500.02235174447, 0.014, -0.022, -0.996, 192.0, 0.0, 112.0, 255.0, 80.0, 224.0, 224.0, 0.0, 0.0, 0.0, 1.675809683714335E9, 0.0, 2023-02-07 17:41:23.714
117.0, 9415.985276220474, 187500.0, 187500.0, 187500.0, -187500.02235174447, -187500.02235174447, -187500.02235174447, -187500.02235174447, 0.014, -0.022, -0.996, 192.0, 0.0, 0.0, 0.0, 0.0, 0.0, 0.0, 0.0, 0.0, 0.0, 1.675809683722447E9, 0.0, 2023-02-07 17:41:23.722
118.0, 9411.514927329414, 187500.0, 187500.0, 187500.0, -187500.02235174447, -187500.02235174447, -187500.02235174447, -187500.02235174447, 0.014, -0.022, -0.996, 192.0, 0.0, 0.0, 0.0, 0.0, 0.0, 0.0, 0.0, 0.0, 0.0, 1.675809683722471E9, 0.0, 2023-02-07 17:41:23.722
119.0, 9502.59828598479, 187500.0, 187500.0, 187500.0, -187500.02235174447, -187500.02235174447, -187500.02235174447, -187500.02235174447, 0.014, -0.022, -0.996, 192.0, 0.0, 0.0, 0.0, 0.0, 0.0, 0.0, 0.0, 0.0, 0.0, 1.675809683730429E9, 0.0, 2023-02-07 17:41:23.730
120.0, 9635.881738171785, 187500.0, 187500.0, 187500.0, -187500.02235174447, -187500.02235174447, -187500.02235174447, -187500.02235174447, 0.014, -0.022, -0.996, 192.0, 0.0, 0.0, 0.0, 0.0, 0.0, 0.0, 0.0, 0.0, 0.0, 1.675809683730453E9, 0.0, 2023-02-07 17:41:23.730
121.0, 9633.490101515068, 187500.0, 187500.0, 187500.0, -187500.02235174447, -187500.02235174447, -187500.02235174447, -187500.02235174447, 0.014, -0.022, -0.996, 192.0, 0.0, 0.0, 0.0, 0.0, 0.0, 0.0, 0.0, 0.0, 0.0, 1.67580968373693E9, 0.0, 2023-02-07 17:41:23.736
122.0, 9306.88641153412, 187500.0, 187500.0, 187500.0, -187500.02235174447, -187500.02235174447, -187500.02235174447, -187500.02235174447, 0.014, -0.022, -0.996, 192.0, 0.0, 0.0, 0.0, 0.0, 0.0, 0.0, 0.0, 0.0, 0.0, 1.67580968373695E9, 0.0, 2023-02-07 17:41:23.736
123.0, 9162.203569674917, 187500.0, 187500.0, 187500.0, -187500.02235174447, -187500.02235174447, -187500.02235174447, -187500.02235174447, 0.014, -0.022, -0.996, 192.0, 0.0, 0.0, 0.0, 0.0, 0.0, 0.0, 0.0, 0.0, 0.0, 1.675809683744097E9, 0.0, 2023-02-07 17:41:23.744
124.0, 9283.037100200308, 187500.0, 187500.0, 187500.0, -187500.02235174447, -187500.02235174447, -187500.02235174447, -187500.02235174447, 0.014, -0.022, -0.996, 192.0, 0.0, 0.0, 0.0, 0.0, 0.0, 0.0, 0.0, 0.0, 0.0, 1.675809683744116E9, 0.0, 2023-02-07 17:41:23.744
125.0, 9318.308152950782, 187500.0, 187500.0, 187500.0, -187500.02235174447, -187500.02235174447, -187500.02235174447, -187500.02235174447, 0.014, -0.022, -0.996, 192.0, 0.0, 0.0, 0.0, 0.0, 0.0, 0.0, 0.0, 0.0, 0.0, 1.675809683752103E9, 0.0, 2023-02-07 17:41:23.752
126.0, 9357.714278425488, 187500.0, 187500.0, 187500.0, -187500.02235174447, -187500.02235174447, -187500.02235174447, -187500.02235174447, 0.016, -0.024, -0.998, 192.0, 0.0, 128.0, 255.0, 64.0, 224.0, 208.0, 0.0, 0.0, 0.0, 1.675809683760006E9, 0.0, 2023-02-07 17:41:23.760
127.0, 9376.825019934777, 187500.0, 187500.0, 187500.0, -187500.02235174447, -187500.02235174447, -187500.02235174447, -187500.02235174447, 0.016, -0.024, -0.998, 192.0, 0.0, 0.0, 0.0, 0.0, 0.0, 0.0, 0.0, 0.0, 0.0, 1.675809683760023E9, 0.0, 2023-02-07 17:41:23.760
128.0, 9367.169066330083, 187500.0, 187500.0, 187500.0, -187500.02235174447, -187500.02235174447, -187500.02235174447, -187500.02235174447, 0.016, -0.024, -0.998, 192.0, 0.0, 0.0, 0.0, 0.0, 0.0, 0.0, 0.0, 0.0, 0.0, 1.675809683766766E9, 0.0, 2023-02-07 17:41:23.766
129.0, 9346.024316075363, 187500.0, 187500.0, 187500.0, -187500.02235174447, -187500.02235174447, -187500.02235174447, -187500.02235174447, 0.016, -0.024, -0.998, 192.0, 0.0, 0.0, 0.0, 0.0, 0.0, 0.0, 0.0, 0.0, 0.0, 1.675809683766786E9, 0.0, 2023-02-07 17:41:23.766
130.0, 9366.230293062961, 187500.0, 187500.0, 187500.0, -187500.02235174447, -187500.02235174447, -187500.02235174447, -187500.02235174447, 0.016, -0.024, -0.998, 192.0, 0.0, 0.0, 0.0, 0.0, 0.0, 0.0, 0.0, 0.0, 0.0, 1.67580968377468E9, 0.0, 2023-02-07 17:41:23.774
131.0, 9465.24852099997, 187500.0, 187500.0, 187500.0, -187500.02235174447, -187500.02235174447, -187500.02235174447, -187500.02235174447, 0.016, -0.024, -0.998, 192.0, 0.0, 0.0, 0.0, 0.0, 0.0, 0.0, 0.0, 0.0, 0.0, 1.675809683774701E9, 0.0, 2023-02-07 17:41:23.774
132.0, 9505.347550552791, 187500.0, 187500.0, 187500.0, -187500.02235174447, -187500.02235174447, -187500.02235174447, -187500.02235174447, 0.016, -0.024, -0.998, 192.0, 0.0, 0.0, 0.0, 0.0, 0.0, 0.0, 0.0, 0.0, 0.0, 1.675809683782675E9, 0.0, 2023-02-07 17:41:23.782
133.0, 9356.999022602919, 187500.0, 187500.0, 187500.0, -187500.02235174447, -187500.02235174447, -187500.02235174447, -187500.02235174447, 0.016, -0.024, -0.998, 192.0, 0.0, 0.0, 0.0, 0.0, 0.0, 0.0, 0.0, 0.0, 0.0, 1.675809683782694E9, 0.0, 2023-02-07 17:41:23.782
134.0, 9260.059506900252, 187500.0, 187500.0, 187500.0, -187500.02235174447, -187500.02235174447, -187500.02235174447, -187500.02235174447, 0.016, -0.024, -0.998, 192.0, 0.0, 0.0, 0.0, 0.0, 0.0, 0.0, 0.0, 0.0, 0.0, 1.675809683789771E9, 0.0, 2023-02-07 17:41:23.789
135.0, 9374.478086766969, 187500.0, 187500.0, 187500.0, -187500.02235174447, -187500.02235174447, -187500.02235174447, -187500.02235174447, 0.016, -0.026000000000000002, -0.992, 192.0, 0.0, 128.0, 255.0, 48.0, 225.0, 0.0, 0.0, 0.0, 0.0, 1.675809683789784E9, 0.0, 2023-02-07 17:41:23.789
136.0, 9517.104568136283, 187500.0, 187500.0, 187500.0, -187500.02235174447, -187500.02235174447, -187500.02235174447, -187500.02235174447, 0.016, -0.026000000000000002, -0.992, 192.0, 0.0, 0.0, 0.0, 0.0, 0.0, 0.0, 0.0, 0.0, 0.0, 1.675809683797313E9, 0.0, 2023-02-07 17:41:23.797
137.0, 9369.359537286704, 187500.0, 187500.0, 187500.0, -187500.02235174447, -187500.02235174447, -187500.02235174447, -187500.02235174447, 0.016, -0.026000000000000002, -0.992, 192.0, 0.0, 0.0, 0.0, 0.0, 0.0, 0.0, 0.0, 0.0, 0.0, 1.675809683797326E9, 0.0, 2023-02-07 17:41:23.797
138.0, 9346.806627131298, 187500.0, 187500.0, 187500.0, -187500.02235174447, -187500.02235174447, -187500.02235174447, -187500.02235174447, 0.016, -0.026000000000000002, -0.992, 192.0, 0.0, 0.0, 0.0, 0.0, 0.0, 0.0, 0.0, 0.0, 0.0, 1.675809683805332E9, 0.0, 2023-02-07 17:41:23.805
139.0, 9288.110946191662, 187500.0, 187500.0, 187500.0, -187500.02235174447, -187500.02235174447, -187500.02235174447, -187500.02235174447, 0.016, -0.026000000000000002, -0.992, 192.0, 0.0, 0.0, 0.0, 0.0, 0.0, 0.0, 0.0, 0.0, 0.0, 1.675809683805353E9, 0.0, 2023-02-07 17:41:23.805
140.0, 9381.00479614792, 187500.0, 187500.0, 187500.0, -187500.02235174447, -187500.02235174447, -187500.02235174447, -187500.02235174447, 0.016, -0.026000000000000002, -0.992, 192.0, 0.0, 0.0, 0.0, 0.0, 0.0, 0.0, 0.0, 0.0, 0.0, 1.675809683812401E9, 0.0, 2023-02-07 17:41:23.812
141.0, 9281.539533321802, 187500.0, 187500.0, 187500.0, -187500.02235174447, -187500.02235174447, -187500.02235174447, -187500.02235174447, 0.016, -0.026000000000000002, -0.992, 192.0, 0.0, 0.0, 0.0, 0.0, 0.0, 0.0, 0.0, 0.0, 0.0, 1.675809683819442E9, 0.0, 2023-02-07 17:41:23.819
142.0, 9230.286983285783, 187500.0, 187500.0, 187500.0, -187500.02235174447, -187500.02235174447, -187500.02235174447, -187500.02235174447, 0.016, -0.026000000000000002, -0.992, 192.0, 0.0, 0.0, 0.0, 0.0, 0.0, 0.0, 0.0, 0.0, 0.0, 1.675809683819458E9, 0.0, 2023-02-07 17:41:23.819
143.0, 9296.179925940029, 187500.0, 187500.0, 187500.0, -187500.02235174447, -187500.02235174447, -187500.02235174447, -187500.02235174447, 0.016, -0.026000000000000002, -0.992, 192.0, 0.0, 0.0, 0.0, 0.0, 0.0, 0.0, 0.0, 0.0, 0.0, 1.675809683827067E9, 0.0, 2023-02-07 17:41:23.827
144.0, 9358.18366505905, 187500.0, 187500.0, 187500.0, -187500.02235174447, -187500.02235174447, -187500.02235174447, -187500.02235174447, 0.016, -0.026000000000000002, -0.992, 192.0, 0.0, 0.0, 0.0, 0.0, 0.0, 0.0, 0.0, 0.0, 0.0, 1.67580968382708E9, 0.0, 2023-02-07 17:41:23.827
145.0, 9337.061266548786, 187500.0, 187500.0, 187500.0, -187500.02235174447, -187500.02235174447, -187500.02235174447, -187500.02235174447, 0.012, -0.024, -0.992, 192.0, 0.0, 96.0, 255.0, 64.0, 225.0, 0.0, 0.0, 0.0, 0.0, 1.675809683834964E9, 0.0, 2023-02-07 17:41:23.834
146.0, 9394.058214909819, 187500.0, 187500.0, 187500.0, -187500.02235174447, -187500.02235174447, -187500.02235174447, -187500.02235174447, 0.012, -0.024, -0.992, 192.0, 0.0, 0.0, 0.0, 0.0, 0.0, 0.0, 0.0, 0.0, 0.0, 1.67580968383498E9, 0.0, 2023-02-07 17:41:23.834
147.0, 9434.090189229273, 187500.0, 187500.0, 187500.0, -187500.02235174447, -187500.02235174447, -187500.02235174447, -187500.02235174447, 0.012, -0.024, -0.992, 192.0, 0.0, 0.0, 0.0, 0.0, 0.0, 0.0, 0.0, 0.0, 0.0, 1.675809683841977E9, 0.0, 2023-02-07 17:41:23.841
148.0, 9349.220615532473, 187500.0, 187500.0, 187500.0, -187500.02235174447, -187500.02235174447, -187500.02235174447, -187500.02235174447, 0.012, -0.024, -0.992, 192.0, 0.0, 0.0, 0.0, 0.0, 0.0, 0.0, 0.0, 0.0, 0.0, 1.675809683841988E9, 0.0, 2023-02-07 17:41:23.841
149.0, 9154.067534693186, 187500.0, 187500.0, 187500.0, -187500.02235174447, -187500.02235174447, -187500.02235174447, -187500.02235174447, 0.012, -0.024, -0.992, 192.0, 0.0, 0.0, 0.0, 0.0, 0.0, 0.0, 0.0, 0.0, 0.0, 1.675809683849901E9, 0.0, 2023-02-07 17:41:23.849
150.0, 9187.751613587334, 187500.0, 187500.0, 187500.0, -187500.02235174447, -187500.02235174447, -187500.02235174447, -187500.02235174447, 0.012, -0.024, -0.992, 192.0, 0.0, 0.0, 0.0, 0.0, 0.0, 0.0, 0.0, 0.0, 0.0, 1.675809683849929E9, 0.0, 2023-02-07 17:41:23.849
151.0, 9262.40644006806, 187500.0, 187500.0, 187500.0, -187500.02235174447, -187500.02235174447, -187500.02235174447, -187500.02235174447, 0.012, -0.024, -0.992, 192.0, 0.0, 0.0, 0.0, 0.0, 0.0, 0.0, 0.0, 0.0, 0.0, 1.675809683857483E9, 0.0, 2023-02-07 17:41:23.857
152.0, 9407.469261583003, 187500.0, 187500.0, 187500.0, -187500.02235174447, -187500.02235174447, -187500.02235174447, -187500.02235174447, 0.012, -0.024, -0.992, 192.0, 0.0, 0.0, 0.0, 0.0, 0.0, 0.0, 0.0, 0.0, 0.0, 1.675809683857506E9, 0.0, 2023-02-07 17:41:23.857
153.0, 9400.62962777968, 187500.0, 187500.0, 187500.0, -187500.02235174447, -187500.02235174447, -187500.02235174447, -187500.02235174447, 0.012, -0.024, -0.992, 192.0, 0.0, 0.0, 0.0, 0.0, 0.0, 0.0, 0.0, 0.0, 0.0, 1.675809683865614E9, 0.0, 2023-02-07 17:41:23.865
154.0, 9398.215639378506, 187500.0, 187500.0, 187500.0, -187500.02235174447, -187500.02235174447, -187500.02235174447, -187500.02235174447, 0.012, -0.024, -0.992, 192.0, 0.0, 0.0, 0.0, 0.0, 0.0, 0.0, 0.0, 0.0, 0.0, 1.675809683865627E9, 0.0, 2023-02-07 17:41:23.865
155.0, 9368.443115764036, 187500.0, 187500.0, 187500.0, -187500.02235174447, -187500.02235174447, -187500.02235174447, -187500.02235174447, 0.01, -0.024, -0.994, 192.0, 0.0, 80.0, 255.0, 64.0, 224.0, 240.0, 0.0, 0.0, 0.0, 1.675809683871664E9, 0.0, 2023-02-07 17:41:23.871
156.0, 9232.343343775672, 187500.0, 187500.0, 187500.0, -187500.02235174447, -187500.02235174447, -187500.02235174447, -187500.02235174447, 0.01, -0.024, -0.994, 192.0, 0.0, 0.0, 0.0, 0.0, 0.0, 0.0, 0.0, 0.0, 0.0, 1.67580968387922E9, 0.0, 2023-02-07 17:41:23.879
157.0, 9185.091755997153, 187500.0, 187500.0, 187500.0, -187500.02235174447, -187500.02235174447, -187500.02235174447, -187500.02235174447, 0.01, -0.024, -0.994, 192.0, 0.0, 0.0, 0.0, 0.0, 0.0, 0.0, 0.0, 0.0, 0.0, 1.675809683879233E9, 0.0, 2023-02-07 17:41:23.879
158.0, 9294.436489872514, 187500.0, 187500.0, 187500.0, -187500.02235174447, -187500.02235174447, -187500.02235174447, -187500.02235174447, 0.01, -0.024, -0.994, 192.0, 0.0, 0.0, 0.0, 0.0, 0.0, 0.0, 0.0, 0.0, 0.0, 1.675809683887168E9, 0.0, 2023-02-07 17:41:23.887
159.0, 9245.866149171132, 187500.0, 187500.0, 187500.0, -187500.02235174447, -187500.02235174447, -187500.02235174447, -187500.02235174447, 0.01, -0.024, -0.994, 192.0, 0.0, 0.0, 0.0, 0.0, 0.0, 0.0, 0.0, 0.0, 0.0, 1.675809683887183E9, 0.0, 2023-02-07 17:41:23.887
160.0, 9312.943734281509, 187500.0, 187500.0, 187500.0, -187500.02235174447, -187500.02235174447, -187500.02235174447, -187500.02235174447, 0.01, -0.024, -0.994, 192.0, 0.0, 0.0, 0.0, 0.0, 0.0, 0.0, 0.0, 0.0, 0.0, 1.67580968389532E9, 0.0, 2023-02-07 17:41:23.895
161.0, 9369.694813453534, 187500.0, 187500.0, 187500.0, -187500.02235174447, -187500.02235174447, -187500.02235174447, -187500.02235174447, 0.01, -0.024, -0.994, 192.0, 0.0, 0.0, 0.0, 0.0, 0.0, 0.0, 0.0, 0.0, 0.0, 1.675809683895345E9, 0.0, 2023-02-07 17:41:23.895
162.0, 9189.562104888213, 187500.0, 187500.0, 187500.0, -187500.02235174447, -187500.02235174447, -187500.02235174447, -187500.02235174447, 0.01, -0.024, -0.994, 192.0, 0.0, 0.0, 0.0, 0.0, 0.0, 0.0, 0.0, 0.0, 0.0, 1.675809683901749E9, 0.0, 2023-02-07 17:41:23.901
163.0, 9176.24046519285, 187500.0, 187500.0, 187500.0, -187500.02235174447, -187500.02235174447, -187500.02235174447, -187500.02235174447, 0.01, -0.024, -0.994, 192.0, 0.0, 0.0, 0.0, 0.0, 0.0, 0.0, 0.0, 0.0, 0.0, 1.675809683901769E9, 0.0, 2023-02-07 17:41:23.901
164.0, 9260.685355745001, 187500.0, 187500.0, 187500.0, -187500.02235174447, -187500.02235174447, -187500.02235174447, -187500.02235174447, 0.01, -0.024, -0.994, 192.0, 0.0, 0.0, 0.0, 0.0, 0.0, 0.0, 0.0, 0.0, 0.0, 1.675809683909886E9, 0.0, 2023-02-07 17:41:23.909
165.0, 9279.572579809736, 187500.0, 187500.0, 187500.0, -187500.02235174447, -187500.02235174447, -187500.02235174447, -187500.02235174447, 0.014, -0.024, -0.992, 192.0, 0.0, 112.0, 255.0, 64.0, 225.0, 0.0, 0.0, 0.0, 0.0, 1.675809683909907E9, 0.0, 2023-02-07 17:41:23.909
166.0, 9273.805829740266, 187500.0, 187500.0, 187500.0, -187500.02235174447, -187500.02235174447, -187500.02235174447, -187500.02235174447, 0.014, -0.024, -0.992, 192.0, 0.0, 0.0, 0.0, 0.0, 0.0, 0.0, 0.0, 0.0, 0.0, 1.675809683917832E9, 0.0, 2023-02-07 17:41:23.917
167.0, 9285.138164179107, 187500.0, 187500.0, 187500.0, -187500.02235174447, -187500.02235174447, -187500.02235174447, -187500.02235174447, 0.014, -0.024, -0.992, 192.0, 0.0, 0.0, 0.0, 0.0, 0.0, 0.0, 0.0, 0.0, 0.0, 1.675809683917848E9, 0.0, 2023-02-07 17:41:23.917
168.0, 9400.38375859067, 187500.0, 187500.0, 187500.0, -187500.02235174447, -187500.02235174447, -187500.02235174447, -187500.02235174447, 0.014, -0.024, -0.992, 192.0, 0.0, 0.0, 0.0, 0.0, 0.0, 0.0, 0.0, 0.0, 0.0, 1.675809683924956E9, 0.0, 2023-02-07 17:41:23.924
169.0, 9183.303616440728, 187500.0, 187500.0, 187500.0, -187500.02235174447, -187500.02235174447, -187500.02235174447, -187500.02235174447, 0.014, -0.024, -0.992, 192.0, 0.0, 0.0, 0.0, 0.0, 0.0, 0.0, 0.0, 0.0, 0.0, 1.675809683924969E9, 0.0, 2023-02-07 17:41:23.924
170.0, 9212.651456910546, 187500.0, 187500.0, 187500.0, -187500.02235174447, -187500.02235174447, -187500.02235174447, -187500.02235174447, 0.014, -0.024, -0.992, 192.0, 0.0, 0.0, 0.0, 0.0, 0.0, 0.0, 0.0, 0.0, 0.0, 1.675809683931443E9, 0.0, 2023-02-07 17:41:23.931
171.0, 9303.332484165727, 187500.0, 187500.0, 187500.0, -187500.02235174447, -187500.02235174447, -187500.02235174447, -187500.02235174447, 0.014, -0.024, -0.992, 192.0, 0.0, 0.0, 0.0, 0.0, 0.0, 0.0, 0.0, 0.0, 0.0, 1.675809683939483E9, 0.0, 2023-02-07 17:41:23.939
172.0, 9237.64070721158, 187500.0, 187500.0, 187500.0, -187500.02235174447, -187500.02235174447, -187500.02235174447, -187500.02235174447, 0.014, -0.024, -0.992, 192.0, 0.0, 0.0, 0.0, 0.0, 0.0, 0.0, 0.0, 0.0, 0.0, 1.675809683939506E9, 0.0, 2023-02-07 17:41:23.939
173.0, 9176.709851826412, 187500.0, 187500.0, 187500.0, -187500.02235174447, -187500.02235174447, -187500.02235174447, -187500.02235174447, 0.014, -0.024, -0.992, 192.0, 0.0, 0.0, 0.0, 0.0, 0.0, 0.0, 0.0, 0.0, 0.0, 1.675809683947551E9, 0.0, 2023-02-07 17:41:23.947
174.0, 9429.508081615935, 187500.0, 187500.0, 187500.0, -187500.02235174447, -187500.02235174447, -187500.02235174447, -187500.02235174447, 0.014, -0.024, -0.992, 192.0, 0.0, 0.0, 0.0, 0.0, 0.0, 0.0, 0.0, 0.0, 0.0, 1.67580968394757E9, 0.0, 2023-02-07 17:41:23.947
175.0, 9623.454168254635, 187500.0, 187500.0, 187500.0, -187500.02235174447, -187500.02235174447, -187500.02235174447, -187500.02235174447, 0.014, -0.03, -0.996, 192.0, 0.0, 112.0, 255.0, 16.0, 224.0, 224.0, 0.0, 0.0, 0.0, 1.675809683954952E9, 0.0, 2023-02-07 17:41:23.954
176.0, 9138.711886252391, 187500.0, 187500.0, 187500.0, -187500.02235174447, -187500.02235174447, -187500.02235174447, -187500.02235174447, 0.014, -0.03, -0.996, 192.0, 0.0, 0.0, 0.0, 0.0, 0.0, 0.0, 0.0, 0.0, 0.0, 1.675809683954966E9, 0.0, 2023-02-07 17:41:23.954
177.0, 9215.803052878744, 187500.0, 187500.0, 187500.0, -187500.02235174447, -187500.02235174447, -187500.02235174447, -187500.02235174447, 0.014, -0.03, -0.996, 192.0, 0.0, 0.0, 0.0, 0.0, 0.0, 0.0, 0.0, 0.0, 0.0, 1.675809683962111E9, 0.0, 2023-02-07 17:41:23.962
178.0, 9325.728932109945, 187500.0, 187500.0, 187500.0, -187500.02235174447, -187500.02235174447, -187500.02235174447, -187500.02235174447, 0.014, -0.03, -0.996, 192.0, 0.0, 0.0, 0.0, 0.0, 0.0, 0.0, 0.0, 0.0, 0.0, 1.675809683962124E9, 0.0, 2023-02-07 17:41:23.962
179.0, 9169.177313944974, 187500.0, 187500.0, 187500.0, -187500.02235174447, -187500.02235174447, -187500.02235174447, -187500.02235174447, 0.014, -0.03, -0.996, 192.0, 0.0, 0.0, 0.0, 0.0, 0.0, 0.0, 0.0, 0.0, 0.0, 1.675809683970055E9, 0.0, 2023-02-07 17:41:23.970
180.0, 9158.761401028802, 187500.0, 187500.0, 187500.0, -187500.02235174447, -187500.02235174447, -187500.02235174447, -187500.02235174447, 0.014, -0.03, -0.996, 192.0, 0.0, 0.0, 0.0, 0.0, 0.0, 0.0, 0.0, 0.0, 0.0, 1.675809683970069E9, 0.0, 2023-02-07 17:41:23.970
181.0, 9145.66327877799, 187500.0, 187500.0, 187500.0, -187500.02235174447, -187500.02235174447, -187500.02235174447, -187500.02235174447, 0.014, -0.03, -0.996, 192.0, 0.0, 0.0, 0.0, 0.0, 0.0, 0.0, 0.0, 0.0, 0.0, 1.675809683978458E9, 0.0, 2023-02-07 17:41:23.978
182.0, 9207.510555685825, 187500.0, 187500.0, 187500.0, -187500.02235174447, -187500.02235174447, -187500.02235174447, -187500.02235174447, 0.014, -0.03, -0.996, 192.0, 0.0, 0.0, 0.0, 0.0, 0.0, 0.0, 0.0, 0.0, 0.0, 1.675809683978474E9, 0.0, 2023-02-07 17:41:23.978
183.0, 9194.568895646202, 187500.0, 187500.0, 187500.0, -187500.02235174447, -187500.02235174447, -187500.02235174447, -187500.02235174447, 0.014, -0.03, -0.996, 192.0, 0.0, 0.0, 0.0, 0.0, 0.0, 0.0, 0.0, 0.0, 0.0, 1.675809683984771E9, 0.0, 2023-02-07 17:41:23.984
184.0, 9225.59311695017, 187500.0, 187500.0, 187500.0, -187500.02235174447, -187500.02235174447, -187500.02235174447, -187500.02235174447, 0.014, -0.03, -0.996, 192.0, 0.0, 0.0, 0.0, 0.0, 0.0, 0.0, 0.0, 0.0, 0.0, 1.67580968398479E9, 0.0, 2023-02-07 17:41:23.984
185.0, 9373.852237922221, 187500.0, 187500.0, 187500.0, -187500.02235174447, -187500.02235174447, -187500.02235174447, -187500.02235174447, 0.014, -0.028, -1.0, 192.0, 0.0, 112.0, 255.0, 32.0, 224.0, 192.0, 0.0, 0.0, 0.0, 1.675809683991884E9, 0.0, 2023-02-07 17:41:23.991
186.0, 9353.243929534428, 187500.0, 187500.0, 187500.0, -187500.02235174447, -187500.02235174447, -187500.02235174447, -187500.02235174447, 0.014, -0.028, -1.0, 192.0, 0.0, 0.0, 0.0, 0.0, 0.0, 0.0, 0.0, 0.0, 0.0, 1.675809683991898E9, 0.0, 2023-02-07 17:41:23.991
187.0, 9163.991709231343, 187500.0, 187500.0, 187500.0, -187500.02235174447, -187500.02235174447, -187500.02235174447, -187500.02235174447, 0.014, -0.028, -1.0, 192.0, 0.0, 0.0, 0.0, 0.0, 0.0, 0.0, 0.0, 0.0, 0.0, 1.675809683999965E9, 0.0, 2023-02-07 17:41:23.999
188.0, 9198.815727092711, 187500.0, 187500.0, 187500.0, -187500.02235174447, -187500.02235174447, -187500.02235174447, -187500.02235174447, 0.014, -0.028, -1.0, 192.0, 0.0, 0.0, 0.0, 0.0, 0.0, 0.0, 0.0, 0.0, 0.0, 1.675809684007858E9, 0.0, 2023-02-07 17:41:24.007
189.0, 9253.465742285936, 187500.0, 187500.0, 187500.0, -187500.02235174447, -187500.02235174447, -187500.02235174447, -187500.02235174447, 0.014, -0.028, -1.0, 192.0, 0.0, 0.0, 0.0, 0.0, 0.0, 0.0, 0.0, 0.0, 0.0, 1.675809684007877E9, 0.0, 2023-02-07 17:41:24.007
190.0, 9224.8778611276, 187500.0, 187500.0, 187500.0, -187500.02235174447, -187500.02235174447, -187500.02235174447, -187500.02235174447, 0.014, -0.028, -1.0, 192.0, 0.0, 0.0, 0.0, 0.0, 0.0, 0.0, 0.0, 0.0, 0.0, 1.675809684014414E9, 0.0, 2023-02-07 17:41:24.014
191.0, 9054.535216633703, 187500.0, 187500.0, 187500.0, -187500.02235174447, -187500.02235174447, -187500.02235174447, -187500.02235174447, 0.014, -0.028, -1.0, 192.0, 0.0, 0.0, 0.0, 0.0, 0.0, 0.0, 0.0, 0.0, 0.0, 1.675809684014436E9, 0.0, 2023-02-07 17:41:24.014
192.0, 9149.105447424108, 187500.0, 187500.0, 187500.0, -187500.02235174447, -187500.02235174447, -187500.02235174447, -187500.02235174447, 0.014, -0.028, -1.0, 192.0, 0.0, 0.0, 0.0, 0.0, 0.0, 0.0, 0.0, 0.0, 0.0, 1.675809684022495E9, 0.0, 2023-02-07 17:41:24.022
193.0, 9379.551932758324, 187500.0, 187500.0, 187500.0, -187500.02235174447, -187500.02235174447, -187500.02235174447, -187500.02235174447, 0.014, -0.028, -1.0, 192.0, 0.0, 0.0, 0.0, 0.0, 0.0, 0.0, 0.0, 0.0, 0.0, 1.675809684022517E9, 0.0, 2023-02-07 17:41:24.022
194.0, 9298.862135274665, 187500.0, 187500.0, 187500.0, -187500.02235174447, -187500.02235174447, -187500.02235174447, -187500.02235174447, 0.012, -0.028, -0.998, 192.0, 0.0, 96.0, 255.0, 32.0, 224.0, 208.0, 0.0, 0.0, 0.0, 1.675809684030249E9, 0.0, 2023-02-07 17:41:24.030
195.0, 9133.503929794304, 187500.0, 187500.0, 187500.0, -187500.02235174447, -187500.02235174447, -187500.02235174447, -187500.02235174447, 0.012, -0.028, -0.998, 192.0, 0.0, 0.0, 0.0, 0.0, 0.0, 0.0, 0.0, 0.0, 0.0, 1.675809684030265E9, 0.0, 2023-02-07 17:41:24.030
196.0, 9255.58915800919, 187500.0, 187500.0, 187500.0, -187500.02235174447, -187500.02235174447, -187500.02235174447, -187500.02235174447, 0.012, -0.028, -0.998, 192.0, 0.0, 0.0, 0.0, 0.0, 0.0, 0.0, 0.0, 0.0, 0.0, 1.675809684037088E9, 0.0, 2023-02-07 17:41:24.037
197.0, 9146.065610178186, 187500.0, 187500.0, 187500.0, -187500.02235174447, -187500.02235174447, -187500.02235174447, -187500.02235174447, 0.012, -0.028, -0.998, 192.0, 0.0, 0.0, 0.0, 0.0, 0.0, 0.0, 0.0, 0.0, 0.0, 1.675809684037101E9, 0.0, 2023-02-07 17:41:24.037
198.0, 9219.804015136244, 187500.0, 187500.0, 187500.0, -187500.02235174447, -187500.02235174447, -187500.02235174447, -187500.02235174447, 0.012, -0.028, -0.998, 192.0, 0.0, 0.0, 0.0, 0.0, 0.0, 0.0, 0.0, 0.0, 0.0, 1.675809684045141E9, 0.0, 2023-02-07 17:41:24.045
199.0, 9402.842450480754, 187500.0, 187500.0, 187500.0, -187500.02235174447, -187500.02235174447, -187500.02235174447, -187500.02235174447, 0.012, -0.028, -0.998, 192.0, 0.0, 0.0, 0.0, 0.0, 0.0, 0.0, 0.0, 0.0, 0.0, 1.67580968404516E9, 0.0, 2023-02-07 17:41:24.045
200.0, 9322.8008535863, 187500.0, 187500.0, 187500.0, -187500.02235174447, -187500.02235174447, -187500.02235174447, -187500.02235174447, 0.012, -0.028, -0.998, 192.0, 0.0, 0.0, 0.0, 0.0, 0.0, 0.0, 0.0, 0.0, 0.0, 1.675809684053008E9, 0.0, 2023-02-07 17:41:24.053
201.0, 9359.345955770727, 187500.0, 187500.0, 187500.0, -187500.02235174447, -187500.02235174447, -187500.02235174447, -187500.02235174447, 0.012, -0.028, -0.998, 192.0, 0.0, 0.0, 0.0, 0.0, 0.0, 0.0, 0.0, 0.0, 0.0, 1.675809684053022E9, 0.0, 2023-02-07 17:41:24.053
202.0, 9281.31601587725, 187500.0, 187500.0, 187500.0, -187500.02235174447, -187500.02235174447, -187500.02235174447, -187500.02235174447, 0.012, -0.028, -0.998, 192.0, 0.0, 0.0, 0.0, 0.0, 0.0, 0.0, 0.0, 0.0, 0.0, 1.675809684060152E9, 0.0, 2023-02-07 17:41:24.060
203.0, 9033.569280334626, 187500.0, 187500.0, 187500.0, -187500.02235174447, -187500.02235174447, -187500.02235174447, -187500.02235174447, 0.012, -0.028, -0.998, 192.0, 0.0, 0.0, 0.0, 0.0, 0.0, 0.0, 0.0, 0.0, 0.0, 1.675809684067147E9, 0.0, 2023-02-07 17:41:24.067
204.0, 8903.99621772721, 187500.0, 187500.0, 187500.0, -187500.02235174447, -187500.02235174447, -187500.02235174447, -187500.02235174447, 0.008, -0.026000000000000002, -0.992, 192.0, 0.0, 64.0, 255.0, 48.0, 225.0, 0.0, 0.0, 0.0, 0.0, 1.675809684067169E9, 0.0, 2023-02-07 17:41:24.067
205.0, 9176.8663140376, 187500.0, 187500.0, 187500.0, -187500.02235174447, -187500.02235174447, -187500.02235174447, -187500.02235174447, 0.008, -0.026000000000000002, -0.992, 192.0, 0.0, 0.0, 0.0, 0.0, 0.0, 0.0, 0.0, 0.0, 0.0, 1.675809684074571E9, 0.0, 2023-02-07 17:41:24.074
206.0, 9143.338697354638, 187500.0, 187500.0, 187500.0, -187500.02235174447, -187500.02235174447, -187500.02235174447, -187500.02235174447, 0.008, -0.026000000000000002, -0.992, 192.0, 0.0, 0.0, 0.0, 0.0, 0.0, 0.0, 0.0, 0.0, 0.0, 1.67580968407463E9, 0.0, 2023-02-07 17:41:24.074
207.0, 9174.675843080979, 187500.0, 187500.0, 187500.0, -187500.02235174447, -187500.02235174447, -187500.02235174447, -187500.02235174447, 0.008, -0.026000000000000002, -0.992, 192.0, 0.0, 0.0, 0.0, 0.0, 0.0, 0.0, 0.0, 0.0, 0.0, 1.675809684082692E9, 0.0, 2023-02-07 17:41:24.082
208.0, 9104.714882935868, 187500.0, 187500.0, 187500.0, -187500.02235174447, -187500.02235174447, -187500.02235174447, -187500.02235174447, 0.008, -0.026000000000000002, -0.992, 192.0, 0.0, 0.0, 0.0, 0.0, 0.0, 0.0, 0.0, 0.0, 0.0, 1.675809684082708E9, 0.0, 2023-02-07 17:41:24.082
209.0, 9196.312331713716, 187500.0, 187500.0, 187500.0, -187500.02235174447, -187500.02235174447, -187500.02235174447, -187500.02235174447, 0.008, -0.026000000000000002, -0.992, 192.0, 0.0, 0.0, 0.0, 0.0, 0.0, 0.0, 0.0, 0.0, 0.0, 1.675809684089871E9, 0.0, 2023-02-07 17:41:24.089
210.0, 9270.855399472166, 187500.0, 187500.0, 187500.0, -187500.02235174447, -187500.02235174447, -187500.02235174447, -187500.02235174447, 0.008, -0.026000000000000002, -0.992, 192.0, 0.0, 0.0, 0.0, 0.0, 0.0, 0.0, 0.0, 0.0, 0.0, 1.675809684089883E9, 0.0, 2023-02-07 17:41:24.089
211.0, 9183.415375163004, 187500.0, 187500.0, 187500.0, -187500.02235174447, -187500.02235174447, -187500.02235174447, -187500.02235174447, 0.008, -0.026000000000000002, -0.992, 192.0, 0.0, 0.0, 0.0, 0.0, 0.0, 0.0, 0.0, 0.0, 0.0, 1.67580968409732E9, 0.0, 2023-02-07 17:41:24.097
212.0, 9079.435059956915, 187500.0, 187500.0, 187500.0, -187500.02235174447, -187500.02235174447, -187500.02235174447, -187500.02235174447, 0.008, -0.026000000000000002, -0.992, 192.0, 0.0, 0.0, 0.0, 0.0, 0.0, 0.0, 0.0, 0.0, 0.0, 1.675809684097333E9, 0.0, 2023-02-07 17:41:24.097
213.0, 9036.07267571362, 187500.0, 187500.0, 187500.0, -187500.02235174447, -187500.02235174447, -187500.02235174447, -187500.02235174447, 0.008, -0.026000000000000002, -0.992, 192.0, 0.0, 0.0, 0.0, 0.0, 0.0, 0.0, 0.0, 0.0, 0.0, 1.67580968410538E9, 0.0, 2023-02-07 17:41:24.105
214.0, 9203.174317261495, 187500.0, 187500.0, 187500.0, -187500.02235174447, -187500.02235174447, -187500.02235174447, -187500.02235174447, 0.01, -0.024, -0.99, 192.0, 0.0, 80.0, 255.0, 64.0, 225.0, 16.0, 0.0, 0.0, 0.0, 1.6758096841054E9, 0.0, 2023-02-07 17:41:24.105
215.0, 9361.648185449623, 187500.0, 187500.0, 187500.0, -187500.02235174447, -187500.02235174447, -187500.02235174447, -187500.02235174447, 0.01, -0.024, -0.99, 192.0, 0.0, 0.0, 0.0, 0.0, 0.0, 0.0, 0.0, 0.0, 0.0, 1.675809684113248E9, 0.0, 2023-02-07 17:41:24.113
216.0, 9236.143140333073, 187500.0, 187500.0, 187500.0, -187500.02235174447, -187500.02235174447, -187500.02235174447, -187500.02235174447, 0.01, -0.024, -0.99, 192.0, 0.0, 0.0, 0.0, 0.0, 0.0, 0.0, 0.0, 0.0, 0.0, 1.675809684113268E9, 0.0, 2023-02-07 17:41:24.113
217.0, 8962.334270755562, 187500.0, 187500.0, 187500.0, -187500.02235174447, -187500.02235174447, -187500.02235174447, -187500.02235174447, 0.01, -0.024, -0.99, 192.0, 0.0, 0.0, 0.0, 0.0, 0.0, 0.0, 0.0, 0.0, 0.0, 1.675809684119317E9, 0.0, 2023-02-07 17:41:24.119
218.0, 8976.594683718049, 187500.0, 187500.0, 187500.0, -187500.02235174447, -187500.02235174447, -187500.02235174447, -187500.02235174447, 0.01, -0.024, -0.99, 192.0, 0.0, 0.0, 0.0, 0.0, 0.0, 0.0, 0.0, 0.0, 0.0, 1.675809684127076E9, 0.0, 2023-02-07 17:41:24.127
219.0, 9031.69173380038, 187500.0, 187500.0, 187500.0, -187500.02235174447, -187500.02235174447, -187500.02235174447, -187500.02235174447, 0.01, -0.024, -0.99, 192.0, 0.0, 0.0, 0.0, 0.0, 0.0, 0.0, 0.0, 0.0, 0.0, 1.675809684127088E9, 0.0, 2023-02-07 17:41:24.127
220.0, 9197.7204916144, 187500.0, 187500.0, 187500.0, -187500.02235174447, -187500.02235174447, -187500.02235174447, -187500.02235174447, 0.01, -0.024, -0.99, 192.0, 0.0, 0.0, 0.0, 0.0, 0.0, 0.0, 0.0, 0.0, 0.0, 1.675809684134925E9, 0.0, 2023-02-07 17:41:24.134
221.0, 9757.184655330737, 187500.0, 187500.0, 187500.0, -187500.02235174447, -187500.02235174447, -187500.02235174447, -187500.02235174447, 0.01, -0.024, -0.99, 192.0, 0.0, 0.0, 0.0, 0.0, 0.0, 0.0, 0.0, 0.0, 0.0, 1.675809684134979E9, 0.0, 2023-02-07 17:41:24.134
222.0, 9399.37793009018, 187500.0, 187500.0, 187500.0, -187500.02235174447, -187500.02235174447, -187500.02235174447, -187500.02235174447, 0.01, -0.024, -0.99, 192.0, 0.0, 0.0, 0.0, 0.0, 0.0, 0.0, 0.0, 0.0, 0.0, 1.675809684143193E9, 0.0, 2023-02-07 17:41:24.143
223.0, 8712.687636934237, 187500.0, 187500.0, 187500.0, -187500.02235174447, -187500.02235174447, -187500.02235174447, -187500.02235174447, 0.01, -0.024, -0.99, 192.0, 0.0, 0.0, 0.0, 0.0, 0.0, 0.0, 0.0, 0.0, 0.0, 1.675809684143218E9, 0.0, 2023-02-07 17:41:24.143
224.0, 8838.684420428805, 187500.0, 187500.0, 187500.0, -187500.02235174447, -187500.02235174447, -187500.02235174447, -187500.02235174447, 0.008, -0.028, -0.992, 192.0, 0.0, 64.0, 255.0, 32.0, 225.0, 0.0, 0.0, 0.0, 0.0, 1.675809684149651E9, 0.0, 2023-02-07 17:41:24.149
225.0, 9044.096951973075, 187500.0, 187500.0, 187500.0, -187500.02235174447, -187500.02235174447, -187500.02235174447, -187500.02235174447, 0.008, -0.028, -0.992, 192.0, 0.0, 0.0, 0.0, 0.0, 0.0, 0.0, 0.0, 0.0, 0.0, 1.675809684149671E9, 0.0, 2023-02-07 17:41:24.149
226.0, 9218.887593613577, 187500.0, 187500.0, 187500.0, -187500.02235174447, -187500.02235174447, -187500.02235174447, -187500.02235174447, 0.008, -0.028, -0.992, 192.0, 0.0, 0.0, 0.0, 0.0, 0.0, 0.0, 0.0, 0.0, 0.0, 1.675809684157519E9, 0.0, 2023-02-07 17:41:24.157
227.0, 9013.8773934695, 187500.0, 187500.0, 187500.0, -187500.02235174447, -187500.02235174447, -187500.02235174447, -187500.02235174447, 0.008, -0.028, -0.992, 192.0, 0.0, 0.0, 0.0, 0.0, 0.0, 0.0, 0.0, 0.0, 0.0, 1.67580968415753E9, 0.0, 2023-02-07 17:41:24.157
228.0, 9061.576016137125, 187500.0, 187500.0, 187500.0, -187500.02235174447, -187500.02235174447, -187500.02235174447, -187500.02235174447, 0.008, -0.028, -0.992, 192.0, 0.0, 0.0, 0.0, 0.0, 0.0, 0.0, 0.0, 0.0, 0.0, 1.675809684165599E9, 0.0, 2023-02-07 17:41:24.165
229.0, 9150.29008988024, 187500.0, 187500.0, 187500.0, -187500.02235174447, -187500.02235174447, -187500.02235174447, -187500.02235174447, 0.008, -0.028, -0.992, 192.0, 0.0, 0.0, 0.0, 0.0, 0.0, 0.0, 0.0, 0.0, 0.0, 1.675809684165612E9, 0.0, 2023-02-07 17:41:24.165
230.0, 8978.807506419123, 187500.0, 187500.0, 187500.0, -187500.02235174447, -187500.02235174447, -187500.02235174447, -187500.02235174447, 0.008, -0.028, -0.992, 192.0, 0.0, 0.0, 0.0, 0.0, 0.0, 0.0, 0.0, 0.0, 0.0, 1.675809684172661E9, 0.0, 2023-02-07 17:41:24.172
231.0, 8973.331329027573, 187500.0, 187500.0, 187500.0, -187500.02235174447, -187500.02235174447, -187500.02235174447, -187500.02235174447, 0.008, -0.028, -0.992, 192.0, 0.0, 0.0, 0.0, 0.0, 0.0, 0.0, 0.0, 0.0, 0.0, 1.675809684172681E9, 0.0, 2023-02-07 17:41:24.172
232.0, 9112.068606861665, 187500.0, 187500.0, 187500.0, -187500.02235174447, -187500.02235174447, -187500.02235174447, -187500.02235174447, 0.008, -0.028, -0.992, 192.0, 0.0, 0.0, 0.0, 0.0, 0.0, 0.0, 0.0, 0.0, 0.0, 1.675809684179225E9, 0.0, 2023-02-07 17:41:24.179
233.0, 9147.563177056692, 187500.0, 187500.0, 187500.0, -187500.02235174447, -187500.02235174447, -187500.02235174447, -187500.02235174447, 0.008, -0.028, -0.992, 192.0, 0.0, 0.0, 0.0, 0.0, 0.0, 0.0, 0.0, 0.0, 0.0, 1.675809684187637E9, 0.0, 2023-02-07 17:41:24.187
234.0, 9175.949892514933, 187500.0, 187500.0, 187500.0, -187500.02235174447, -187500.02235174447, -187500.02235174447, -187500.02235174447, 0.008, -0.028, -0.994, 192.0, 0.0, 64.0, 255.0, 32.0, 224.0, 240.0, 0.0, 0.0, 0.0, 1.675809684187659E9, 0.0, 2023-02-07 17:41:24.187
235.0, 9191.841982822656, 187500.0, 187500.0, 187500.0, -187500.02235174447, -187500.02235174447, -187500.02235174447, -187500.02235174447, 0.008, -0.028, -0.994, 192.0, 0.0, 0.0, 0.0, 0.0, 0.0, 0.0, 0.0, 0.0, 0.0, 1.675809684195321E9, 0.0, 2023-02-07 17:41:24.195
236.0, 9212.025608065798, 187500.0, 187500.0, 187500.0, -187500.02235174447, -187500.02235174447, -187500.02235174447, -187500.02235174447, 0.008, -0.028, -0.994, 192.0, 0.0, 0.0, 0.0, 0.0, 0.0, 0.0, 0.0, 0.0, 0.0, 1.675809684195371E9, 0.0, 2023-02-07 17:41:24.195
237.0, 9176.709851826412, 187500.0, 187500.0, 187500.0, -187500.02235174447, -187500.02235174447, -187500.02235174447, -187500.02235174447, 0.008, -0.028, -0.994, 192.0, 0.0, 0.0, 0.0, 0.0, 0.0, 0.0, 0.0, 0.0, 0.0, 1.67580968420309E9, 0.0, 2023-02-07 17:41:24.203
238.0, 8742.05782914851, 187500.0, 187500.0, 187500.0, -187500.02235174447, -187500.02235174447, -187500.02235174447, -187500.02235174447, 0.008, -0.028, -0.994, 192.0, 0.0, 0.0, 0.0, 0.0, 0.0, 0.0, 0.0, 0.0, 0.0, 1.675809684203102E9, 0.0, 2023-02-07 17:41:24.203
239.0, 8853.36951653594, 187500.0, 187500.0, 187500.0, -187500.02235174447, -187500.02235174447, -187500.02235174447, -187500.02235174447, 0.008, -0.028, -0.994, 192.0, 0.0, 0.0, 0.0, 0.0, 0.0, 0.0, 0.0, 0.0, 0.0, 1.675809684209824E9, 0.0, 2023-02-07 17:41:24.209
240.0, 8980.215666319807, 187500.0, 187500.0, 187500.0, -187500.02235174447, -187500.02235174447, -187500.02235174447, -187500.02235174447, 0.008, -0.028, -0.994, 192.0, 0.0, 0.0, 0.0, 0.0, 0.0, 0.0, 0.0, 0.0, 0.0, 1.675809684209835E9, 0.0, 2023-02-07 17:41:24.209
241.0, 9028.718951787825, 187500.0, 187500.0, 187500.0, -187500.02235174447, -187500.02235174447, -187500.02235174447, -187500.02235174447, 0.008, -0.028, -0.994, 192.0, 0.0, 0.0, 0.0, 0.0, 0.0, 0.0, 0.0, 0.0, 0.0, 1.675809684217813E9, 0.0, 2023-02-07 17:41:24.217
242.0, 9134.688572250436, 187500.0, 187500.0, 187500.0, -187500.02235174447, -187500.02235174447, -187500.02235174447, -187500.02235174447, 0.008, -0.028, -0.994, 192.0, 0.0, 0.0, 0.0, 0.0, 0.0, 0.0, 0.0, 0.0, 0.0, 1.675809684217833E9, 0.0, 2023-02-07 17:41:24.217
243.0, 9101.160955567475, 187500.0, 187500.0, 187500.0, -187500.02235174447, -187500.02235174447, -187500.02235174447, -187500.02235174447, 0.008, -0.028, -0.994, 192.0, 0.0, 0.0, 0.0, 0.0, 0.0, 0.0, 0.0, 0.0, 0.0, 1.675809684225871E9, 0.0, 2023-02-07 17:41:24.225
244.0, 8966.20112254633, 187500.0, 187500.0, 187500.0, -187500.02235174447, -187500.02235174447, -187500.02235174447, -187500.02235174447, 0.008, -0.032, -0.99, 192.0, 0.0, 64.0, 255.0, 0.0, 225.0, 16.0, 0.0, 0.0, 0.0, 1.675809684225892E9, 0.0, 2023-02-07 17:41:24.225
245.0, 9009.630562022992, 187500.0, 187500.0, 187500.0, -187500.02235174447, -187500.02235174447, -187500.02235174447, -187500.02235174447, 0.008, -0.032, -0.99, 192.0, 0.0, 0.0, 0.0, 0.0, 0.0, 0.0, 0.0, 0.0, 0.0, 1.675809684232399E9, 0.0, 2023-02-07 17:41:24.232
246.0, 9159.00727021781, 187500.0, 187500.0, 187500.0, -187500.02235174447, -187500.02235174447, -187500.02235174447, -187500.02235174447, 0.008, -0.032, -0.99, 192.0, 0.0, 0.0, 0.0, 0.0, 0.0, 0.0, 0.0, 0.0, 0.0, 1.675809684232421E9, 0.0, 2023-02-07 17:41:24.232
247.0, 9324.32077220926, 187500.0, 187500.0, 187500.0, -187500.02235174447, -187500.02235174447, -187500.02235174447, -187500.02235174447, 0.008, -0.032, -0.99, 192.0, 0.0, 0.0, 0.0, 0.0, 0.0, 0.0, 0.0, 0.0, 0.0, 1.675809684239537E9, 0.0, 2023-02-07 17:41:24.239
248.0, 8973.979529616778, 187500.0, 187500.0, 187500.0, -187500.02235174447, -187500.02235174447, -187500.02235174447, -187500.02235174447, 0.008, -0.032, -0.99, 192.0, 0.0, 0.0, 0.0, 0.0, 0.0, 0.0, 0.0, 0.0, 0.0, 1.675809684239554E9, 0.0, 2023-02-07 17:41:24.239
249.0, 8898.207115913287, 187500.0, 187500.0, 187500.0, -187500.02235174447, -187500.02235174447, -187500.02235174447, -187500.02235174447, 0.008, -0.032, -0.99, 192.0, 0.0, 0.0, 0.0, 0.0, 0.0, 0.0, 0.0, 0.0, 0.0, 1.675809684247455E9, 0.0, 2023-02-07 17:41:24.247
250.0, 9167.05389822172, 187500.0, 187500.0, 187500.0, -187500.02235174447, -187500.02235174447, -187500.02235174447, -187500.02235174447, 0.008, -0.032, -0.99, 192.0, 0.0, 0.0, 0.0, 0.0, 0.0, 0.0, 0.0, 0.0, 0.0, 1.67580968425452E9, 0.0, 2023-02-07 17:41:24.254
251.0, 9204.403663206538, 187500.0, 187500.0, 187500.0, -187500.02235174447, -187500.02235174447, -187500.02235174447, -187500.02235174447, 0.008, -0.032, -0.99, 192.0, 0.0, 0.0, 0.0, 0.0, 0.0, 0.0, 0.0, 0.0, 0.0, 1.675809684254573E9, 0.0, 2023-02-07 17:41:24.254
252.0, 9248.838931183689, 187500.0, 187500.0, 187500.0, -187500.02235174447, -187500.02235174447, -187500.02235174447, -187500.02235174447, 0.008, -0.032, -0.99, 192.0, 0.0, 0.0, 0.0, 0.0, 0.0, 0.0, 0.0, 0.0, 0.0, 1.67580968426205E9, 0.0, 2023-02-07 17:41:24.262
253.0, 8967.050488835632, 187500.0, 187500.0, 187500.0, -187500.02235174447, -187500.02235174447, -187500.02235174447, -187500.02235174447, 0.01, -0.03, -0.99, 192.0, 0.0, 80.0, 255.0, 16.0, 225.0, 16.0, 0.0, 0.0, 0.0, 1.675809684262116E9, 0.0, 2023-02-07 17:41:24.262
254.0, 9072.260149986763, 187500.0, 187500.0, 187500.0, -187500.02235174447, -187500.02235174447, -187500.02235174447, -187500.02235174447, 0.01, -0.03, -0.99, 192.0, 0.0, 0.0, 0.0, 0.0, 0.0, 0.0, 0.0, 0.0, 0.0, 1.675809684270217E9, 0.0, 2023-02-07 17:41:24.270
255.0, 9083.637187914514, 187500.0, 187500.0, 187500.0, -187500.02235174447, -187500.02235174447, -187500.02235174447, -187500.02235174447, 0.01, -0.03, -0.99, 192.0, 0.0, 0.0, 0.0, 0.0, 0.0, 0.0, 0.0, 0.0, 0.0, 1.675809684270238E9, 0.0, 2023-02-07 17:41:24.270
0.0, 9177.7156803269, 187500.0, 187500.0, 187500.0, -187500.02235174447, -187500.02235174447, -187500.02235174447, -187500.02235174447, 0.01, -0.03, -0.99, 192.0, 0.0, 0.0, 0.0, 0.0, 0.0, 0.0, 0.0, 0.0, 0.0, 1.675809684278134E9, 0.0, 2023-02-07 17:41:24.278
1.0, 9275.16928615204, 187500.0, 187500.0, 187500.0, -187500.02235174447, -187500.02235174447, -187500.02235174447, -187500.02235174447, 0.01, -0.03, -0.99, 192.0, 0.0, 0.0, 0.0, 0.0, 0.0, 0.0, 0.0, 0.0, 0.0, 1.675809684278156E9, 0.0, 2023-02-07 17:41:24.278
2.0, 9100.93743812292, 187500.0, 187500.0, 187500.0, -187500.02235174447, -187500.02235174447, -187500.02235174447, -187500.02235174447, 0.01, -0.03, -0.99, 192.0, 0.0, 0.0, 0.0, 0.0, 0.0, 0.0, 0.0, 0.0, 0.0, 1.675809684284783E9, 0.0, 2023-02-07 17:41:24.284
3.0, 8708.843136887925, 187500.0, 187500.0, 187500.0, -187500.02235174447, -187500.02235174447, -187500.02235174447, -187500.02235174447, 0.01, -0.03, -0.99, 192.0, 0.0, 0.0, 0.0, 0.0, 0.0, 0.0, 0.0, 0.0, 0.0, 1.675809684284797E9, 0.0, 2023-02-07 17:41:24.284
4.0, 8833.342353503986, 187500.0, 187500.0, 187500.0, -187500.02235174447, -187500.02235174447, -187500.02235174447, -187500.02235174447, 0.01, -0.03, -0.99, 192.0, 0.0, 0.0, 0.0, 0.0, 0.0, 0.0, 0.0, 0.0, 0.0, 1.675809684292733E9, 0.0, 2023-02-07 17:41:24.292
5.0, 9051.853007299067, 187500.0, 187500.0, 187500.0, -187500.02235174447, -187500.02235174447, -187500.02235174447, -187500.02235174447, 0.01, -0.03, -0.99, 192.0, 0.0, 0.0, 0.0, 0.0, 0.0, 0.0, 0.0, 0.0, 0.0, 1.675809684292746E9, 0.0, 2023-02-07 17:41:24.292
6.0, 8950.845474105534, 187500.0, 187500.0, 187500.0, -187500.02235174447, -187500.02235174447, -187500.02235174447, -187500.02235174447, 0.01, -0.03, -0.99, 192.0, 0.0, 0.0, 0.0, 0.0, 0.0, 0.0, 0.0, 0.0, 0.0, 1.675809684300681E9, 0.0, 2023-02-07 17:41:24.300
7.0, 9114.460243518382, 187500.0, 187500.0, 187500.0, -187500.02235174447, -187500.02235174447, -187500.02235174447, -187500.02235174447, 0.016, -0.024, -0.99, 192.0, 0.0, 128.0, 255.0, 64.0, 225.0, 16.0, 0.0, 0.0, 0.0, 1.675809684300693E9, 0.0, 2023-02-07 17:41:24.300
8.0, 9226.889518128577, 187500.0, 187500.0, 187500.0, -187500.02235174447, -187500.02235174447, -187500.02235174447, -187500.02235174447, 0.016, -0.024, -0.99, 192.0, 0.0, 0.0, 0.0, 0.0, 0.0, 0.0, 0.0, 0.0, 0.0, 1.675809684307875E9, 0.0, 2023-02-07 17:41:24.307
9.0, 9090.119193806553, 187500.0, 187500.0, 187500.0, -187500.02235174447, -187500.02235174447, -187500.02235174447, -187500.02235174447, 0.016, -0.024, -0.99, 192.0, 0.0, 0.0, 0.0, 0.0, 0.0, 0.0, 0.0, 0.0, 0.0, 1.675809684314549E9, 0.0, 2023-02-07 17:41:24.314
10.0, 8787.051890737044, 187500.0, 187500.0, 187500.0, -187500.02235174447, -187500.02235174447, -187500.02235174447, -187500.02235174447, 0.016, -0.024, -0.99, 192.0, 0.0, 0.0, 0.0, 0.0, 0.0, 0.0, 0.0, 0.0, 0.0, 1.675809684314609E9, 0.0, 2023-02-07 17:41:24.314
11.0, 8768.432887605773, 187500.0, 187500.0, 187500.0, -187500.02235174447, -187500.02235174447, -187500.02235174447, -187500.02235174447, 0.016, -0.024, -0.99, 192.0, 0.0, 0.0, 0.0, 0.0, 0.0, 0.0, 0.0, 0.0, 0.0, 1.6758096843224E9, 0.0, 2023-02-07 17:41:24.322
12.0, 8833.029429081611, 187500.0, 187500.0, 187500.0, -187500.02235174447, -187500.02235174447, -187500.02235174447, -187500.02235174447, 0.016, -0.024, -0.99, 192.0, 0.0, 0.0, 0.0, 0.0, 0.0, 0.0, 0.0, 0.0, 0.0, 1.675809684322416E9, 0.0, 2023-02-07 17:41:24.322
13.0, 9053.484684644305, 187500.0, 187500.0, 187500.0, -187500.02235174447, -187500.02235174447, -187500.02235174447, -187500.02235174447, 0.016, -0.024, -0.99, 192.0, 0.0, 0.0, 0.0, 0.0, 0.0, 0.0, 0.0, 0.0, 0.0, 1.675809684330556E9, 0.0, 2023-02-07 17:41:24.330
14.0, 9132.654563505002, 187500.0, 187500.0, 187500.0, -187500.02235174447, -187500.02235174447, -187500.02235174447, -187500.02235174447, 0.016, -0.024, -0.99, 192.0, 0.0, 0.0, 0.0, 0.0, 0.0, 0.0, 0.0, 0.0, 0.0, 1.675809684330569E9, 0.0, 2023-02-07 17:41:24.330
15.0, 8971.9678726158, 187500.0, 187500.0, 187500.0, -187500.02235174447, -187500.02235174447, -187500.02235174447, -187500.02235174447, 0.016, -0.024, -0.99, 192.0, 0.0, 0.0, 0.0, 0.0, 0.0, 0.0, 0.0, 0.0, 0.0, 1.675809684337403E9, 0.0, 2023-02-07 17:41:24.337
16.0, 9026.9308122314, 187500.0, 187500.0, 187500.0, -187500.02235174447, -187500.02235174447, -187500.02235174447, -187500.02235174447, 0.016, -0.024, -0.99, 192.0, 0.0, 0.0, 0.0, 0.0, 0.0, 0.0, 0.0, 0.0, 0.0, 1.675809684337417E9, 0.0, 2023-02-07 17:41:24.337
17.0, 9183.884761796566, 187500.0, 187500.0, 187500.0, -187500.02235174447, -187500.02235174447, -187500.02235174447, -187500.02235174447, 0.012, -0.026000000000000002, -0.992, 192.0, 0.0, 96.0, 255.0, 48.0, 225.0, 0.0, 0.0, 0.0, 0.0, 1.675809684344992E9, 0.0, 2023-02-07 17:41:24.344
18.0, 9996.393024491434, 187500.0, 187500.0, 187500.0, -187500.02235174447, -187500.02235174447, -187500.02235174447, -187500.02235174447, 0.012, -0.026000000000000002, -0.992, 192.0, 0.0, 0.0, 0.0, 0.0, 0.0, 0.0, 0.0, 0.0, 0.0, 1.675809684345007E9, 0.0, 2023-02-07 17:41:24.345
19.0, 9571.08403099585, 187500.0, 187500.0, 187500.0, -187500.02235174447, -187500.02235174447, -187500.02235174447, -187500.02235174447, 0.012, -0.026000000000000002, -0.992, 192.0, 0.0, 0.0, 0.0, 0.0, 0.0, 0.0, 0.0, 0.0, 0.0, 1.675809684353163E9, 0.0, 2023-02-07 17:41:24.353
20.0, 9070.092030774598, 187500.0, 187500.0, 187500.0, -187500.02235174447, -187500.02235174447, -187500.02235174447, -187500.02235174447, 0.012, -0.026000000000000002, -0.992, 192.0, 0.0, 0.0, 0.0, 0.0, 0.0, 0.0, 0.0, 0.0, 0.0, 1.675809684353183E9, 0.0, 2023-02-07 17:41:24.353
21.0, 8285.143468993125, 187500.0, 187500.0, 187500.0, -187500.02235174447, -187500.02235174447, -187500.02235174447, -187500.02235174447, 0.012, -0.026000000000000002, -0.992, 192.0, 0.0, 0.0, 0.0, 0.0, 0.0, 0.0, 0.0, 0.0, 0.0, 1.675809684361175E9, 0.0, 2023-02-07 17:41:24.361
22.0, 8473.367509051264, 187500.0, 187500.0, 187500.0, -187500.02235174447, -187500.02235174447, -187500.02235174447, -187500.02235174447, 0.012, -0.026000000000000002, -0.992, 192.0, 0.0, 0.0, 0.0, 0.0, 0.0, 0.0, 0.0, 0.0, 0.0, 1.675809684361194E9, 0.0, 2023-02-07 17:41:24.361
23.0, 8910.52292710816, 187500.0, 187500.0, 187500.0, -187500.02235174447, -187500.02235174447, -187500.02235174447, -187500.02235174447, 0.012, -0.026000000000000002, -0.992, 192.0, 0.0, 0.0, 0.0, 0.0, 0.0, 0.0, 0.0, 0.0, 0.0, 1.675809684367287E9, 0.0, 2023-02-07 17:41:24.367
24.0, 8982.45084076534, 187500.0, 187500.0, 187500.0, -187500.02235174447, -187500.02235174447, -187500.02235174447, -187500.02235174447, 0.012, -0.026000000000000002, -0.992, 192.0, 0.0, 0.0, 0.0, 0.0, 0.0, 0.0, 0.0, 0.0, 0.0, 1.675809684374867E9, 0.0, 2023-02-07 17:41:24.374
25.0, 9394.415842821103, 187500.0, 187500.0, 187500.0, -187500.02235174447, -187500.02235174447, -187500.02235174447, -187500.02235174447, 0.012, -0.026000000000000002, -0.992, 192.0, 0.0, 0.0, 0.0, 0.0, 0.0, 0.0, 0.0, 0.0, 0.0, 1.675809684374912E9, 0.0, 2023-02-07 17:41:24.374
26.0, 9588.09370852634, 187500.0, 187500.0, 187500.0, -187500.02235174447, -187500.02235174447, -187500.02235174447, -187500.02235174447, 0.012, -0.026000000000000002, -0.992, 192.0, 0.0, 0.0, 0.0, 0.0, 0.0, 0.0, 0.0, 0.0, 0.0, 1.675809684382738E9, 0.0, 2023-02-07 17:41:24.382
27.0, 8907.483089862239, 187500.0, 187500.0, 187500.0, -187500.02235174447, -187500.02235174447, -187500.02235174447, -187500.02235174447, 0.018000000000000002, -0.02, -0.992, 192.0, 0.0, 144.0, 255.0, 96.0, 225.0, 0.0, 0.0, 0.0, 0.0, 1.675809684382753E9, 0.0, 2023-02-07 17:41:24.382
28.0, 8914.590944599026, 187500.0, 187500.0, 187500.0, -187500.02235174447, -187500.02235174447, -187500.02235174447, -187500.02235174447, 0.018000000000000002, -0.02, -0.992, 192.0, 0.0, 0.0, 0.0, 0.0, 0.0, 0.0, 0.0, 0.0, 0.0, 1.67580968439069E9, 0.0, 2023-02-07 17:41:24.390
29.0, 8881.75623199418, 187500.0, 187500.0, 187500.0, -187500.02235174447, -187500.02235174447, -187500.02235174447, -187500.02235174447, 0.018000000000000002, -0.02, -0.992, 192.0, 0.0, 0.0, 0.0, 0.0, 0.0, 0.0, 0.0, 0.0, 0.0, 1.675809684390703E9, 0.0, 2023-02-07 17:41:24.390
30.0, 8972.034927849165, 187500.0, 187500.0, 187500.0, -187500.02235174447, -187500.02235174447, -187500.02235174447, -187500.02235174447, 0.018000000000000002, -0.02, -0.992, 192.0, 0.0, 0.0, 0.0, 0.0, 0.0, 0.0, 0.0, 0.0, 0.0, 1.675809684397324E9, 0.0, 2023-02-07 17:41:24.397
31.0, 9122.28335407774, 187500.0, 187500.0, 187500.0, -187500.02235174447, -187500.02235174447, -187500.02235174447, -187500.02235174447, 0.018000000000000002, -0.02, -0.992, 192.0, 0.0, 0.0, 0.0, 0.0, 0.0, 0.0, 0.0, 0.0, 0.0, 1.675809684397346E9, 0.0, 2023-02-07 17:41:24.397
32.0, 9009.831727723089, 187500.0, 187500.0, 187500.0, -187500.02235174447, -187500.02235174447, -187500.02235174447, -187500.02235174447, 0.018000000000000002, -0.02, -0.992, 192.0, 0.0, 0.0, 0.0, 0.0, 0.0, 0.0, 0.0, 0.0, 0.0, 1.675809684405341E9, 0.0, 2023-02-07 17:41:24.405
33.0, 8981.065032609109, 187500.0, 187500.0, 187500.0, -187500.02235174447, -187500.02235174447, -187500.02235174447, -187500.02235174447, 0.018000000000000002, -0.02, -0.992, 192.0, 0.0, 0.0, 0.0, 0.0, 0.0, 0.0, 0.0, 0.0, 0.0, 1.675809684405363E9, 0.0, 2023-02-07 17:41:24.405
34.0, 8974.963006372811, 187500.0, 187500.0, 187500.0, -187500.02235174447, -187500.02235174447, -187500.02235174447, -187500.02235174447, 0.018000000000000002, -0.02, -0.992, 192.0, 0.0, 0.0, 0.0, 0.0, 0.0, 0.0, 0.0, 0.0, 0.0, 1.675809684413395E9, 0.0, 2023-02-07 17:41:24.413
35.0, 8977.891084896455, 187500.0, 187500.0, 187500.0, -187500.02235174447, -187500.02235174447, -187500.02235174447, -187500.02235174447, 0.018000000000000002, -0.02, -0.992, 192.0, 0.0, 0.0, 0.0, 0.0, 0.0, 0.0, 0.0, 0.0, 0.0, 1.675809684413413E9, 0.0, 2023-02-07 17:41:24.413
36.0, 9195.8205933357, 187500.0, 187500.0, 187500.0, -187500.02235174447, -187500.02235174447, -187500.02235174447, -187500.02235174447, 0.018000000000000002, -0.02, -0.992, 192.0, 0.0, 0.0, 0.0, 0.0, 0.0, 0.0, 0.0, 0.0, 0.0, 1.67580968442053E9, 0.0, 2023-02-07 17:41:24.420
37.0, 9554.007298231996, 187500.0, 187500.0, 187500.0, -187500.02235174447, -187500.02235174447, -187500.02235174447, -187500.02235174447, 0.014, -0.022, -0.994, 192.0, 0.0, 112.0, 255.0, 80.0, 224.0, 240.0, 0.0, 0.0, 0.0, 1.675809684420543E9, 0.0, 2023-02-07 17:41:24.420
38.0, 8946.86686359249, 187500.0, 187500.0, 187500.0, -187500.02235174447, -187500.02235174447, -187500.02235174447, -187500.02235174447, 0.014, -0.022, -0.994, 192.0, 0.0, 0.0, 0.0, 0.0, 0.0, 0.0, 0.0, 0.0, 0.0, 1.675809684426913E9, 0.0, 2023-02-07 17:41:24.426
39.0, 8702.428186229252, 187500.0, 187500.0, 187500.0, -187500.02235174447, -187500.02235174447, -187500.02235174447, -187500.02235174447, 0.014, -0.022, -0.994, 192.0, 0.0, 0.0, 0.0, 0.0, 0.0, 0.0, 0.0, 0.0, 0.0, 1.675809684435128E9, 0.0, 2023-02-07 17:41:24.435
40.0, 9001.248657852251, 187500.0, 187500.0, 187500.0, -187500.02235174447, -187500.02235174447, -187500.02235174447, -187500.02235174447, 0.014, -0.022, -0.994, 192.0, 0.0, 0.0, 0.0, 0.0, 0.0, 0.0, 0.0, 0.0, 0.0, 1.675809684435172E9, 0.0, 2023-02-07 17:41:24.435
41.0, 9083.70424314788, 187500.0, 187500.0, 187500.0, -187500.02235174447, -187500.02235174447, -187500.02235174447, -187500.02235174447, 0.014, -0.022, -0.994, 192.0, 0.0, 0.0, 0.0, 0.0, 0.0, 0.0, 0.0, 0.0, 0.0, 1.675809684443041E9, 0.0, 2023-02-07 17:41:24.443
42.0, 9281.561885066258, 187500.0, 187500.0, 187500.0, -187500.02235174447, -187500.02235174447, -187500.02235174447, -187500.02235174447, 0.014, -0.022, -0.994, 192.0, 0.0, 0.0, 0.0, 0.0, 0.0, 0.0, 0.0, 0.0, 0.0, 1.675809684443066E9, 0.0, 2023-02-07 17:41:24.443
43.0, 9063.900597560478, 187500.0, 187500.0, 187500.0, -187500.02235174447, -187500.02235174447, -187500.02235174447, -187500.02235174447, 0.014, -0.022, -0.994, 192.0, 0.0, 0.0, 0.0, 0.0, 0.0, 0.0, 0.0, 0.0, 0.0, 1.675809684450243E9, 0.0, 2023-02-07 17:41:24.450
44.0, 8869.529827777127, 187500.0, 187500.0, 187500.0, -187500.02235174447, -187500.02235174447, -187500.02235174447, -187500.02235174447, 0.014, -0.022, -0.994, 192.0, 0.0, 0.0, 0.0, 0.0, 0.0, 0.0, 0.0, 0.0, 0.0, 1.675809684450256E9, 0.0, 2023-02-07 17:41:24.450
45.0, 9064.817019083146, 187500.0, 187500.0, 187500.0, -187500.02235174447, -187500.02235174447, -187500.02235174447, -187500.02235174447, 0.014, -0.022, -0.994, 192.0, 0.0, 0.0, 0.0, 0.0, 0.0, 0.0, 0.0, 0.0, 0.0, 1.675809684457709E9, 0.0, 2023-02-07 17:41:24.457
46.0, 9200.045073037752, 187500.0, 187500.0, 187500.0, -187500.02235174447, -187500.02235174447, -187500.02235174447, -187500.02235174447, 0.014, -0.022, -0.994, 192.0, 0.0, 0.0, 0.0, 0.0, 0.0, 0.0, 0.0, 0.0, 0.0, 1.675809684457722E9, 0.0, 2023-02-07 17:41:24.457
47.0, 9233.148006576062, 187500.0, 187500.0, 187500.0, -187500.02235174447, -187500.02235174447, -187500.02235174447, -187500.02235174447, 0.008, -0.022, -0.99, 192.0, 0.0, 64.0, 255.0, 80.0, 225.0, 16.0, 0.0, 0.0, 0.0, 1.675809684465654E9, 0.0, 2023-02-07 17:41:24.465
48.0, 9395.756947488422, 187500.0, 187500.0, 187500.0, -187500.02235174447, -187500.02235174447, -187500.02235174447, -187500.02235174447, 0.008, -0.022, -0.99, 192.0, 0.0, 0.0, 0.0, 0.0, 0.0, 0.0, 0.0, 0.0, 0.0, 1.675809684465667E9, 0.0, 2023-02-07 17:41:24.465
49.0, 9008.892954455967, 187500.0, 187500.0, 187500.0, -187500.02235174447, -187500.02235174447, -187500.02235174447, -187500.02235174447, 0.008, -0.022, -0.99, 192.0, 0.0, 0.0, 0.0, 0.0, 0.0, 0.0, 0.0, 0.0, 0.0, 1.675809684472765E9, 0.0, 2023-02-07 17:41:24.472
50.0, 8846.105199587966, 187500.0, 187500.0, 187500.0, -187500.02235174447, -187500.02235174447, -187500.02235174447, -187500.02235174447, 0.008, -0.022, -0.99, 192.0, 0.0, 0.0, 0.0, 0.0, 0.0, 0.0, 0.0, 0.0, 0.0, 1.675809684472779E9, 0.0, 2023-02-07 17:41:24.472
51.0, 8871.85440920048, 187500.0, 187500.0, 187500.0, -187500.02235174447, -187500.02235174447, -187500.02235174447, -187500.02235174447, 0.008, -0.022, -0.99, 192.0, 0.0, 0.0, 0.0, 0.0, 0.0, 0.0, 0.0, 0.0, 0.0, 1.675809684480276E9, 0.0, 2023-02-07 17:41:24.480
52.0, 9034.373943135017, 187500.0, 187500.0, 187500.0, -187500.02235174447, -187500.02235174447, -187500.02235174447, -187500.02235174447, 0.008, -0.022, -0.99, 192.0, 0.0, 0.0, 0.0, 0.0, 0.0, 0.0, 0.0, 0.0, 0.0, 1.675809684480296E9, 0.0, 2023-02-07 17:41:24.480
53.0, 9060.480780658816, 187500.0, 187500.0, 187500.0, -187500.02235174447, -187500.02235174447, -187500.02235174447, -187500.02235174447, 0.008, -0.022, -0.99, 192.0, 0.0, 0.0, 0.0, 0.0, 0.0, 0.0, 0.0, 0.0, 0.0, 1.675809684487311E9, 0.0, 2023-02-07 17:41:24.487
54.0, 9297.230457929429, 187500.0, 187500.0, 187500.0, -187500.02235174447, -187500.02235174447, -187500.02235174447, -187500.02235174447, 0.008, -0.022, -0.99, 192.0, 0.0, 0.0, 0.0, 0.0, 0.0, 0.0, 0.0, 0.0, 0.0, 1.675809684487332E9, 0.0, 2023-02-07 17:41:24.487
55.0, 9087.593446683102, 187500.0, 187500.0, 187500.0, -187500.02235174447, -187500.02235174447, -187500.02235174447, -187500.02235174447, 0.008, -0.022, -0.99, 192.0, 0.0, 0.0, 0.0, 0.0, 0.0, 0.0, 0.0, 0.0, 0.0, 1.675809684495353E9, 0.0, 2023-02-07 17:41:24.495
56.0, 9040.565376349137, 187500.0, 187500.0, 187500.0, -187500.02235174447, -187500.02235174447, -187500.02235174447, -187500.02235174447, 0.012, -0.018000000000000002, -0.99, 192.0, 0.0, 96.0, 255.0, 112.0, 225.0, 16.0, 0.0, 0.0, 0.0, 1.675809684502469E9, 0.0, 2023-02-07 17:41:24.502
57.0, 9293.855344516676, 187500.0, 187500.0, 187500.0, -187500.02235174447, -187500.02235174447, -187500.02235174447, -187500.02235174447, 0.012, -0.018000000000000002, -0.99, 192.0, 0.0, 0.0, 0.0, 0.0, 0.0, 0.0, 0.0, 0.0, 0.0, 1.675809684502483E9, 0.0, 2023-02-07 17:41:24.502
58.0, 9067.901559817978, 187500.0, 187500.0, 187500.0, -187500.02235174447, -187500.02235174447, -187500.02235174447, -187500.02235174447, 0.012, -0.018000000000000002, -0.99, 192.0, 0.0, 0.0, 0.0, 0.0, 0.0, 0.0, 0.0, 0.0, 0.0, 1.675809684509872E9, 0.0, 2023-02-07 17:41:24.509
59.0, 8926.325610438063, 187500.0, 187500.0, 187500.0, -187500.02235174447, -187500.02235174447, -187500.02235174447, -187500.02235174447, 0.012, -0.018000000000000002, -0.99, 192.0, 0.0, 0.0, 0.0, 0.0, 0.0, 0.0, 0.0, 0.0, 0.0, 1.675809684509885E9, 0.0, 2023-02-07 17:41:24.509
60.0, 8770.064564951012, 187500.0, 187500.0, 187500.0, -187500.02235174447, -187500.02235174447, -187500.02235174447, -187500.02235174447, 0.012, -0.018000000000000002, -0.99, 192.0, 0.0, 0.0, 0.0, 0.0, 0.0, 0.0, 0.0, 0.0, 0.0, 1.675809684517957E9, 0.0, 2023-02-07 17:41:24.517
61.0, 8886.785374496625, 187500.0, 187500.0, 187500.0, -187500.02235174447, -187500.02235174447, -187500.02235174447, -187500.02235174447, 0.012, -0.018000000000000002, -0.99, 192.0, 0.0, 0.0, 0.0, 0.0, 0.0, 0.0, 0.0, 0.0, 0.0, 1.67580968451797E9, 0.0, 2023-02-07 17:41:24.517
62.0, 8971.207913304319, 187500.0, 187500.0, 187500.0, -187500.02235174447, -187500.02235174447, -187500.02235174447, -187500.02235174447, 0.012, -0.018000000000000002, -0.99, 192.0, 0.0, 0.0, 0.0, 0.0, 0.0, 0.0, 0.0, 0.0, 0.0, 1.675809684525953E9, 0.0, 2023-02-07 17:41:24.525
63.0, 9040.230100182307, 187500.0, 187500.0, 187500.0, -187500.02235174447, -187500.02235174447, -187500.02235174447, -187500.02235174447, 0.012, -0.018000000000000002, -0.99, 192.0, 0.0, 0.0, 0.0, 0.0, 0.0, 0.0, 0.0, 0.0, 0.0, 1.675809684525972E9, 0.0, 2023-02-07 17:41:24.525
64.0, 9097.741138665813, 187500.0, 187500.0, 187500.0, -187500.02235174447, -187500.02235174447, -187500.02235174447, -187500.02235174447, 0.012, -0.018000000000000002, -0.99, 192.0, 0.0, 0.0, 0.0, 0.0, 0.0, 0.0, 0.0, 0.0, 0.0, 1.675809684532554E9, 0.0, 2023-02-07 17:41:24.532
65.0, 9339.6540689056, 187500.0, 187500.0, 187500.0, -187500.02235174447, -187500.02235174447, -187500.02235174447, -187500.02235174447, 0.012, -0.018000000000000002, -0.99, 192.0, 0.0, 0.0, 0.0, 0.0, 0.0, 0.0, 0.0, 0.0, 0.0, 1.675809684532569E9, 0.0, 2023-02-07 17:41:24.532
66.0, 9614.4687669836, 187500.0, 187500.0, 187500.0, -187500.02235174447, -187500.02235174447, -187500.02235174447, -187500.02235174447, 0.014, -0.024, -0.99, 192.0, 0.0, 112.0, 255.0, 64.0, 225.0, 16.0, 0.0, 0.0, 0.0, 1.675809684540508E9, 0.0, 2023-02-07 17:41:24.540
67.0, 8765.705974782226, 187500.0, 187500.0, 187500.0, -187500.02235174447, -187500.02235174447, -187500.02235174447, -187500.02235174447, 0.014, -0.024, -0.99, 192.0, 0.0, 0.0, 0.0, 0.0, 0.0, 0.0, 0.0, 0.0, 0.0, 1.675809684540523E9, 0.0, 2023-02-07 17:41:24.540
68.0, 9022.438111595882, 187500.0, 187500.0, 187500.0, -187500.02235174447, -187500.02235174447, -187500.02235174447, -187500.02235174447, 0.014, -0.024, -0.99, 192.0, 0.0, 0.0, 0.0, 0.0, 0.0, 0.0, 0.0, 0.0, 0.0, 1.67580968454856E9, 0.0, 2023-02-07 17:41:24.548
69.0, 9368.264301808395, 187500.0, 187500.0, 187500.0, -187500.02235174447, -187500.02235174447, -187500.02235174447, -187500.02235174447, 0.014, -0.024, -0.99, 192.0, 0.0, 0.0, 0.0, 0.0, 0.0, 0.0, 0.0, 0.0, 0.0, 1.675809684548573E9, 0.0, 2023-02-07 17:41:24.548
70.0, 8927.689066849836, 187500.0, 187500.0, 187500.0, -187500.02235174447, -187500.02235174447, -187500.02235174447, -187500.02235174447, 0.014, -0.024, -0.99, 192.0, 0.0, 0.0, 0.0, 0.0, 0.0, 0.0, 0.0, 0.0, 0.0, 1.675809684554838E9, 0.0, 2023-02-07 17:41:24.554
71.0, 8862.064345129054, 187500.0, 187500.0, 187500.0, -187500.02235174447, -187500.02235174447, -187500.02235174447, -187500.02235174447, 0.014, -0.024, -0.99, 192.0, 0.0, 0.0, 0.0, 0.0, 0.0, 0.0, 0.0, 0.0, 0.0, 1.675809684562841E9, 0.0, 2023-02-07 17:41:24.562
72.0, 9043.560510106148, 187500.0, 187500.0, 187500.0, -187500.02235174447, -187500.02235174447, -187500.02235174447, -187500.02235174447, 0.014, -0.024, -0.99, 192.0, 0.0, 0.0, 0.0, 0.0, 0.0, 0.0, 0.0, 0.0, 0.0, 1.675809684562861E9, 0.0, 2023-02-07 17:41:24.562
73.0, 9158.739049284346, 187500.0, 187500.0, 187500.0, -187500.02235174447, -187500.02235174447, -187500.02235174447, -187500.02235174447, 0.014, -0.024, -0.99, 192.0, 0.0, 0.0, 0.0, 0.0, 0.0, 0.0, 0.0, 0.0, 0.0, 1.675809684569972E9, 0.0, 2023-02-07 17:41:24.569
74.0, 9286.613379313158, 187500.0, 187500.0, 187500.0, -187500.02235174447, -187500.02235174447, -187500.02235174447, -187500.02235174447, 0.014, -0.024, -0.99, 192.0, 0.0, 0.0, 0.0, 0.0, 0.0, 0.0, 0.0, 0.0, 0.0, 1.675809684569991E9, 0.0, 2023-02-07 17:41:24.569
75.0, 9032.317582645128, 187500.0, 187500.0, 187500.0, -187500.02235174447, -187500.02235174447, -187500.02235174447, -187500.02235174447, 0.014, -0.024, -0.99, 192.0, 0.0, 0.0, 0.0, 0.0, 0.0, 0.0, 0.0, 0.0, 0.0, 1.675809684577463E9, 0.0, 2023-02-07 17:41:24.577
76.0, 9112.605048728592, 187500.0, 187500.0, 187500.0, -187500.02235174447, -187500.02235174447, -187500.02235174447, -187500.02235174447, 0.01, -0.026000000000000002, -0.99, 192.0, 0.0, 80.0, 255.0, 48.0, 225.0, 16.0, 0.0, 0.0, 0.0, 1.675809684577478E9, 0.0, 2023-02-07 17:41:24.577
77.0, 9453.335041205293, 187500.0, 187500.0, 187500.0, -187500.02235174447, -187500.02235174447, -187500.02235174447, -187500.02235174447, 0.01, -0.026000000000000002, -0.99, 192.0, 0.0, 0.0, 0.0, 0.0, 0.0, 0.0, 0.0, 0.0, 0.0, 1.675809684586109E9, 0.0, 2023-02-07 17:41:24.586
78.0, 9404.451776081536, 187500.0, 187500.0, 187500.0, -187500.02235174447, -187500.02235174447, -187500.02235174447, -187500.02235174447, 0.01, -0.026000000000000002, -0.99, 192.0, 0.0, 0.0, 0.0, 0.0, 0.0, 0.0, 0.0, 0.0, 0.0, 1.675809684586124E9, 0.0, 2023-02-07 17:41:24.586
79.0, 8771.696242296248, 187500.0, 187500.0, 187500.0, -187500.02235174447, -187500.02235174447, -187500.02235174447, -187500.02235174447, 0.01, -0.026000000000000002, -0.99, 192.0, 0.0, 0.0, 0.0, 0.0, 0.0, 0.0, 0.0, 0.0, 0.0, 1.67580968459351E9, 0.0, 2023-02-07 17:41:24.593
80.0, 9028.942469232377, 187500.0, 187500.0, 187500.0, -187500.02235174447, -187500.02235174447, -187500.02235174447, -187500.02235174447, 0.01, -0.026000000000000002, -0.99, 192.0, 0.0, 0.0, 0.0, 0.0, 0.0, 0.0, 0.0, 0.0, 0.0, 1.675809684593525E9, 0.0, 2023-02-07 17:41:24.593
81.0, 9124.540880267725, 187500.0, 187500.0, 187500.0, -187500.02235174447, -187500.02235174447, -187500.02235174447, -187500.02235174447, 0.01, -0.026000000000000002, -0.99, 192.0, 0.0, 0.0, 0.0, 0.0, 0.0, 0.0, 0.0, 0.0, 0.0, 1.675809684600096E9, 0.0, 2023-02-07 17:41:24.600
82.0, 8840.025525096122, 187500.0, 187500.0, 187500.0, -187500.02235174447, -187500.02235174447, -187500.02235174447, -187500.02235174447, 0.01, -0.026000000000000002, -0.99, 192.0, 0.0, 0.0, 0.0, 0.0, 0.0, 0.0, 0.0, 0.0, 0.0, 1.675809684600108E9, 0.0, 2023-02-07 17:41:24.600
83.0, 8939.24491873323, 187500.0, 187500.0, 187500.0, -187500.02235174447, -187500.02235174447, -187500.02235174447, -187500.02235174447, 0.01, -0.026000000000000002, -0.99, 192.0, 0.0, 0.0, 0.0, 0.0, 0.0, 0.0, 0.0, 0.0, 0.0, 1.675809684608227E9, 0.0, 2023-02-07 17:41:24.608
84.0, 9051.294213687685, 187500.0, 187500.0, 187500.0, -187500.02235174447, -187500.02235174447, -187500.02235174447, -187500.02235174447, 0.01, -0.026000000000000002, -0.99, 192.0, 0.0, 0.0, 0.0, 0.0, 0.0, 0.0, 0.0, 0.0, 0.0, 1.675809684608252E9, 0.0, 2023-02-07 17:41:24.608
85.0, 9116.985990641831, 187500.0, 187500.0, 187500.0, -187500.02235174447, -187500.02235174447, -187500.02235174447, -187500.02235174447, 0.01, -0.026000000000000002, -0.99, 192.0, 0.0, 0.0, 0.0, 0.0, 0.0, 0.0, 0.0, 0.0, 0.0, 1.675809684615174E9, 0.0, 2023-02-07 17:41:24.615
86.0, 9203.040206794763, 187500.0, 187500.0, 187500.0, -187500.02235174447, -187500.02235174447, -187500.02235174447, -187500.02235174447, 0.012, -0.022, -0.984, 192.0, 0.0, 96.0, 255.0, 80.0, 225.0, 64.0, 0.0, 0.0, 0.0, 1.675809684623179E9, 0.0, 2023-02-07 17:41:24.623
87.0, 9162.114162697097, 187500.0, 187500.0, 187500.0, -187500.02235174447, -187500.02235174447, -187500.02235174447, -187500.02235174447, 0.012, -0.022, -0.984, 192.0, 0.0, 0.0, 0.0, 0.0, 0.0, 0.0, 0.0, 0.0, 0.0, 1.675809684623191E9, 0.0, 2023-02-07 17:41:24.623
88.0, 9144.836264233145, 187500.0, 187500.0, 187500.0, -187500.02235174447, -187500.02235174447, -187500.02235174447, -187500.02235174447, 0.012, -0.022, -0.984, 192.0, 0.0, 0.0, 0.0, 0.0, 0.0, 0.0, 0.0, 0.0, 0.0, 1.675809684629756E9, 0.0, 2023-02-07 17:41:24.629
89.0, 9359.748287170922, 187500.0, 187500.0, 187500.0, -187500.02235174447, -187500.02235174447, -187500.02235174447, -187500.02235174447, 0.012, -0.022, -0.984, 192.0, 0.0, 0.0, 0.0, 0.0, 0.0, 0.0, 0.0, 0.0, 0.0, 1.675809684629769E9, 0.0, 2023-02-07 17:41:24.629
90.0, 9015.21849813682, 187500.0, 187500.0, 187500.0, -187500.02235174447, -187500.02235174447, -187500.02235174447, -187500.02235174447, 0.012, -0.022, -0.984, 192.0, 0.0, 0.0, 0.0, 0.0, 0.0, 0.0, 0.0, 0.0, 0.0, 1.67580968463777E9, 0.0, 2023-02-07 17:41:24.637
91.0, 8844.808798409558, 187500.0, 187500.0, 187500.0, -187500.02235174447, -187500.02235174447, -187500.02235174447, -187500.02235174447, 0.012, -0.022, -0.984, 192.0, 0.0, 0.0, 0.0, 0.0, 0.0, 0.0, 0.0, 0.0, 0.0, 1.675809684637782E9, 0.0, 2023-02-07 17:41:24.637
92.0, 9026.9308122314, 187500.0, 187500.0, 187500.0, -187500.02235174447, -187500.02235174447, -187500.02235174447, -187500.02235174447, 0.012, -0.022, -0.984, 192.0, 0.0, 0.0, 0.0, 0.0, 0.0, 0.0, 0.0, 0.0, 0.0, 1.675809684645773E9, 0.0, 2023-02-07 17:41:24.645
93.0, 9283.059451944764, 187500.0, 187500.0, 187500.0, -187500.02235174447, -187500.02235174447, -187500.02235174447, -187500.02235174447, 0.012, -0.022, -0.984, 192.0, 0.0, 0.0, 0.0, 0.0, 0.0, 0.0, 0.0, 0.0, 0.0, 1.675809684645788E9, 0.0, 2023-02-07 17:41:24.645
94.0, 9437.800578808854, 187500.0, 187500.0, 187500.0, -187500.02235174447, -187500.02235174447, -187500.02235174447, -187500.02235174447, 0.012, -0.022, -0.984, 192.0, 0.0, 0.0, 0.0, 0.0, 0.0, 0.0, 0.0, 0.0, 0.0, 1.675809684653059E9, 0.0, 2023-02-07 17:41:24.653
95.0, 9271.034213427809, 187500.0, 187500.0, 187500.0, -187500.02235174447, -187500.02235174447, -187500.02235174447, -187500.02235174447, 0.012, -0.022, -0.984, 192.0, 0.0, 0.0, 0.0, 0.0, 0.0, 0.0, 0.0, 0.0, 0.0, 1.675809684653078E9, 0.0, 2023-02-07 17:41:24.653
96.0, 8986.228285578285, 187500.0, 187500.0, 187500.0, -187500.02235174447, -187500.02235174447, -187500.02235174447, -187500.02235174447, 0.008, -0.018000000000000002, -0.992, 192.0, 0.0, 64.0, 255.0, 112.0, 225.0, 0.0, 0.0, 0.0, 0.0, 1.675809684660522E9, 0.0, 2023-02-07 17:41:24.660
97.0, 8917.47431963376, 187500.0, 187500.0, 187500.0, -187500.02235174447, -187500.02235174447, -187500.02235174447, -187500.02235174447, 0.008, -0.018000000000000002, -0.992, 192.0, 0.0, 0.0, 0.0, 0.0, 0.0, 0.0, 0.0, 0.0, 0.0, 1.675809684660537E9, 0.0, 2023-02-07 17:41:24.660
98.0, 9273.157629151063, 187500.0, 187500.0, 187500.0, -187500.02235174447, -187500.02235174447, -187500.02235174447, -187500.02235174447, 0.008, -0.018000000000000002, -0.992, 192.0, 0.0, 0.0, 0.0, 0.0, 0.0, 0.0, 0.0, 0.0, 0.0, 1.675809684668561E9, 0.0, 2023-02-07 17:41:24.668
99.0, 9561.629243091254, 187500.0, 187500.0, 187500.0, -187500.02235174447, -187500.02235174447, -187500.02235174447, -187500.02235174447, 0.008, -0.018000000000000002, -0.992, 192.0, 0.0, 0.0, 0.0, 0.0, 0.0, 0.0, 0.0, 0.0, 0.0, 1.675809684668575E9, 0.0, 2023-02-07 17:41:24.668
100.0, 9067.521580162238, 187500.0, 187500.0, 187500.0, -187500.02235174447, -187500.02235174447, -187500.02235174447, -187500.02235174447, 0.008, -0.018000000000000002, -0.992, 192.0, 0.0, 0.0, 0.0, 0.0, 0.0, 0.0, 0.0, 0.0, 0.0, 1.675809684675503E9, 0.0, 2023-02-07 17:41:24.675
101.0, 8834.996382593677, 187500.0, 187500.0, 187500.0, -187500.02235174447, -187500.02235174447, -187500.02235174447, -187500.02235174447, 0.008, -0.018000000000000002, -0.992, 192.0, 0.0, 0.0, 0.0, 0.0, 0.0, 0.0, 0.0, 0.0, 0.0, 1.67580968468256E9, 0.0, 2023-02-07 17:41:24.682
102.0, 8857.415182282351, 187500.0, 187500.0, 187500.0, -187500.02235174447, -187500.02235174447, -187500.02235174447, -187500.02235174447, 0.008, -0.018000000000000002, -0.992, 192.0, 0.0, 0.0, 0.0, 0.0, 0.0, 0.0, 0.0, 0.0, 0.0, 1.675809684682572E9, 0.0, 2023-02-07 17:41:24.682
103.0, 8996.755957216736, 187500.0, 187500.0, 187500.0, -187500.02235174447, -187500.02235174447, -187500.02235174447, -187500.02235174447, 0.008, -0.018000000000000002, -0.992, 192.0, 0.0, 0.0, 0.0, 0.0, 0.0, 0.0, 0.0, 0.0, 0.0, 1.67580968469004E9, 0.0, 2023-02-07 17:41:24.690
104.0, 9243.675678214513, 187500.0, 187500.0, 187500.0, -187500.02235174447, -187500.02235174447, -187500.02235174447, -187500.02235174447, 0.008, -0.018000000000000002, -0.992, 192.0, 0.0, 0.0, 0.0, 0.0, 0.0, 0.0, 0.0, 0.0, 0.0, 1.675809684690059E9, 0.0, 2023-02-07 17:41:24.690
105.0, 9295.867001517654, 187500.0, 187500.0, 187500.0, -187500.02235174447, -187500.02235174447, -187500.02235174447, -187500.02235174447, 0.01, -0.022, -0.99, 192.0, 0.0, 80.0, 255.0, 80.0, 225.0, 16.0, 0.0, 0.0, 0.0, 1.675809684698061E9, 0.0, 2023-02-07 17:41:24.698
106.0, 8921.38587491344, 187500.0, 187500.0, 187500.0, -187500.02235174447, -187500.02235174447, -187500.02235174447, -187500.02235174447, 0.01, -0.022, -0.99, 192.0, 0.0, 0.0, 0.0, 0.0, 0.0, 0.0, 0.0, 0.0, 0.0, 1.675809684698084E9, 0.0, 2023-02-07 17:41:24.698
107.0, 8973.845419150046, 187500.0, 187500.0, 187500.0, -187500.02235174447, -187500.02235174447, -187500.02235174447, -187500.02235174447, 0.01, -0.022, -0.99, 192.0, 0.0, 0.0, 0.0, 0.0, 0.0, 0.0, 0.0, 0.0, 0.0, 1.675809684706442E9, 0.0, 2023-02-07 17:41:24.706
108.0, 9296.157574195573, 187500.0, 187500.0, 187500.0, -187500.02235174447, -187500.02235174447, -187500.02235174447, -187500.02235174447, 0.01, -0.022, -0.99, 192.0, 0.0, 0.0, 0.0, 0.0, 0.0, 0.0, 0.0, 0.0, 0.0, 1.675809684706461E9, 0.0, 2023-02-07 17:41:24.706
109.0, 9635.278241071492, 187500.0, 187500.0, 187500.0, -187500.02235174447, -187500.02235174447, -187500.02235174447, -187500.02235174447, 0.01, -0.022, -0.99, 192.0, 0.0, 0.0, 0.0, 0.0, 0.0, 0.0, 0.0, 0.0, 0.0, 1.675809684712653E9, 0.0, 2023-02-07 17:41:24.712
110.0, 9379.797801947332, 187500.0, 187500.0, 187500.0, -187500.02235174447, -187500.02235174447, -187500.02235174447, -187500.02235174447, 0.01, -0.022, -0.99, 192.0, 0.0, 0.0, 0.0, 0.0, 0.0, 0.0, 0.0, 0.0, 0.0, 1.67580968471267E9, 0.0, 2023-02-07 17:41:24.712
111.0, 8741.163759370298, 187500.0, 187500.0, 187500.0, -187500.02235174447, -187500.02235174447, -187500.02235174447, -187500.02235174447, 0.01, -0.022, -0.99, 192.0, 0.0, 0.0, 0.0, 0.0, 0.0, 0.0, 0.0, 0.0, 0.0, 1.675809684720725E9, 0.0, 2023-02-07 17:41:24.720
112.0, 8831.397751736373, 187500.0, 187500.0, 187500.0, -187500.02235174447, -187500.02235174447, -187500.02235174447, -187500.02235174447, 0.01, -0.022, -0.99, 192.0, 0.0, 0.0, 0.0, 0.0, 0.0, 0.0, 0.0, 0.0, 0.0, 1.675809684720741E9, 0.0, 2023-02-07 17:41:24.720
113.0, 9007.171870132908, 187500.0, 187500.0, 187500.0, -187500.02235174447, -187500.02235174447, -187500.02235174447, -187500.02235174447, 0.01, -0.022, -0.99, 192.0, 0.0, 0.0, 0.0, 0.0, 0.0, 0.0, 0.0, 0.0, 0.0, 1.675809684728738E9, 0.0, 2023-02-07 17:41:24.728
114.0, 9190.277360710783, 187500.0, 187500.0, 187500.0, -187500.02235174447, -187500.02235174447, -187500.02235174447, -187500.02235174447, 0.01, -0.022, -0.99, 192.0, 0.0, 0.0, 0.0, 0.0, 0.0, 0.0, 0.0, 0.0, 0.0, 1.675809684728754E9, 0.0, 2023-02-07 17:41:24.728
115.0, 9157.844979506133, 187500.0, 187500.0, 187500.0, -187500.02235174447, -187500.02235174447, -187500.02235174447, -187500.02235174447, 0.012, -0.02, -0.988, 192.0, 0.0, 96.0, 255.0, 96.0, 225.0, 32.0, 0.0, 0.0, 0.0, 1.675809684736029E9, 0.0, 2023-02-07 17:41:24.736
116.0, 9137.929575196455, 187500.0, 187500.0, 187500.0, -187500.02235174447, -187500.02235174447, -187500.02235174447, -187500.02235174447, 0.012, -0.02, -0.988, 192.0, 0.0, 0.0, 0.0, 0.0, 0.0, 0.0, 0.0, 0.0, 0.0, 1.675809684736086E9, 0.0, 2023-02-07 17:41:24.736
117.0, 9273.805829740266, 187500.0, 187500.0, 187500.0, -187500.02235174447, -187500.02235174447, -187500.02235174447, -187500.02235174447, 0.012, -0.02, -0.988, 192.0, 0.0, 0.0, 0.0, 0.0, 0.0, 0.0, 0.0, 0.0, 0.0, 1.675809684742336E9, 0.0, 2023-02-07 17:41:24.742
118.0, 9046.823864796623, 187500.0, 187500.0, 187500.0, -187500.02235174447, -187500.02235174447, -187500.02235174447, -187500.02235174447, 0.012, -0.02, -0.988, 192.0, 0.0, 0.0, 0.0, 0.0, 0.0, 0.0, 0.0, 0.0, 0.0, 1.67580968475037E9, 0.0, 2023-02-07 17:41:24.750
119.0, 9190.277360710783, 187500.0, 187500.0, 187500.0, -187500.02235174447, -187500.02235174447, -187500.02235174447, -187500.02235174447, 0.012, -0.02, -0.988, 192.0, 0.0, 0.0, 0.0, 0.0, 0.0, 0.0, 0.0, 0.0, 0.0, 1.675809684750381E9, 0.0, 2023-02-07 17:41:24.750
120.0, 9039.805417037656, 187500.0, 187500.0, 187500.0, -187500.02235174447, -187500.02235174447, -187500.02235174447, -187500.02235174447, 0.012, -0.02, -0.988, 192.0, 0.0, 0.0, 0.0, 0.0, 0.0, 0.0, 0.0, 0.0, 0.0, 1.675809684758388E9, 0.0, 2023-02-07 17:41:24.758
121.0, 9472.691651903588, 187500.0, 187500.0, 187500.0, -187500.02235174447, -187500.02235174447, -187500.02235174447, -187500.02235174447, 0.012, -0.02, -0.988, 192.0, 0.0, 0.0, 0.0, 0.0, 0.0, 0.0, 0.0, 0.0, 0.0, 1.675809684758401E9, 0.0, 2023-02-07 17:41:24.758
122.0, 9317.682304106034, 187500.0, 187500.0, 187500.0, -187500.02235174447, -187500.02235174447, -187500.02235174447, -187500.02235174447, 0.012, -0.02, -0.988, 192.0, 0.0, 0.0, 0.0, 0.0, 0.0, 0.0, 0.0, 0.0, 0.0, 1.675809684765511E9, 0.0, 2023-02-07 17:41:24.765
123.0, 8605.041635637479, 187500.0, 187500.0, 187500.0, -187500.02235174447, -187500.02235174447, -187500.02235174447, -187500.02235174447, 0.012, -0.02, -0.988, 192.0, 0.0, 0.0, 0.0, 0.0, 0.0, 0.0, 0.0, 0.0, 0.0, 1.675809684765522E9, 0.0, 2023-02-07 17:41:24.765
124.0, 8878.42582207034, 187500.0, 187500.0, 187500.0, -187500.02235174447, -187500.02235174447, -187500.02235174447, -187500.02235174447, 0.012, -0.02, -0.988, 192.0, 0.0, 0.0, 0.0, 0.0, 0.0, 0.0, 0.0, 0.0, 0.0, 1.675809684773042E9, 0.0, 2023-02-07 17:41:24.773
125.0, 9115.980162141343, 187500.0, 187500.0, 187500.0, -187500.02235174447, -187500.02235174447, -187500.02235174447, -187500.02235174447, 0.01, -0.022, -0.988, 192.0, 0.0, 80.0, 255.0, 80.0, 225.0, 32.0, 0.0, 0.0, 0.0, 1.675809684773054E9, 0.0, 2023-02-07 17:41:24.773
126.0, 9047.896748530478, 187500.0, 187500.0, 187500.0, -187500.02235174447, -187500.02235174447, -187500.02235174447, -187500.02235174447, 0.01, -0.022, -0.988, 192.0, 0.0, 0.0, 0.0, 0.0, 0.0, 0.0, 0.0, 0.0, 0.0, 1.675809684781048E9, 0.0, 2023-02-07 17:41:24.781
127.0, 8940.362505955996, 187500.0, 187500.0, 187500.0, -187500.02235174447, -187500.02235174447, -187500.02235174447, -187500.02235174447, 0.01, -0.022, -0.988, 192.0, 0.0, 0.0, 0.0, 0.0, 0.0, 0.0, 0.0, 0.0, 0.0, 1.675809684781071E9, 0.0, 2023-02-07 17:41:24.781
128.0, 9264.239283113395, 187500.0, 187500.0, 187500.0, -187500.02235174447, -187500.02235174447, -187500.02235174447, -187500.02235174447, 0.01, -0.022, -0.988, 192.0, 0.0, 0.0, 0.0, 0.0, 0.0, 0.0, 0.0, 0.0, 0.0, 1.675809684789052E9, 0.0, 2023-02-07 17:41:24.789
129.0, 9691.06819523194, 187500.0, 187500.0, 187500.0, -187500.02235174447, -187500.02235174447, -187500.02235174447, -187500.02235174447, 0.01, -0.022, -0.988, 192.0, 0.0, 0.0, 0.0, 0.0, 0.0, 0.0, 0.0, 0.0, 0.0, 1.675809684789069E9, 0.0, 2023-02-07 17:41:24.789
130.0, 9032.854024512057, 187500.0, 187500.0, 187500.0, -187500.02235174447, -187500.02235174447, -187500.02235174447, -187500.02235174447, 0.01, -0.022, -0.988, 192.0, 0.0, 0.0, 0.0, 0.0, 0.0, 0.0, 0.0, 0.0, 0.0, 1.675809684795585E9, 0.0, 2023-02-07 17:41:24.795
131.0, 9013.296248113662, 187500.0, 187500.0, 187500.0, -187500.02235174447, -187500.02235174447, -187500.02235174447, -187500.02235174447, 0.01, -0.022, -0.988, 192.0, 0.0, 0.0, 0.0, 0.0, 0.0, 0.0, 0.0, 0.0, 0.0, 1.675809684795599E9, 0.0, 2023-02-07 17:41:24.795
132.0, 9076.305815733172, 187500.0, 187500.0, 187500.0, -187500.02235174447, -187500.02235174447, -187500.02235174447, -187500.02235174447, 0.01, -0.022, -0.988, 192.0, 0.0, 0.0, 0.0, 0.0, 0.0, 0.0, 0.0, 0.0, 0.0, 1.675809684802654E9, 0.0, 2023-02-07 17:41:24.802
133.0, 8916.624953344459, 187500.0, 187500.0, 187500.0, -187500.02235174447, -187500.02235174447, -187500.02235174447, -187500.02235174447, 0.01, -0.022, -0.988, 192.0, 0.0, 0.0, 0.0, 0.0, 0.0, 0.0, 0.0, 0.0, 0.0, 1.675809684810687E9, 0.0, 2023-02-07 17:41:24.810
134.0, 9201.162660260517, 187500.0, 187500.0, 187500.0, -187500.02235174447, -187500.02235174447, -187500.02235174447, -187500.02235174447, 0.01, -0.022, -0.988, 192.0, 0.0, 0.0, 0.0, 0.0, 0.0, 0.0, 0.0, 0.0, 0.0, 1.675809684810704E9, 0.0, 2023-02-07 17:41:24.810
135.0, 8878.42582207034, 187500.0, 187500.0, 187500.0, -187500.02235174447, -187500.02235174447, -187500.02235174447, -187500.02235174447, 0.012, -0.022, -0.992, 192.0, 0.0, 96.0, 255.0, 80.0, 225.0, 0.0, 0.0, 0.0, 0.0, 1.675809684817911E9, 0.0, 2023-02-07 17:41:24.817
136.0, 8969.933863870367, 187500.0, 187500.0, 187500.0, -187500.02235174447, -187500.02235174447, -187500.02235174447, -187500.02235174447, 0.012, -0.022, -0.992, 192.0, 0.0, 0.0, 0.0, 0.0, 0.0, 0.0, 0.0, 0.0, 0.0, 1.675809684817925E9, 0.0, 2023-02-07 17:41:24.817
137.0, 9069.823809841135, 187500.0, 187500.0, 187500.0, -187500.02235174447, -187500.02235174447, -187500.02235174447, -187500.02235174447, 0.012, -0.022, -0.992, 192.0, 0.0, 0.0, 0.0, 0.0, 0.0, 0.0, 0.0, 0.0, 0.0, 1.675809684825282E9, 0.0, 2023-02-07 17:41:24.825
138.0, 9518.110396636772, 187500.0, 187500.0, 187500.0, -187500.02235174447, -187500.02235174447, -187500.02235174447, -187500.02235174447, 0.012, -0.022, -0.992, 192.0, 0.0, 0.0, 0.0, 0.0, 0.0, 0.0, 0.0, 0.0, 0.0, 1.675809684825309E9, 0.0, 2023-02-07 17:41:24.825
139.0, 9417.616953565712, 187500.0, 187500.0, 187500.0, -187500.02235174447, -187500.02235174447, -187500.02235174447, -187500.02235174447, 0.012, -0.022, -0.992, 192.0, 0.0, 0.0, 0.0, 0.0, 0.0, 0.0, 0.0, 0.0, 0.0, 1.675809684833357E9, 0.0, 2023-02-07 17:41:24.833
140.0, 8771.942111485258, 187500.0, 187500.0, 187500.0, -187500.02235174447, -187500.02235174447, -187500.02235174447, -187500.02235174447, 0.012, -0.022, -0.992, 192.0, 0.0, 0.0, 0.0, 0.0, 0.0, 0.0, 0.0, 0.0, 0.0, 1.675809684833372E9, 0.0, 2023-02-07 17:41:24.833
141.0, 8790.337597171974, 187500.0, 187500.0, 187500.0, -187500.02235174447, -187500.02235174447, -187500.02235174447, -187500.02235174447, 0.012, -0.022, -0.992, 192.0, 0.0, 0.0, 0.0, 0.0, 0.0, 0.0, 0.0, 0.0, 0.0, 1.675809684841584E9, 0.0, 2023-02-07 17:41:24.841
142.0, 8848.295670544585, 187500.0, 187500.0, 187500.0, -187500.02235174447, -187500.02235174447, -187500.02235174447, -187500.02235174447, 0.012, -0.022, -0.992, 192.0, 0.0, 0.0, 0.0, 0.0, 0.0, 0.0, 0.0, 0.0, 0.0, 1.6758096848416E9, 0.0, 2023-02-07 17:41:24.841
143.0, 9143.04812467672, 187500.0, 187500.0, 187500.0, -187500.02235174447, -187500.02235174447, -187500.02235174447, -187500.02235174447, 0.012, -0.022, -0.992, 192.0, 0.0, 0.0, 0.0, 0.0, 0.0, 0.0, 0.0, 0.0, 0.0, 1.675809684847927E9, 0.0, 2023-02-07 17:41:24.847
144.0, 9365.80560991831, 187500.0, 187500.0, 187500.0, -187500.02235174447, -187500.02235174447, -187500.02235174447, -187500.02235174447, 0.012, -0.022, -0.992, 192.0, 0.0, 0.0, 0.0, 0.0, 0.0, 0.0, 0.0, 0.0, 0.0, 1.675809684847943E9, 0.0, 2023-02-07 17:41:24.847
145.0, 9025.880280242, 187500.0, 187500.0, 187500.0, -187500.02235174447, -187500.02235174447, -187500.02235174447, -187500.02235174447, 0.012, -0.024, -0.992, 192.0, 0.0, 96.0, 255.0, 64.0, 225.0, 0.0, 0.0, 0.0, 0.0, 1.675809684855856E9, 0.0, 2023-02-07 17:41:24.855
146.0, 8909.427691629851, 187500.0, 187500.0, 187500.0, -187500.02235174447, -187500.02235174447, -187500.02235174447, -187500.02235174447, 0.012, -0.024, -0.992, 192.0, 0.0, 0.0, 0.0, 0.0, 0.0, 0.0, 0.0, 0.0, 0.0, 1.67580968485587E9, 0.0, 2023-02-07 17:41:24.855
147.0, 9415.53824133137, 187500.0, 187500.0, 187500.0, -187500.02235174447, -187500.02235174447, -187500.02235174447, -187500.02235174447, 0.012, -0.024, -0.992, 192.0, 0.0, 0.0, 0.0, 0.0, 0.0, 0.0, 0.0, 0.0, 0.0, 1.675809684863491E9, 0.0, 2023-02-07 17:41:24.863
148.0, 9424.814215280321, 187500.0, 187500.0, 187500.0, -187500.02235174447, -187500.02235174447, -187500.02235174447, -187500.02235174447, 0.012, -0.024, -0.992, 192.0, 0.0, 0.0, 0.0, 0.0, 0.0, 0.0, 0.0, 0.0, 0.0, 1.67580968487101E9, 0.0, 2023-02-07 17:41:24.871
149.0, 8577.526638212996, 187500.0, 187500.0, 187500.0, -187500.02235174447, -187500.02235174447, -187500.02235174447, -187500.02235174447, 0.012, -0.024, -0.992, 192.0, 0.0, 0.0, 0.0, 0.0, 0.0, 0.0, 0.0, 0.0, 0.0, 1.675809684871031E9, 0.0, 2023-02-07 17:41:24.871
150.0, 9053.529388133215, 187500.0, 187500.0, 187500.0, -187500.02235174447, -187500.02235174447, -187500.02235174447, -187500.02235174447, 0.012, -0.024, -0.992, 192.0, 0.0, 0.0, 0.0, 0.0, 0.0, 0.0, 0.0, 0.0, 0.0, 1.675809684877552E9, 0.0, 2023-02-07 17:41:24.877
151.0, 9186.634026364569, 187500.0, 187500.0, 187500.0, -187500.02235174447, -187500.02235174447, -187500.02235174447, -187500.02235174447, 0.012, -0.024, -0.992, 192.0, 0.0, 0.0, 0.0, 0.0, 0.0, 0.0, 0.0, 0.0, 0.0, 1.675809684877568E9, 0.0, 2023-02-07 17:41:24.877
152.0, 8653.544921105495, 187500.0, 187500.0, 187500.0, -187500.02235174447, -187500.02235174447, -187500.02235174447, -187500.02235174447, 0.012, -0.024, -0.992, 192.0, 0.0, 0.0, 0.0, 0.0, 0.0, 0.0, 0.0, 0.0, 0.0, 1.675809684885583E9, 0.0, 2023-02-07 17:41:24.885
153.0, 8840.405504751861, 187500.0, 187500.0, 187500.0, -187500.02235174447, -187500.02235174447, -187500.02235174447, -187500.02235174447, 0.012, -0.024, -0.992, 192.0, 0.0, 0.0, 0.0, 0.0, 0.0, 0.0, 0.0, 0.0, 0.0, 1.675809684885597E9, 0.0, 2023-02-07 17:41:24.885
154.0, 8932.360581440995, 187500.0, 187500.0, 187500.0, -187500.02235174447, -187500.02235174447, -187500.02235174447, -187500.02235174447, 0.012, -0.024, -0.992, 192.0, 0.0, 0.0, 0.0, 0.0, 0.0, 0.0, 0.0, 0.0, 0.0, 1.675809684893541E9, 0.0, 2023-02-07 17:41:24.893
155.0, 9066.113420261552, 187500.0, 187500.0, 187500.0, -187500.02235174447, -187500.02235174447, -187500.02235174447, -187500.02235174447, 0.01, -0.024, -0.992, 192.0, 0.0, 80.0, 255.0, 64.0, 225.0, 0.0, 0.0, 0.0, 0.0, 1.675809684893561E9, 0.0, 2023-02-07 17:41:24.893
156.0, 9290.949617737488, 187500.0, 187500.0, 187500.0, -187500.02235174447, -187500.02235174447, -187500.02235174447, -187500.02235174447, 0.01, -0.024, -0.992, 192.0, 0.0, 0.0, 0.0, 0.0, 0.0, 0.0, 0.0, 0.0, 0.0, 1.675809684900675E9, 0.0, 2023-02-07 17:41:24.900
157.0, 9274.901065218577, 187500.0, 187500.0, 187500.0, -187500.02235174447, -187500.02235174447, -187500.02235174447, -187500.02235174447, 0.01, -0.024, -0.992, 192.0, 0.0, 0.0, 0.0, 0.0, 0.0, 0.0, 0.0, 0.0, 0.0, 1.675809684900689E9, 0.0, 2023-02-07 17:41:24.900
158.0, 9083.972464081344, 187500.0, 187500.0, 187500.0, -187500.02235174447, -187500.02235174447, -187500.02235174447, -187500.02235174447, 0.01, -0.024, -0.992, 192.0, 0.0, 0.0, 0.0, 0.0, 0.0, 0.0, 0.0, 0.0, 0.0, 1.675809684908211E9, 0.0, 2023-02-07 17:41:24.908
159.0, 8928.940764539333, 187500.0, 187500.0, 187500.0, -187500.02235174447, -187500.02235174447, -187500.02235174447, -187500.02235174447, 0.01, -0.024, -0.992, 192.0, 0.0, 0.0, 0.0, 0.0, 0.0, 0.0, 0.0, 0.0, 0.0, 1.675809684908234E9, 0.0, 2023-02-07 17:41:24.908
160.0, 8759.089858423455, 187500.0, 187500.0, 187500.0, -187500.02235174447, -187500.02235174447, -187500.02235174447, -187500.02235174447, 0.01, -0.024, -0.992, 192.0, 0.0, 0.0, 0.0, 0.0, 0.0, 0.0, 0.0, 0.0, 0.0, 1.675809684917018E9, 0.0, 2023-02-07 17:41:24.917
161.0, 9025.612059308536, 187500.0, 187500.0, 187500.0, -187500.02235174447, -187500.02235174447, -187500.02235174447, -187500.02235174447, 0.01, -0.024, -0.992, 192.0, 0.0, 0.0, 0.0, 0.0, 0.0, 0.0, 0.0, 0.0, 0.0, 1.675809684917035E9, 0.0, 2023-02-07 17:41:24.917
162.0, 9249.889463173087, 187500.0, 187500.0, 187500.0, -187500.02235174447, -187500.02235174447, -187500.02235174447, -187500.02235174447, 0.01, -0.024, -0.992, 192.0, 0.0, 0.0, 0.0, 0.0, 0.0, 0.0, 0.0, 0.0, 0.0, 1.675809684923273E9, 0.0, 2023-02-07 17:41:24.923
163.0, 9410.598505806745, 187500.0, 187500.0, 187500.0, -187500.02235174447, -187500.02235174447, -187500.02235174447, -187500.02235174447, 0.01, -0.024, -0.992, 192.0, 0.0, 0.0, 0.0, 0.0, 0.0, 0.0, 0.0, 0.0, 0.0, 1.675809684930274E9, 0.0, 2023-02-07 17:41:24.930
164.0, 9273.381146595615, 187500.0, 187500.0, 187500.0, -187500.02235174447, -187500.02235174447, -187500.02235174447, -187500.02235174447, 0.012, -0.02, -0.992, 192.0, 0.0, 96.0, 255.0, 96.0, 225.0, 0.0, 0.0, 0.0, 0.0, 1.675809684930298E9, 0.0, 2023-02-07 17:41:24.930
165.0, 8916.423787644362, 187500.0, 187500.0, 187500.0, -187500.02235174447, -187500.02235174447, -187500.02235174447, -187500.02235174447, 0.012, -0.02, -0.992, 192.0, 0.0, 0.0, 0.0, 0.0, 0.0, 0.0, 0.0, 0.0, 0.0, 1.675809684937766E9, 0.0, 2023-02-07 17:41:24.937
166.0, 9336.61423165968, 187500.0, 187500.0, 187500.0, -187500.02235174447, -187500.02235174447, -187500.02235174447, -187500.02235174447, 0.012, -0.02, -0.992, 192.0, 0.0, 0.0, 0.0, 0.0, 0.0, 0.0, 0.0, 0.0, 0.0, 1.675809684937779E9, 0.0, 2023-02-07 17:41:24.937
167.0, 8838.639716939893, 187500.0, 187500.0, 187500.0, -187500.02235174447, -187500.02235174447, -187500.02235174447, -187500.02235174447, 0.012, -0.02, -0.992, 192.0, 0.0, 0.0, 0.0, 0.0, 0.0, 0.0, 0.0, 0.0, 0.0, 1.675809684946044E9, 0.0, 2023-02-07 17:41:24.946
168.0, 8562.014527561012, 187500.0, 187500.0, 187500.0, -187500.02235174447, -187500.02235174447, -187500.02235174447, -187500.02235174447, 0.012, -0.02, -0.992, 192.0, 0.0, 0.0, 0.0, 0.0, 0.0, 0.0, 0.0, 0.0, 0.0, 1.675809684946057E9, 0.0, 2023-02-07 17:41:24.946
169.0, 8903.28096190464, 187500.0, 187500.0, 187500.0, -187500.02235174447, -187500.02235174447, -187500.02235174447, -187500.02235174447, 0.012, -0.02, -0.992, 192.0, 0.0, 0.0, 0.0, 0.0, 0.0, 0.0, 0.0, 0.0, 0.0, 1.67580968495382E9, 0.0, 2023-02-07 17:41:24.953
170.0, 9013.966800447322, 187500.0, 187500.0, 187500.0, -187500.02235174447, -187500.02235174447, -187500.02235174447, -187500.02235174447, 0.012, -0.02, -0.992, 192.0, 0.0, 0.0, 0.0, 0.0, 0.0, 0.0, 0.0, 0.0, 0.0, 1.675809684953833E9, 0.0, 2023-02-07 17:41:24.953
171.0, 9033.189300678885, 187500.0, 187500.0, 187500.0, -187500.02235174447, -187500.02235174447, -187500.02235174447, -187500.02235174447, 0.012, -0.02, -0.992, 192.0, 0.0, 0.0, 0.0, 0.0, 0.0, 0.0, 0.0, 0.0, 0.0, 1.67580968496042E9, 0.0, 2023-02-07 17:41:24.960
172.0, 9223.939087860475, 187500.0, 187500.0, 187500.0, -187500.02235174447, -187500.02235174447, -187500.02235174447, -187500.02235174447, 0.012, -0.02, -0.992, 192.0, 0.0, 0.0, 0.0, 0.0, 0.0, 0.0, 0.0, 0.0, 0.0, 1.675809684960444E9, 0.0, 2023-02-07 17:41:24.960
173.0, 9069.689699374401, 187500.0, 187500.0, 187500.0, -187500.02235174447, -187500.02235174447, -187500.02235174447, -187500.02235174447, 0.012, -0.02, -0.992, 192.0, 0.0, 0.0, 0.0, 0.0, 0.0, 0.0, 0.0, 0.0, 0.0, 1.675809684968533E9, 0.0, 2023-02-07 17:41:24.968
174.0, 8873.351976078984, 187500.0, 187500.0, 187500.0, -187500.02235174447, -187500.02235174447, -187500.02235174447, -187500.02235174447, 0.016, -0.024, -0.994, 192.0, 0.0, 128.0, 255.0, 64.0, 224.0, 240.0, 0.0, 0.0, 0.0, 1.675809684968551E9, 0.0, 2023-02-07 17:41:24.968
175.0, 9073.198923253885, 187500.0, 187500.0, 187500.0, -187500.02235174447, -187500.02235174447, -187500.02235174447, -187500.02235174447, 0.016, -0.024, -0.994, 192.0, 0.0, 0.0, 0.0, 0.0, 0.0, 0.0, 0.0, 0.0, 0.0, 1.675809684976441E9, 0.0, 2023-02-07 17:41:24.976
176.0, 9199.419224193005, 187500.0, 187500.0, 187500.0, -187500.02235174447, -187500.02235174447, -187500.02235174447, -187500.02235174447, 0.016, -0.024, -0.994, 192.0, 0.0, 0.0, 0.0, 0.0, 0.0, 0.0, 0.0, 0.0, 0.0, 1.675809684976462E9, 0.0, 2023-02-07 17:41:24.976
177.0, 9567.932435027651, 187500.0, 187500.0, 187500.0, -187500.02235174447, -187500.02235174447, -187500.02235174447, -187500.02235174447, 0.016, -0.024, -0.994, 192.0, 0.0, 0.0, 0.0, 0.0, 0.0, 0.0, 0.0, 0.0, 0.0, 1.675809684983526E9, 0.0, 2023-02-07 17:41:24.983
178.0, 9731.88248060733, 187500.0, 187500.0, 187500.0, -187500.02235174447, -187500.02235174447, -187500.02235174447, -187500.02235174447, 0.016, -0.024, -0.994, 192.0, 0.0, 0.0, 0.0, 0.0, 0.0, 0.0, 0.0, 0.0, 0.0, 1.675809684983539E9, 0.0, 2023-02-07 17:41:24.983
179.0, 8437.67177315614, 187500.0, 187500.0, 187500.0, -187500.02235174447, -187500.02235174447, -187500.02235174447, -187500.02235174447, 0.016, -0.024, -0.994, 192.0, 0.0, 0.0, 0.0, 0.0, 0.0, 0.0, 0.0, 0.0, 0.0, 1.67580968499009E9, 0.0, 2023-02-07 17:41:24.990
180.0, 8640.357391876863, 187500.0, 187500.0, 187500.0, -187500.02235174447, -187500.02235174447, -187500.02235174447, -187500.02235174447, 0.016, -0.024, -0.994, 192.0, 0.0, 0.0, 0.0, 0.0, 0.0, 0.0, 0.0, 0.0, 0.0, 1.675809684998187E9, 0.0, 2023-02-07 17:41:24.998
181.0, 9066.336937706106, 187500.0, 187500.0, 187500.0, -187500.02235174447, -187500.02235174447, -187500.02235174447, -187500.02235174447, 0.016, -0.024, -0.994, 192.0, 0.0, 0.0, 0.0, 0.0, 0.0, 0.0, 0.0, 0.0, 0.0, 1.675809684998209E9, 0.0, 2023-02-07 17:41:24.998
182.0, 8958.422715475883, 187500.0, 187500.0, 187500.0, -187500.02235174447, -187500.02235174447, -187500.02235174447, -187500.02235174447, 0.016, -0.024, -0.994, 192.0, 0.0, 0.0, 0.0, 0.0, 0.0, 0.0, 0.0, 0.0, 0.0, 1.675809685006128E9, 0.0, 2023-02-07 17:41:25.006
183.0, 9183.05774725172, 187500.0, 187500.0, 187500.0, -187500.02235174447, -187500.02235174447, -187500.02235174447, -187500.02235174447, 0.016, -0.024, -0.994, 192.0, 0.0, 0.0, 0.0, 0.0, 0.0, 0.0, 0.0, 0.0, 0.0, 1.67580968500615E9, 0.0, 2023-02-07 17:41:25.006
184.0, 8837.544481461582, 187500.0, 187500.0, 187500.0, -187500.02235174447, -187500.02235174447, -187500.02235174447, -187500.02235174447, 0.012, -0.022, -0.994, 192.0, 0.0, 96.0, 255.0, 80.0, 224.0, 240.0, 0.0, 0.0, 0.0, 1.675809685012747E9, 0.0, 2023-02-07 17:41:25.012
185.0, 9134.442703061426, 187500.0, 187500.0, 187500.0, -187500.02235174447, -187500.02235174447, -187500.02235174447, -187500.02235174447, 0.012, -0.022, -0.994, 192.0, 0.0, 0.0, 0.0, 0.0, 0.0, 0.0, 0.0, 0.0, 0.0, 1.675809685012761E9, 0.0, 2023-02-07 17:41:25.012
186.0, 9355.434400491047, 187500.0, 187500.0, 187500.0, -187500.02235174447, -187500.02235174447, -187500.02235174447, -187500.02235174447, 0.012, -0.022, -0.994, 192.0, 0.0, 0.0, 0.0, 0.0, 0.0, 0.0, 0.0, 0.0, 0.0, 1.675809685020715E9, 0.0, 2023-02-07 17:41:25.020
187.0, 8836.382190749908, 187500.0, 187500.0, 187500.0, -187500.02235174447, -187500.02235174447, -187500.02235174447, -187500.02235174447, 0.012, -0.022, -0.994, 192.0, 0.0, 0.0, 0.0, 0.0, 0.0, 0.0, 0.0, 0.0, 0.0, 1.675809685020738E9, 0.0, 2023-02-07 17:41:25.020
