%OpenBCI Raw EEG Data
%Number of channels = 8
%Sample Rate = 250 Hz
%Board = OpenBCI_GUI$BoardCytonSerial
Sample Index, EXG Channel 0, EXG Channel 1, EXG Channel 2, EXG Channel 3, EXG Channel 4, EXG Channel 5, EXG Channel 6, EXG Channel 7, Accel Channel 0, Accel Channel 1, Accel Channel 2, Other, Other, Other, Other, Other, Other, Other, Analog Channel 0, Analog Channel 1, Analog Channel 2, Timestamp, Other, Timestamp (Formatted)
245.0, 10195.770585032771, 187500.0, 187500.0, 187500.0, -187500.02235174447, -187500.02235174447, -187500.02235174447, -187500.02235174447, 0.0, 0.0, 0.0, 192.0, 0.0, 0.0, 0.0, 0.0, 0.0, 0.0, 0.0, 0.0, 0.0, 1.675809639505963E9, 0.0, 2023-02-07 17:40:39.505
246.0, 10206.320608415677, 187500.0, 187500.0, 187500.0, -187500.02235174447, -187500.02235174447, -187500.02235174447, -187500.02235174447, 0.016, -0.024, -0.992, 192.0, 0.0, 128.0, 255.0, 64.0, 225.0, 0.0, 0.0, 0.0, 0.0, 1.675809639505981E9, 0.0, 2023-02-07 17:40:39.505
247.0, 10243.893890845047, 187500.0, 187500.0, 187500.0, -187500.02235174447, -187500.02235174447, -187500.02235174447, -187500.02235174447, 0.016, -0.024, -0.992, 192.0, 0.0, 0.0, 0.0, 0.0, 0.0, 0.0, 0.0, 0.0, 0.0, 1.675809639505992E9, 0.0, 2023-02-07 17:40:39.505
248.0, 10259.517760219307, 187500.0, 187500.0, 187500.0, -187500.02235174447, -187500.02235174447, -187500.02235174447, -187500.02235174447, 0.016, -0.024, -0.992, 192.0, 0.0, 0.0, 0.0, 0.0, 0.0, 0.0, 0.0, 0.0, 0.0, 1.675809639506002E9, 0.0, 2023-02-07 17:40:39.506
249.0, 10245.324402490187, 187500.0, 187500.0, 187500.0, -187500.02235174447, -187500.02235174447, -187500.02235174447, -187500.02235174447, 0.016, -0.024, -0.992, 192.0, 0.0, 0.0, 0.0, 0.0, 0.0, 0.0, 0.0, 0.0, 0.0, 1.675809639506012E9, 0.0, 2023-02-07 17:40:39.506
0.0, 0.0, 0.0, 0.0, 0.0, 0.0, 0.0, 0.0, 0.0, 0.016, -0.022, -0.996, 192.0, 0.0, 128.0, 255.0, 80.0, 224.0, 224.0, 0.0, 0.0, 0.0, 1.675809639594553E9, 0.0, 2023-02-07 17:40:39.594
1.0, 11984.692452513273, 187500.0, 187500.0, 187500.0, -187500.02235174447, -187500.02235174447, -187500.02235174447, -187500.02235174447, 0.016, -0.022, -0.996, 192.0, 0.0, 0.0, 0.0, 0.0, 0.0, 0.0, 0.0, 0.0, 0.0, 1.675809639600804E9, 0.0, 2023-02-07 17:40:39.600
2.0, 11691.92930363766, 187500.0, 187500.0, 187500.0, -187500.02235174447, -187500.02235174447, -187500.02235174447, -187500.02235174447, 0.016, -0.022, -0.996, 192.0, 0.0, 0.0, 0.0, 0.0, 0.0, 0.0, 0.0, 0.0, 0.0, 1.675809639600821E9, 0.0, 2023-02-07 17:40:39.600
3.0, 11478.157219667104, 187500.0, 187500.0, 187500.0, -187500.02235174447, -187500.02235174447, -187500.02235174447, -187500.02235174447, 0.016, -0.022, -0.996, 192.0, 0.0, 0.0, 0.0, 0.0, 0.0, 0.0, 0.0, 0.0, 0.0, 1.675809639607552E9, 0.0, 2023-02-07 17:40:39.607
4.0, 11541.256194264435, 187500.0, 187500.0, 187500.0, -187500.02235174447, -187500.02235174447, -187500.02235174447, -187500.02235174447, 0.016, -0.022, -0.996, 192.0, 0.0, 0.0, 0.0, 0.0, 0.0, 0.0, 0.0, 0.0, 0.0, 1.675809639607569E9, 0.0, 2023-02-07 17:40:39.607
5.0, 11756.36938290231, 187500.0, 187500.0, 187500.0, -187500.02235174447, -187500.02235174447, -187500.02235174447, -187500.02235174447, 0.016, -0.022, -0.996, 192.0, 0.0, 0.0, 0.0, 0.0, 0.0, 0.0, 0.0, 0.0, 0.0, 1.67580963961552E9, 0.0, 2023-02-07 17:40:39.615
6.0, 11831.493596016599, 187500.0, 187500.0, 187500.0, -187500.02235174447, -187500.02235174447, -187500.02235174447, -187500.02235174447, 0.016, -0.022, -0.996, 192.0, 0.0, 0.0, 0.0, 0.0, 0.0, 0.0, 0.0, 0.0, 0.0, 1.675809639615541E9, 0.0, 2023-02-07 17:40:39.615
7.0, 11840.590756009908, 187500.0, 187500.0, 187500.0, -187500.02235174447, -187500.02235174447, -187500.02235174447, -187500.02235174447, 0.01, -0.02, -0.998, 192.0, 0.0, 80.0, 255.0, 96.0, 224.0, 208.0, 0.0, 0.0, 0.0, 1.675809639622822E9, 0.0, 2023-02-07 17:40:39.622
8.0, 11879.751012295606, 187500.0, 187500.0, 187500.0, -187500.02235174447, -187500.02235174447, -187500.02235174447, -187500.02235174447, 0.01, -0.02, -0.998, 192.0, 0.0, 0.0, 0.0, 0.0, 0.0, 0.0, 0.0, 0.0, 0.0, 1.675809639622843E9, 0.0, 2023-02-07 17:40:39.622
9.0, 12030.021790268636, 187500.0, 187500.0, 187500.0, -187500.02235174447, -187500.02235174447, -187500.02235174447, -187500.02235174447, 0.01, -0.02, -0.998, 192.0, 0.0, 0.0, 0.0, 0.0, 0.0, 0.0, 0.0, 0.0, 0.0, 1.675809639629191E9, 0.0, 2023-02-07 17:40:39.629
10.0, 12287.29036894922, 187500.0, 187500.0, 187500.0, -187500.02235174447, -187500.02235174447, -187500.02235174447, -187500.02235174447, 0.01, -0.02, -0.998, 192.0, 0.0, 0.0, 0.0, 0.0, 0.0, 0.0, 0.0, 0.0, 0.0, 1.675809639637234E9, 0.0, 2023-02-07 17:40:39.637
11.0, 12050.63009865643, 187500.0, 187500.0, 187500.0, -187500.02235174447, -187500.02235174447, -187500.02235174447, -187500.02235174447, 0.01, -0.02, -0.998, 192.0, 0.0, 0.0, 0.0, 0.0, 0.0, 0.0, 0.0, 0.0, 0.0, 1.675809639637311E9, 0.0, 2023-02-07 17:40:39.637
12.0, 11647.583442638332, 187500.0, 187500.0, 187500.0, -187500.02235174447, -187500.02235174447, -187500.02235174447, -187500.02235174447, 0.01, -0.02, -0.998, 192.0, 0.0, 0.0, 0.0, 0.0, 0.0, 0.0, 0.0, 0.0, 0.0, 1.675809639645195E9, 0.0, 2023-02-07 17:40:39.645
13.0, 11852.68304976023, 187500.0, 187500.0, 187500.0, -187500.02235174447, -187500.02235174447, -187500.02235174447, -187500.02235174447, 0.01, -0.02, -0.998, 192.0, 0.0, 0.0, 0.0, 0.0, 0.0, 0.0, 0.0, 0.0, 0.0, 1.675809639645211E9, 0.0, 2023-02-07 17:40:39.645
14.0, 11699.975931641571, 187500.0, 187500.0, 187500.0, -187500.02235174447, -187500.02235174447, -187500.02235174447, -187500.02235174447, 0.01, -0.02, -0.998, 192.0, 0.0, 0.0, 0.0, 0.0, 0.0, 0.0, 0.0, 0.0, 0.0, 1.67580963965251E9, 0.0, 2023-02-07 17:40:39.652
15.0, 11412.040759568306, 187500.0, 187500.0, 187500.0, -187500.02235174447, -187500.02235174447, -187500.02235174447, -187500.02235174447, 0.01, -0.02, -0.998, 192.0, 0.0, 0.0, 0.0, 0.0, 0.0, 0.0, 0.0, 0.0, 0.0, 1.675809639652524E9, 0.0, 2023-02-07 17:40:39.652
16.0, 11702.255809576012, 187500.0, 187500.0, 187500.0, -187500.02235174447, -187500.02235174447, -187500.02235174447, -187500.02235174447, 0.01, -0.02, -0.998, 192.0, 0.0, 0.0, 0.0, 0.0, 0.0, 0.0, 0.0, 0.0, 0.0, 1.675809639659855E9, 0.0, 2023-02-07 17:40:39.659
17.0, 12089.0527473751, 187500.0, 187500.0, 187500.0, -187500.02235174447, -187500.02235174447, -187500.02235174447, -187500.02235174447, 0.012, -0.018000000000000002, -0.994, 192.0, 0.0, 96.0, 255.0, 112.0, 224.0, 240.0, 0.0, 0.0, 0.0, 1.675809639659871E9, 0.0, 2023-02-07 17:40:39.659
18.0, 12098.284017835143, 187500.0, 187500.0, 187500.0, -187500.02235174447, -187500.02235174447, -187500.02235174447, -187500.02235174447, 0.012, -0.018000000000000002, -0.994, 192.0, 0.0, 0.0, 0.0, 0.0, 0.0, 0.0, 0.0, 0.0, 0.0, 1.675809639668082E9, 0.0, 2023-02-07 17:40:39.668
19.0, 11784.353766960356, 187500.0, 187500.0, 187500.0, -187500.02235174447, -187500.02235174447, -187500.02235174447, -187500.02235174447, 0.012, -0.018000000000000002, -0.994, 192.0, 0.0, 0.0, 0.0, 0.0, 0.0, 0.0, 0.0, 0.0, 0.0, 1.675809639668106E9, 0.0, 2023-02-07 17:40:39.668
20.0, 11903.801489329517, 187500.0, 187500.0, 187500.0, -187500.02235174447, -187500.02235174447, -187500.02235174447, -187500.02235174447, 0.012, -0.018000000000000002, -0.994, 192.0, 0.0, 0.0, 0.0, 0.0, 0.0, 0.0, 0.0, 0.0, 0.0, 1.675809639675052E9, 0.0, 2023-02-07 17:40:39.675
21.0, 12197.771632405715, 187500.0, 187500.0, 187500.0, -187500.02235174447, -187500.02235174447, -187500.02235174447, -187500.02235174447, 0.012, -0.018000000000000002, -0.994, 192.0, 0.0, 0.0, 0.0, 0.0, 0.0, 0.0, 0.0, 0.0, 0.0, 1.675809639675064E9, 0.0, 2023-02-07 17:40:39.675
22.0, 11845.508139790076, 187500.0, 187500.0, 187500.0, -187500.02235174447, -187500.02235174447, -187500.02235174447, -187500.02235174447, 0.012, -0.018000000000000002, -0.994, 192.0, 0.0, 0.0, 0.0, 0.0, 0.0, 0.0, 0.0, 0.0, 0.0, 1.675809639682467E9, 0.0, 2023-02-07 17:40:39.682
23.0, 11471.563455052788, 187500.0, 187500.0, 187500.0, -187500.02235174447, -187500.02235174447, -187500.02235174447, -187500.02235174447, 0.012, -0.018000000000000002, -0.994, 192.0, 0.0, 0.0, 0.0, 0.0, 0.0, 0.0, 0.0, 0.0, 0.0, 1.675809639682486E9, 0.0, 2023-02-07 17:40:39.682
24.0, 11685.916684379183, 187500.0, 187500.0, 187500.0, -187500.02235174447, -187500.02235174447, -187500.02235174447, -187500.02235174447, 0.012, -0.018000000000000002, -0.994, 192.0, 0.0, 0.0, 0.0, 0.0, 0.0, 0.0, 0.0, 0.0, 0.0, 1.675809639689516E9, 0.0, 2023-02-07 17:40:39.689
25.0, 12096.920561423369, 187500.0, 187500.0, 187500.0, -187500.02235174447, -187500.02235174447, -187500.02235174447, -187500.02235174447, 0.012, -0.018000000000000002, -0.994, 192.0, 0.0, 0.0, 0.0, 0.0, 0.0, 0.0, 0.0, 0.0, 0.0, 1.67580963968953E9, 0.0, 2023-02-07 17:40:39.689
26.0, 12092.293750321121, 187500.0, 187500.0, 187500.0, -187500.02235174447, -187500.02235174447, -187500.02235174447, -187500.02235174447, 0.012, -0.018000000000000002, -0.994, 192.0, 0.0, 0.0, 0.0, 0.0, 0.0, 0.0, 0.0, 0.0, 0.0, 1.675809639697553E9, 0.0, 2023-02-07 17:40:39.697
27.0, 11719.444301062143, 187500.0, 187500.0, 187500.0, -187500.02235174447, -187500.02235174447, -187500.02235174447, -187500.02235174447, 0.006, -0.014, -0.992, 192.0, 0.0, 48.0, 255.0, 144.0, 225.0, 0.0, 0.0, 0.0, 0.0, 1.675809639704613E9, 0.0, 2023-02-07 17:40:39.704
28.0, 11724.339333097856, 187500.0, 187500.0, 187500.0, -187500.02235174447, -187500.02235174447, -187500.02235174447, -187500.02235174447, 0.006, -0.014, -0.992, 192.0, 0.0, 0.0, 0.0, 0.0, 0.0, 0.0, 0.0, 0.0, 0.0, 1.675809639704636E9, 0.0, 2023-02-07 17:40:39.704
29.0, 11656.121809020258, 187500.0, 187500.0, 187500.0, -187500.02235174447, -187500.02235174447, -187500.02235174447, -187500.02235174447, 0.006, -0.014, -0.992, 192.0, 0.0, 0.0, 0.0, 0.0, 0.0, 0.0, 0.0, 0.0, 0.0, 1.675809639712069E9, 0.0, 2023-02-07 17:40:39.712
30.0, 11791.595732163874, 187500.0, 187500.0, 187500.0, -187500.02235174447, -187500.02235174447, -187500.02235174447, -187500.02235174447, 0.006, -0.014, -0.992, 192.0, 0.0, 0.0, 0.0, 0.0, 0.0, 0.0, 0.0, 0.0, 0.0, 1.675809639712087E9, 0.0, 2023-02-07 17:40:39.712
31.0, 12093.456041032798, 187500.0, 187500.0, 187500.0, -187500.02235174447, -187500.02235174447, -187500.02235174447, -187500.02235174447, 0.006, -0.014, -0.992, 192.0, 0.0, 0.0, 0.0, 0.0, 0.0, 0.0, 0.0, 0.0, 0.0, 1.675809639720144E9, 0.0, 2023-02-07 17:40:39.720
32.0, 11893.452631646709, 187500.0, 187500.0, 187500.0, -187500.02235174447, -187500.02235174447, -187500.02235174447, -187500.02235174447, 0.006, -0.014, -0.992, 192.0, 0.0, 0.0, 0.0, 0.0, 0.0, 0.0, 0.0, 0.0, 0.0, 1.675809639720168E9, 0.0, 2023-02-07 17:40:39.720
33.0, 11875.481829104643, 187500.0, 187500.0, 187500.0, -187500.02235174447, -187500.02235174447, -187500.02235174447, -187500.02235174447, 0.006, -0.014, -0.992, 192.0, 0.0, 0.0, 0.0, 0.0, 0.0, 0.0, 0.0, 0.0, 0.0, 1.675809639728095E9, 0.0, 2023-02-07 17:40:39.728
34.0, 11958.920891156304, 187500.0, 187500.0, 187500.0, -187500.02235174447, -187500.02235174447, -187500.02235174447, -187500.02235174447, 0.006, -0.014, -0.992, 192.0, 0.0, 0.0, 0.0, 0.0, 0.0, 0.0, 0.0, 0.0, 0.0, 1.675809639728113E9, 0.0, 2023-02-07 17:40:39.728
35.0, 12073.697098934306, 187500.0, 187500.0, 187500.0, -187500.02235174447, -187500.02235174447, -187500.02235174447, -187500.02235174447, 0.006, -0.014, -0.992, 192.0, 0.0, 0.0, 0.0, 0.0, 0.0, 0.0, 0.0, 0.0, 0.0, 1.675809639734891E9, 0.0, 2023-02-07 17:40:39.734
36.0, 12134.002105474723, 187500.0, 187500.0, 187500.0, -187500.02235174447, -187500.02235174447, -187500.02235174447, -187500.02235174447, 0.006, -0.014, -0.992, 192.0, 0.0, 0.0, 0.0, 0.0, 0.0, 0.0, 0.0, 0.0, 0.0, 1.67580963973491E9, 0.0, 2023-02-07 17:40:39.734
37.0, 11903.868544562882, 187500.0, 187500.0, 187500.0, -187500.02235174447, -187500.02235174447, -187500.02235174447, -187500.02235174447, 0.01, -0.018000000000000002, -0.994, 192.0, 0.0, 80.0, 255.0, 112.0, 224.0, 240.0, 0.0, 0.0, 0.0, 1.675809639742961E9, 0.0, 2023-02-07 17:40:39.742
38.0, 11605.24923863998, 187500.0, 187500.0, 187500.0, -187500.02235174447, -187500.02235174447, -187500.02235174447, -187500.02235174447, 0.01, -0.018000000000000002, -0.994, 192.0, 0.0, 0.0, 0.0, 0.0, 0.0, 0.0, 0.0, 0.0, 0.0, 1.675809639742989E9, 0.0, 2023-02-07 17:40:39.742
39.0, 11753.687173567674, 187500.0, 187500.0, 187500.0, -187500.02235174447, -187500.02235174447, -187500.02235174447, -187500.02235174447, 0.01, -0.018000000000000002, -0.994, 192.0, 0.0, 0.0, 0.0, 0.0, 0.0, 0.0, 0.0, 0.0, 0.0, 1.675809639750828E9, 0.0, 2023-02-07 17:40:39.750
40.0, 12035.363857193453, 187500.0, 187500.0, 187500.0, -187500.02235174447, -187500.02235174447, -187500.02235174447, -187500.02235174447, 0.01, -0.018000000000000002, -0.994, 192.0, 0.0, 0.0, 0.0, 0.0, 0.0, 0.0, 0.0, 0.0, 0.0, 1.67580963975085E9, 0.0, 2023-02-07 17:40:39.750
41.0, 12048.886662588915, 187500.0, 187500.0, 187500.0, -187500.02235174447, -187500.02235174447, -187500.02235174447, -187500.02235174447, 0.01, -0.018000000000000002, -0.994, 192.0, 0.0, 0.0, 0.0, 0.0, 0.0, 0.0, 0.0, 0.0, 0.0, 1.675809639757976E9, 0.0, 2023-02-07 17:40:39.757
42.0, 12024.81383381055, 187500.0, 187500.0, 187500.0, -187500.02235174447, -187500.02235174447, -187500.02235174447, -187500.02235174447, 0.01, -0.018000000000000002, -0.994, 192.0, 0.0, 0.0, 0.0, 0.0, 0.0, 0.0, 0.0, 0.0, 0.0, 1.675809639764459E9, 0.0, 2023-02-07 17:40:39.764
43.0, 12200.565600462629, 187500.0, 187500.0, 187500.0, -187500.02235174447, -187500.02235174447, -187500.02235174447, -187500.02235174447, 0.01, -0.018000000000000002, -0.994, 192.0, 0.0, 0.0, 0.0, 0.0, 0.0, 0.0, 0.0, 0.0, 0.0, 1.67580963976448E9, 0.0, 2023-02-07 17:40:39.764
44.0, 11717.566754527898, 187500.0, 187500.0, 187500.0, -187500.02235174447, -187500.02235174447, -187500.02235174447, -187500.02235174447, 0.01, -0.018000000000000002, -0.994, 192.0, 0.0, 0.0, 0.0, 0.0, 0.0, 0.0, 0.0, 0.0, 0.0, 1.675809639772503E9, 0.0, 2023-02-07 17:40:39.772
45.0, 11662.961442823584, 187500.0, 187500.0, 187500.0, -187500.02235174447, -187500.02235174447, -187500.02235174447, -187500.02235174447, 0.01, -0.018000000000000002, -0.994, 192.0, 0.0, 0.0, 0.0, 0.0, 0.0, 0.0, 0.0, 0.0, 0.0, 1.675809639772525E9, 0.0, 2023-02-07 17:40:39.772
46.0, 12022.265734942644, 187500.0, 187500.0, 187500.0, -187500.02235174447, -187500.02235174447, -187500.02235174447, -187500.02235174447, 0.01, -0.018000000000000002, -0.994, 192.0, 0.0, 0.0, 0.0, 0.0, 0.0, 0.0, 0.0, 0.0, 0.0, 1.675809639780464E9, 0.0, 2023-02-07 17:40:39.780
47.0, 12333.334962527153, 187500.0, 187500.0, 187500.0, -187500.02235174447, -187500.02235174447, -187500.02235174447, -187500.02235174447, 0.012, -0.024, -0.994, 192.0, 0.0, 96.0, 255.0, 64.0, 224.0, 240.0, 0.0, 0.0, 0.0, 1.675809639780483E9, 0.0, 2023-02-07 17:40:39.780
48.0, 11798.211848522646, 187500.0, 187500.0, 187500.0, -187500.02235174447, -187500.02235174447, -187500.02235174447, -187500.02235174447, 0.012, -0.024, -0.994, 192.0, 0.0, 0.0, 0.0, 0.0, 0.0, 0.0, 0.0, 0.0, 0.0, 1.675809639787687E9, 0.0, 2023-02-07 17:40:39.787
49.0, 11799.552953189965, 187500.0, 187500.0, 187500.0, -187500.02235174447, -187500.02235174447, -187500.02235174447, -187500.02235174447, 0.012, -0.024, -0.994, 192.0, 0.0, 0.0, 0.0, 0.0, 0.0, 0.0, 0.0, 0.0, 0.0, 1.675809639787712E9, 0.0, 2023-02-07 17:40:39.787
50.0, 11956.193978332756, 187500.0, 187500.0, 187500.0, -187500.02235174447, -187500.02235174447, -187500.02235174447, -187500.02235174447, 0.012, -0.024, -0.994, 192.0, 0.0, 0.0, 0.0, 0.0, 0.0, 0.0, 0.0, 0.0, 0.0, 1.675809639795087E9, 0.0, 2023-02-07 17:40:39.795
51.0, 12029.060665257057, 187500.0, 187500.0, 187500.0, -187500.02235174447, -187500.02235174447, -187500.02235174447, -187500.02235174447, 0.012, -0.024, -0.994, 192.0, 0.0, 0.0, 0.0, 0.0, 0.0, 0.0, 0.0, 0.0, 0.0, 1.675809639795107E9, 0.0, 2023-02-07 17:40:39.795
52.0, 12198.710405672839, 187500.0, 187500.0, 187500.0, -187500.02235174447, -187500.02235174447, -187500.02235174447, -187500.02235174447, 0.012, -0.024, -0.994, 192.0, 0.0, 0.0, 0.0, 0.0, 0.0, 0.0, 0.0, 0.0, 0.0, 1.675809639803225E9, 0.0, 2023-02-07 17:40:39.803
53.0, 11857.689840518218, 187500.0, 187500.0, 187500.0, -187500.02235174447, -187500.02235174447, -187500.02235174447, -187500.02235174447, 0.012, -0.024, -0.994, 192.0, 0.0, 0.0, 0.0, 0.0, 0.0, 0.0, 0.0, 0.0, 0.0, 1.67580963980324E9, 0.0, 2023-02-07 17:40:39.803
54.0, 11697.114908351292, 187500.0, 187500.0, 187500.0, -187500.02235174447, -187500.02235174447, -187500.02235174447, -187500.02235174447, 0.012, -0.024, -0.994, 192.0, 0.0, 0.0, 0.0, 0.0, 0.0, 0.0, 0.0, 0.0, 0.0, 1.675809639811019E9, 0.0, 2023-02-07 17:40:39.811
55.0, 11881.695614063217, 187500.0, 187500.0, 187500.0, -187500.02235174447, -187500.02235174447, -187500.02235174447, -187500.02235174447, 0.012, -0.024, -0.994, 192.0, 0.0, 0.0, 0.0, 0.0, 0.0, 0.0, 0.0, 0.0, 0.0, 1.675809639811078E9, 0.0, 2023-02-07 17:40:39.811
56.0, 11962.184245846778, 187500.0, 187500.0, 187500.0, -187500.02235174447, -187500.02235174447, -187500.02235174447, -187500.02235174447, 0.012, -0.024, -0.994, 192.0, 0.0, 0.0, 0.0, 0.0, 0.0, 0.0, 0.0, 0.0, 0.0, 1.675809639818056E9, 0.0, 2023-02-07 17:40:39.818
57.0, 11831.359485549867, 187500.0, 187500.0, 187500.0, -187500.02235174447, -187500.02235174447, -187500.02235174447, -187500.02235174447, 0.014, -0.028, -0.99, 192.0, 0.0, 112.0, 255.0, 32.0, 225.0, 16.0, 0.0, 0.0, 0.0, 1.675809639824898E9, 0.0, 2023-02-07 17:40:39.824
58.0, 11938.290231024055, 187500.0, 187500.0, 187500.0, -187500.02235174447, -187500.02235174447, -187500.02235174447, -187500.02235174447, 0.014, -0.028, -0.99, 192.0, 0.0, 0.0, 0.0, 0.0, 0.0, 0.0, 0.0, 0.0, 0.0, 1.675809639824919E9, 0.0, 2023-02-07 17:40:39.824
59.0, 12113.952590698313, 187500.0, 187500.0, 187500.0, -187500.02235174447, -187500.02235174447, -187500.02235174447, -187500.02235174447, 0.014, -0.028, -0.99, 192.0, 0.0, 0.0, 0.0, 0.0, 0.0, 0.0, 0.0, 0.0, 0.0, 1.675809639832807E9, 0.0, 2023-02-07 17:40:39.832
60.0, 12274.326357165142, 187500.0, 187500.0, 187500.0, -187500.02235174447, -187500.02235174447, -187500.02235174447, -187500.02235174447, 0.014, -0.028, -0.99, 192.0, 0.0, 0.0, 0.0, 0.0, 0.0, 0.0, 0.0, 0.0, 0.0, 1.675809639832828E9, 0.0, 2023-02-07 17:40:39.832
61.0, 11987.285254870088, 187500.0, 187500.0, 187500.0, -187500.02235174447, -187500.02235174447, -187500.02235174447, -187500.02235174447, 0.014, -0.028, -0.99, 192.0, 0.0, 0.0, 0.0, 0.0, 0.0, 0.0, 0.0, 0.0, 0.0, 1.675809639840734E9, 0.0, 2023-02-07 17:40:39.840
62.0, 12024.52326113263, 187500.0, 187500.0, 187500.0, -187500.02235174447, -187500.02235174447, -187500.02235174447, -187500.02235174447, 0.014, -0.028, -0.99, 192.0, 0.0, 0.0, 0.0, 0.0, 0.0, 0.0, 0.0, 0.0, 0.0, 1.675809639840751E9, 0.0, 2023-02-07 17:40:39.840
63.0, 12101.525020781162, 187500.0, 187500.0, 187500.0, -187500.02235174447, -187500.02235174447, -187500.02235174447, -187500.02235174447, 0.014, -0.028, -0.99, 192.0, 0.0, 0.0, 0.0, 0.0, 0.0, 0.0, 0.0, 0.0, 0.0, 1.675809639847325E9, 0.0, 2023-02-07 17:40:39.847
64.0, 11821.591773222897, 187500.0, 187500.0, 187500.0, -187500.02235174447, -187500.02235174447, -187500.02235174447, -187500.02235174447, 0.014, -0.028, -0.99, 192.0, 0.0, 0.0, 0.0, 0.0, 0.0, 0.0, 0.0, 0.0, 0.0, 1.675809639847339E9, 0.0, 2023-02-07 17:40:39.847
65.0, 11927.226117518678, 187500.0, 187500.0, 187500.0, -187500.02235174447, -187500.02235174447, -187500.02235174447, -187500.02235174447, 0.014, -0.028, -0.99, 192.0, 0.0, 0.0, 0.0, 0.0, 0.0, 0.0, 0.0, 0.0, 0.0, 1.675809639855448E9, 0.0, 2023-02-07 17:40:39.855
66.0, 11914.93265806826, 187500.0, 187500.0, 187500.0, -187500.02235174447, -187500.02235174447, -187500.02235174447, -187500.02235174447, 0.014, -0.026000000000000002, -0.99, 192.0, 0.0, 112.0, 255.0, 48.0, 225.0, 16.0, 0.0, 0.0, 0.0, 1.675809639855464E9, 0.0, 2023-02-07 17:40:39.855
67.0, 11890.97158801217, 187500.0, 187500.0, 187500.0, -187500.02235174447, -187500.02235174447, -187500.02235174447, -187500.02235174447, 0.014, -0.026000000000000002, -0.99, 192.0, 0.0, 0.0, 0.0, 0.0, 0.0, 0.0, 0.0, 0.0, 0.0, 1.675809639863344E9, 0.0, 2023-02-07 17:40:39.863
68.0, 11963.45829528073, 187500.0, 187500.0, 187500.0, -187500.02235174447, -187500.02235174447, -187500.02235174447, -187500.02235174447, 0.014, -0.026000000000000002, -0.99, 192.0, 0.0, 0.0, 0.0, 0.0, 0.0, 0.0, 0.0, 0.0, 0.0, 1.675809639863396E9, 0.0, 2023-02-07 17:40:39.863
69.0, 12187.534533445185, 187500.0, 187500.0, 187500.0, -187500.02235174447, -187500.02235174447, -187500.02235174447, -187500.02235174447, 0.014, -0.026000000000000002, -0.99, 192.0, 0.0, 0.0, 0.0, 0.0, 0.0, 0.0, 0.0, 0.0, 0.0, 1.675809639869911E9, 0.0, 2023-02-07 17:40:39.869
70.0, 12271.197112941398, 187500.0, 187500.0, 187500.0, -187500.02235174447, -187500.02235174447, -187500.02235174447, -187500.02235174447, 0.014, -0.026000000000000002, -0.99, 192.0, 0.0, 0.0, 0.0, 0.0, 0.0, 0.0, 0.0, 0.0, 0.0, 1.675809639869969E9, 0.0, 2023-02-07 17:40:39.869
71.0, 11761.219711449112, 187500.0, 187500.0, 187500.0, -187500.02235174447, -187500.02235174447, -187500.02235174447, -187500.02235174447, 0.014, -0.026000000000000002, -0.99, 192.0, 0.0, 0.0, 0.0, 0.0, 0.0, 0.0, 0.0, 0.0, 0.0, 1.675809639876957E9, 0.0, 2023-02-07 17:40:39.876
72.0, 11708.357835812312, 187500.0, 187500.0, 187500.0, -187500.02235174447, -187500.02235174447, -187500.02235174447, -187500.02235174447, 0.014, -0.026000000000000002, -0.99, 192.0, 0.0, 0.0, 0.0, 0.0, 0.0, 0.0, 0.0, 0.0, 0.0, 1.675809639885096E9, 0.0, 2023-02-07 17:40:39.885
73.0, 11957.043344622058, 187500.0, 187500.0, 187500.0, -187500.02235174447, -187500.02235174447, -187500.02235174447, -187500.02235174447, 0.014, -0.026000000000000002, -0.99, 192.0, 0.0, 0.0, 0.0, 0.0, 0.0, 0.0, 0.0, 0.0, 0.0, 1.675809639885109E9, 0.0, 2023-02-07 17:40:39.885
74.0, 12301.930761567446, 187500.0, 187500.0, 187500.0, -187500.02235174447, -187500.02235174447, -187500.02235174447, -187500.02235174447, 0.014, -0.026000000000000002, -0.99, 192.0, 0.0, 0.0, 0.0, 0.0, 0.0, 0.0, 0.0, 0.0, 0.0, 1.675809639892946E9, 0.0, 2023-02-07 17:40:39.892
75.0, 12486.064432390265, 187500.0, 187500.0, 187500.0, -187500.02235174447, -187500.02235174447, -187500.02235174447, -187500.02235174447, 0.014, -0.026000000000000002, -0.99, 192.0, 0.0, 0.0, 0.0, 0.0, 0.0, 0.0, 0.0, 0.0, 0.0, 1.675809639892964E9, 0.0, 2023-02-07 17:40:39.892
76.0, 11869.53626507953, 187500.0, 187500.0, 187500.0, -187500.02235174447, -187500.02235174447, -187500.02235174447, -187500.02235174447, 0.012, -0.024, -0.996, 192.0, 0.0, 96.0, 255.0, 64.0, 224.0, 224.0, 0.0, 0.0, 0.0, 1.675809639899553E9, 0.0, 2023-02-07 17:40:39.899
77.0, 11749.887377010273, 187500.0, 187500.0, 187500.0, -187500.02235174447, -187500.02235174447, -187500.02235174447, -187500.02235174447, 0.012, -0.024, -0.996, 192.0, 0.0, 0.0, 0.0, 0.0, 0.0, 0.0, 0.0, 0.0, 0.0, 1.675809639899566E9, 0.0, 2023-02-07 17:40:39.899
78.0, 11895.73250958115, 187500.0, 187500.0, 187500.0, -187500.02235174447, -187500.02235174447, -187500.02235174447, -187500.02235174447, 0.012, -0.024, -0.996, 192.0, 0.0, 0.0, 0.0, 0.0, 0.0, 0.0, 0.0, 0.0, 0.0, 1.675809639907543E9, 0.0, 2023-02-07 17:40:39.907
79.0, 12037.017886283147, 187500.0, 187500.0, 187500.0, -187500.02235174447, -187500.02235174447, -187500.02235174447, -187500.02235174447, 0.012, -0.024, -0.996, 192.0, 0.0, 0.0, 0.0, 0.0, 0.0, 0.0, 0.0, 0.0, 0.0, 1.675809639907563E9, 0.0, 2023-02-07 17:40:39.907
80.0, 12135.767893286693, 187500.0, 187500.0, 187500.0, -187500.02235174447, -187500.02235174447, -187500.02235174447, -187500.02235174447, 0.012, -0.024, -0.996, 192.0, 0.0, 0.0, 0.0, 0.0, 0.0, 0.0, 0.0, 0.0, 0.0, 1.675809639915674E9, 0.0, 2023-02-07 17:40:39.915
81.0, 12251.080542931622, 187500.0, 187500.0, 187500.0, -187500.02235174447, -187500.02235174447, -187500.02235174447, -187500.02235174447, 0.012, -0.024, -0.996, 192.0, 0.0, 0.0, 0.0, 0.0, 0.0, 0.0, 0.0, 0.0, 0.0, 1.675809639915685E9, 0.0, 2023-02-07 17:40:39.915
82.0, 12218.826975682614, 187500.0, 187500.0, 187500.0, -187500.02235174447, -187500.02235174447, -187500.02235174447, -187500.02235174447, 0.012, -0.024, -0.996, 192.0, 0.0, 0.0, 0.0, 0.0, 0.0, 0.0, 0.0, 0.0, 0.0, 1.675809639922842E9, 0.0, 2023-02-07 17:40:39.922
83.0, 11720.561888284908, 187500.0, 187500.0, 187500.0, -187500.02235174447, -187500.02235174447, -187500.02235174447, -187500.02235174447, 0.012, -0.024, -0.996, 192.0, 0.0, 0.0, 0.0, 0.0, 0.0, 0.0, 0.0, 0.0, 0.0, 1.675809639922858E9, 0.0, 2023-02-07 17:40:39.922
84.0, 11823.446968012688, 187500.0, 187500.0, 187500.0, -187500.02235174447, -187500.02235174447, -187500.02235174447, -187500.02235174447, 0.012, -0.024, -0.996, 192.0, 0.0, 0.0, 0.0, 0.0, 0.0, 0.0, 0.0, 0.0, 0.0, 1.675809639930146E9, 0.0, 2023-02-07 17:40:39.930
85.0, 12150.721210327294, 187500.0, 187500.0, 187500.0, -187500.02235174447, -187500.02235174447, -187500.02235174447, -187500.02235174447, 0.012, -0.024, -0.996, 192.0, 0.0, 0.0, 0.0, 0.0, 0.0, 0.0, 0.0, 0.0, 0.0, 1.67580963993021E9, 0.0, 2023-02-07 17:40:39.930
86.0, 12349.025887134778, 187500.0, 187500.0, 187500.0, -187500.02235174447, -187500.02235174447, -187500.02235174447, -187500.02235174447, 0.016, -0.024, -0.996, 192.0, 0.0, 128.0, 255.0, 64.0, 224.0, 224.0, 0.0, 0.0, 0.0, 1.675809639937486E9, 0.0, 2023-02-07 17:40:39.937
87.0, 12103.737843482239, 187500.0, 187500.0, 187500.0, -187500.02235174447, -187500.02235174447, -187500.02235174447, -187500.02235174447, 0.016, -0.024, -0.996, 192.0, 0.0, 0.0, 0.0, 0.0, 0.0, 0.0, 0.0, 0.0, 0.0, 1.675809639937505E9, 0.0, 2023-02-07 17:40:39.937
88.0, 11755.832941035384, 187500.0, 187500.0, 187500.0, -187500.02235174447, -187500.02235174447, -187500.02235174447, -187500.02235174447, 0.016, -0.024, -0.996, 192.0, 0.0, 0.0, 0.0, 0.0, 0.0, 0.0, 0.0, 0.0, 0.0, 1.675809639945389E9, 0.0, 2023-02-07 17:40:39.945
89.0, 11890.032814745047, 187500.0, 187500.0, 187500.0, -187500.02235174447, -187500.02235174447, -187500.02235174447, -187500.02235174447, 0.016, -0.024, -0.996, 192.0, 0.0, 0.0, 0.0, 0.0, 0.0, 0.0, 0.0, 0.0, 0.0, 1.675809639952316E9, 0.0, 2023-02-07 17:40:39.952
90.0, 11854.2476718721, 187500.0, 187500.0, 187500.0, -187500.02235174447, -187500.02235174447, -187500.02235174447, -187500.02235174447, 0.016, -0.024, -0.996, 192.0, 0.0, 0.0, 0.0, 0.0, 0.0, 0.0, 0.0, 0.0, 0.0, 1.675809639952334E9, 0.0, 2023-02-07 17:40:39.952
91.0, 11900.40402417231, 187500.0, 187500.0, 187500.0, -187500.02235174447, -187500.02235174447, -187500.02235174447, -187500.02235174447, 0.016, -0.024, -0.996, 192.0, 0.0, 0.0, 0.0, 0.0, 0.0, 0.0, 0.0, 0.0, 0.0, 1.675809639960536E9, 0.0, 2023-02-07 17:40:39.960
92.0, 12002.171516677323, 187500.0, 187500.0, 187500.0, -187500.02235174447, -187500.02235174447, -187500.02235174447, -187500.02235174447, 0.016, -0.024, -0.996, 192.0, 0.0, 0.0, 0.0, 0.0, 0.0, 0.0, 0.0, 0.0, 0.0, 1.675809639960549E9, 0.0, 2023-02-07 17:40:39.960
93.0, 12311.810232616692, 187500.0, 187500.0, 187500.0, -187500.02235174447, -187500.02235174447, -187500.02235174447, -187500.02235174447, 0.016, -0.024, -0.996, 192.0, 0.0, 0.0, 0.0, 0.0, 0.0, 0.0, 0.0, 0.0, 0.0, 1.675809639967894E9, 0.0, 2023-02-07 17:40:39.967
94.0, 12186.931036344891, 187500.0, 187500.0, 187500.0, -187500.02235174447, -187500.02235174447, -187500.02235174447, -187500.02235174447, 0.016, -0.024, -0.996, 192.0, 0.0, 0.0, 0.0, 0.0, 0.0, 0.0, 0.0, 0.0, 0.0, 1.675809639967914E9, 0.0, 2023-02-07 17:40:39.967
95.0, 11979.193923377266, 187500.0, 187500.0, 187500.0, -187500.02235174447, -187500.02235174447, -187500.02235174447, -187500.02235174447, 0.016, -0.024, -0.996, 192.0, 0.0, 0.0, 0.0, 0.0, 0.0, 0.0, 0.0, 0.0, 0.0, 1.675809639975919E9, 0.0, 2023-02-07 17:40:39.975
96.0, 11932.143501298846, 187500.0, 187500.0, 187500.0, -187500.02235174447, -187500.02235174447, -187500.02235174447, -187500.02235174447, 0.016, -0.022, -0.996, 192.0, 0.0, 128.0, 255.0, 80.0, 224.0, 224.0, 0.0, 0.0, 0.0, 1.675809639975933E9, 0.0, 2023-02-07 17:40:39.975
97.0, 12086.370538040464, 187500.0, 187500.0, 187500.0, -187500.02235174447, -187500.02235174447, -187500.02235174447, -187500.02235174447, 0.016, -0.022, -0.996, 192.0, 0.0, 0.0, 0.0, 0.0, 0.0, 0.0, 0.0, 0.0, 0.0, 1.675809639982561E9, 0.0, 2023-02-07 17:40:39.982
98.0, 12386.59916956415, 187500.0, 187500.0, 187500.0, -187500.02235174447, -187500.02235174447, -187500.02235174447, -187500.02235174447, 0.016, -0.022, -0.996, 192.0, 0.0, 0.0, 0.0, 0.0, 0.0, 0.0, 0.0, 0.0, 0.0, 1.675809639982585E9, 0.0, 2023-02-07 17:40:39.982
99.0, 12191.110812558034, 187500.0, 187500.0, 187500.0, -187500.02235174447, -187500.02235174447, -187500.02235174447, -187500.02235174447, 0.016, -0.022, -0.996, 192.0, 0.0, 0.0, 0.0, 0.0, 0.0, 0.0, 0.0, 0.0, 0.0, 1.675809639990471E9, 0.0, 2023-02-07 17:40:39.990
100.0, 11727.803853488429, 187500.0, 187500.0, 187500.0, -187500.02235174447, -187500.02235174447, -187500.02235174447, -187500.02235174447, 0.016, -0.022, -0.996, 192.0, 0.0, 0.0, 0.0, 0.0, 0.0, 0.0, 0.0, 0.0, 0.0, 1.675809639990531E9, 0.0, 2023-02-07 17:40:39.990
101.0, 12255.841464500603, 187500.0, 187500.0, 187500.0, -187500.02235174447, -187500.02235174447, -187500.02235174447, -187500.02235174447, 0.016, -0.022, -0.996, 192.0, 0.0, 0.0, 0.0, 0.0, 0.0, 0.0, 0.0, 0.0, 0.0, 1.675809639998553E9, 0.0, 2023-02-07 17:40:39.998
102.0, 12256.199092411887, 187500.0, 187500.0, 187500.0, -187500.02235174447, -187500.02235174447, -187500.02235174447, -187500.02235174447, 0.016, -0.022, -0.996, 192.0, 0.0, 0.0, 0.0, 0.0, 0.0, 0.0, 0.0, 0.0, 0.0, 1.675809639998565E9, 0.0, 2023-02-07 17:40:39.998
103.0, 11865.49059933312, 187500.0, 187500.0, 187500.0, -187500.02235174447, -187500.02235174447, -187500.02235174447, -187500.02235174447, 0.016, -0.022, -0.996, 192.0, 0.0, 0.0, 0.0, 0.0, 0.0, 0.0, 0.0, 0.0, 0.0, 1.675809640005673E9, 0.0, 2023-02-07 17:40:40.005
104.0, 12003.400862622364, 187500.0, 187500.0, 187500.0, -187500.02235174447, -187500.02235174447, -187500.02235174447, -187500.02235174447, 0.016, -0.022, -0.996, 192.0, 0.0, 0.0, 0.0, 0.0, 0.0, 0.0, 0.0, 0.0, 0.0, 1.675809640012063E9, 0.0, 2023-02-07 17:40:40.012
105.0, 11842.848282199893, 187500.0, 187500.0, 187500.0, -187500.02235174447, -187500.02235174447, -187500.02235174447, -187500.02235174447, 0.016, -0.022, -0.996, 192.0, 0.0, 0.0, 0.0, 0.0, 0.0, 0.0, 0.0, 0.0, 0.0, 1.675809640012079E9, 0.0, 2023-02-07 17:40:40.012
106.0, 11942.60411770393, 187500.0, 187500.0, 187500.0, -187500.02235174447, -187500.02235174447, -187500.02235174447, -187500.02235174447, 0.014, -0.018000000000000002, -0.996, 192.0, 0.0, 112.0, 255.0, 112.0, 224.0, 224.0, 0.0, 0.0, 0.0, 1.675809640020813E9, 0.0, 2023-02-07 17:40:40.020
107.0, 12126.290753637642, 187500.0, 187500.0, 187500.0, -187500.02235174447, -187500.02235174447, -187500.02235174447, -187500.02235174447, 0.014, -0.018000000000000002, -0.996, 192.0, 0.0, 0.0, 0.0, 0.0, 0.0, 0.0, 0.0, 0.0, 0.0, 1.675809640020828E9, 0.0, 2023-02-07 17:40:40.020
108.0, 12053.580528924529, 187500.0, 187500.0, 187500.0, -187500.02235174447, -187500.02235174447, -187500.02235174447, -187500.02235174447, 0.014, -0.018000000000000002, -0.996, 192.0, 0.0, 0.0, 0.0, 0.0, 0.0, 0.0, 0.0, 0.0, 0.0, 1.67580964002817E9, 0.0, 2023-02-07 17:40:40.028
109.0, 11992.47085958372, 187500.0, 187500.0, 187500.0, -187500.02235174447, -187500.02235174447, -187500.02235174447, -187500.02235174447, 0.014, -0.018000000000000002, -0.996, 192.0, 0.0, 0.0, 0.0, 0.0, 0.0, 0.0, 0.0, 0.0, 0.0, 1.6758096400282E9, 0.0, 2023-02-07 17:40:40.028
110.0, 12171.016594292712, 187500.0, 187500.0, 187500.0, -187500.02235174447, -187500.02235174447, -187500.02235174447, -187500.02235174447, 0.014, -0.018000000000000002, -0.996, 192.0, 0.0, 0.0, 0.0, 0.0, 0.0, 0.0, 0.0, 0.0, 0.0, 1.675809640035347E9, 0.0, 2023-02-07 17:40:40.035
111.0, 12527.661028821592, 187500.0, 187500.0, 187500.0, -187500.02235174447, -187500.02235174447, -187500.02235174447, -187500.02235174447, 0.014, -0.018000000000000002, -0.996, 192.0, 0.0, 0.0, 0.0, 0.0, 0.0, 0.0, 0.0, 0.0, 0.0, 1.675809640035369E9, 0.0, 2023-02-07 17:40:40.035
112.0, 12028.814796068049, 187500.0, 187500.0, 187500.0, -187500.02235174447, -187500.02235174447, -187500.02235174447, -187500.02235174447, 0.014, -0.018000000000000002, -0.996, 192.0, 0.0, 0.0, 0.0, 0.0, 0.0, 0.0, 0.0, 0.0, 0.0, 1.675809640042904E9, 0.0, 2023-02-07 17:40:40.042
113.0, 12010.084034214502, 187500.0, 187500.0, 187500.0, -187500.02235174447, -187500.02235174447, -187500.02235174447, -187500.02235174447, 0.014, -0.018000000000000002, -0.996, 192.0, 0.0, 0.0, 0.0, 0.0, 0.0, 0.0, 0.0, 0.0, 0.0, 1.67580964004292E9, 0.0, 2023-02-07 17:40:40.042
114.0, 12313.15133728401, 187500.0, 187500.0, 187500.0, -187500.02235174447, -187500.02235174447, -187500.02235174447, -187500.02235174447, 0.014, -0.018000000000000002, -0.996, 192.0, 0.0, 0.0, 0.0, 0.0, 0.0, 0.0, 0.0, 0.0, 0.0, 1.675809640050826E9, 0.0, 2023-02-07 17:40:40.050
115.0, 11941.486530481165, 187500.0, 187500.0, 187500.0, -187500.02235174447, -187500.02235174447, -187500.02235174447, -187500.02235174447, 0.014, -0.018000000000000002, -0.996, 192.0, 0.0, 0.0, 0.0, 0.0, 0.0, 0.0, 0.0, 0.0, 0.0, 1.675809640050876E9, 0.0, 2023-02-07 17:40:40.050
116.0, 11797.697758400174, 187500.0, 187500.0, 187500.0, -187500.02235174447, -187500.02235174447, -187500.02235174447, -187500.02235174447, 0.01, -0.018000000000000002, -0.992, 192.0, 0.0, 80.0, 255.0, 112.0, 225.0, 0.0, 0.0, 0.0, 0.0, 1.675809640057904E9, 0.0, 2023-02-07 17:40:40.057
117.0, 11787.259493739546, 187500.0, 187500.0, 187500.0, -187500.02235174447, -187500.02235174447, -187500.02235174447, -187500.02235174447, 0.01, -0.018000000000000002, -0.992, 192.0, 0.0, 0.0, 0.0, 0.0, 0.0, 0.0, 0.0, 0.0, 0.0, 1.675809640057918E9, 0.0, 2023-02-07 17:40:40.057
118.0, 11936.524443212085, 187500.0, 187500.0, 187500.0, -187500.02235174447, -187500.02235174447, -187500.02235174447, -187500.02235174447, 0.01, -0.018000000000000002, -0.992, 192.0, 0.0, 0.0, 0.0, 0.0, 0.0, 0.0, 0.0, 0.0, 0.0, 1.675809640064434E9, 0.0, 2023-02-07 17:40:40.064
119.0, 12202.152574318956, 187500.0, 187500.0, 187500.0, -187500.02235174447, -187500.02235174447, -187500.02235174447, -187500.02235174447, 0.01, -0.018000000000000002, -0.992, 192.0, 0.0, 0.0, 0.0, 0.0, 0.0, 0.0, 0.0, 0.0, 0.0, 1.675809640072422E9, 0.0, 2023-02-07 17:40:40.072
120.0, 12206.824088910114, 187500.0, 187500.0, 187500.0, -187500.02235174447, -187500.02235174447, -187500.02235174447, -187500.02235174447, 0.01, -0.018000000000000002, -0.992, 192.0, 0.0, 0.0, 0.0, 0.0, 0.0, 0.0, 0.0, 0.0, 0.0, 1.675809640072441E9, 0.0, 2023-02-07 17:40:40.072
121.0, 12018.868269785436, 187500.0, 187500.0, 187500.0, -187500.02235174447, -187500.02235174447, -187500.02235174447, -187500.02235174447, 0.01, -0.018000000000000002, -0.992, 192.0, 0.0, 0.0, 0.0, 0.0, 0.0, 0.0, 0.0, 0.0, 0.0, 1.675809640080457E9, 0.0, 2023-02-07 17:40:40.080
122.0, 12104.721320238272, 187500.0, 187500.0, 187500.0, -187500.02235174447, -187500.02235174447, -187500.02235174447, -187500.02235174447, 0.01, -0.018000000000000002, -0.992, 192.0, 0.0, 0.0, 0.0, 0.0, 0.0, 0.0, 0.0, 0.0, 0.0, 1.675809640080472E9, 0.0, 2023-02-07 17:40:40.080
123.0, 11930.847100120438, 187500.0, 187500.0, 187500.0, -187500.02235174447, -187500.02235174447, -187500.02235174447, -187500.02235174447, 0.01, -0.018000000000000002, -0.992, 192.0, 0.0, 0.0, 0.0, 0.0, 0.0, 0.0, 0.0, 0.0, 0.0, 1.675809640104597E9, 0.0, 2023-02-07 17:40:40.104
124.0, 11902.281570706555, 187500.0, 187500.0, 187500.0, -187500.02235174447, -187500.02235174447, -187500.02235174447, -187500.02235174447, 0.01, -0.018000000000000002, -0.992, 192.0, 0.0, 0.0, 0.0, 0.0, 0.0, 0.0, 0.0, 0.0, 0.0, 1.675809640104632E9, 0.0, 2023-02-07 17:40:40.104
125.0, 12042.672877630339, 187500.0, 187500.0, 187500.0, -187500.02235174447, -187500.02235174447, -187500.02235174447, -187500.02235174447, 0.012, -0.018000000000000002, -0.992, 192.0, 0.0, 96.0, 255.0, 112.0, 225.0, 0.0, 0.0, 0.0, 0.0, 1.675809640104715E9, 0.0, 2023-02-07 17:40:40.104
126.0, 12243.27978411672, 187500.0, 187500.0, 187500.0, -187500.02235174447, -187500.02235174447, -187500.02235174447, -187500.02235174447, 0.012, -0.018000000000000002, -0.992, 192.0, 0.0, 0.0, 0.0, 0.0, 0.0, 0.0, 0.0, 0.0, 0.0, 1.67580964010473E9, 0.0, 2023-02-07 17:40:40.104
127.0, 12416.438748411983, 187500.0, 187500.0, 187500.0, -187500.02235174447, -187500.02235174447, -187500.02235174447, -187500.02235174447, 0.012, -0.018000000000000002, -0.992, 192.0, 0.0, 0.0, 0.0, 0.0, 0.0, 0.0, 0.0, 0.0, 0.0, 1.675809640104825E9, 0.0, 2023-02-07 17:40:40.104
128.0, 12028.993610023692, 187500.0, 187500.0, 187500.0, -187500.02235174447, -187500.02235174447, -187500.02235174447, -187500.02235174447, 0.012, -0.018000000000000002, -0.992, 192.0, 0.0, 0.0, 0.0, 0.0, 0.0, 0.0, 0.0, 0.0, 0.0, 1.675809640104837E9, 0.0, 2023-02-07 17:40:40.104
129.0, 12182.013652564723, 187500.0, 187500.0, 187500.0, -187500.02235174447, -187500.02235174447, -187500.02235174447, -187500.02235174447, 0.012, -0.018000000000000002, -0.992, 192.0, 0.0, 0.0, 0.0, 0.0, 0.0, 0.0, 0.0, 0.0, 0.0, 1.675809640110949E9, 0.0, 2023-02-07 17:40:40.110
130.0, 12192.98835909228, 187500.0, 187500.0, 187500.0, -187500.02235174447, -187500.02235174447, -187500.02235174447, -187500.02235174447, 0.012, -0.018000000000000002, -0.992, 192.0, 0.0, 0.0, 0.0, 0.0, 0.0, 0.0, 0.0, 0.0, 0.0, 1.675809640111012E9, 0.0, 2023-02-07 17:40:40.111
131.0, 11826.285639558511, 187500.0, 187500.0, 187500.0, -187500.02235174447, -187500.02235174447, -187500.02235174447, -187500.02235174447, 0.012, -0.018000000000000002, -0.992, 192.0, 0.0, 0.0, 0.0, 0.0, 0.0, 0.0, 0.0, 0.0, 0.0, 1.675809640117567E9, 0.0, 2023-02-07 17:40:40.117
132.0, 12005.367816134432, 187500.0, 187500.0, 187500.0, -187500.02235174447, -187500.02235174447, -187500.02235174447, -187500.02235174447, 0.012, -0.018000000000000002, -0.992, 192.0, 0.0, 0.0, 0.0, 0.0, 0.0, 0.0, 0.0, 0.0, 0.0, 1.67580964011759E9, 0.0, 2023-02-07 17:40:40.117
133.0, 12161.226530221287, 187500.0, 187500.0, 187500.0, -187500.02235174447, -187500.02235174447, -187500.02235174447, -187500.02235174447, 0.012, -0.018000000000000002, -0.992, 192.0, 0.0, 0.0, 0.0, 0.0, 0.0, 0.0, 0.0, 0.0, 0.0, 1.675809640124768E9, 0.0, 2023-02-07 17:40:40.124
134.0, 12062.76709589566, 187500.0, 187500.0, 187500.0, -187500.02235174447, -187500.02235174447, -187500.02235174447, -187500.02235174447, 0.012, -0.018000000000000002, -0.992, 192.0, 0.0, 0.0, 0.0, 0.0, 0.0, 0.0, 0.0, 0.0, 0.0, 1.67580964013273E9, 0.0, 2023-02-07 17:40:40.132
135.0, 12270.683022818926, 187500.0, 187500.0, 187500.0, -187500.02235174447, -187500.02235174447, -187500.02235174447, -187500.02235174447, 0.012, -0.022, -0.992, 192.0, 0.0, 96.0, 255.0, 80.0, 225.0, 0.0, 0.0, 0.0, 0.0, 1.675809640132752E9, 0.0, 2023-02-07 17:40:40.132
136.0, 12061.381287739432, 187500.0, 187500.0, 187500.0, -187500.02235174447, -187500.02235174447, -187500.02235174447, -187500.02235174447, 0.012, -0.022, -0.992, 192.0, 0.0, 0.0, 0.0, 0.0, 0.0, 0.0, 0.0, 0.0, 0.0, 1.675809640140665E9, 0.0, 2023-02-07 17:40:40.140
137.0, 11882.656739074797, 187500.0, 187500.0, 187500.0, -187500.02235174447, -187500.02235174447, -187500.02235174447, -187500.02235174447, 0.012, -0.022, -0.992, 192.0, 0.0, 0.0, 0.0, 0.0, 0.0, 0.0, 0.0, 0.0, 0.0, 1.675809640140679E9, 0.0, 2023-02-07 17:40:40.140
138.0, 11977.159914631835, 187500.0, 187500.0, 187500.0, -187500.02235174447, -187500.02235174447, -187500.02235174447, -187500.02235174447, 0.012, -0.022, -0.992, 192.0, 0.0, 0.0, 0.0, 0.0, 0.0, 0.0, 0.0, 0.0, 0.0, 1.675809640147277E9, 0.0, 2023-02-07 17:40:40.147
139.0, 12183.555922932139, 187500.0, 187500.0, 187500.0, -187500.02235174447, -187500.02235174447, -187500.02235174447, -187500.02235174447, 0.012, -0.022, -0.992, 192.0, 0.0, 0.0, 0.0, 0.0, 0.0, 0.0, 0.0, 0.0, 0.0, 1.675809640147298E9, 0.0, 2023-02-07 17:40:40.147
140.0, 12160.69008835436, 187500.0, 187500.0, 187500.0, -187500.02235174447, -187500.02235174447, -187500.02235174447, -187500.02235174447, 0.012, -0.022, -0.992, 192.0, 0.0, 0.0, 0.0, 0.0, 0.0, 0.0, 0.0, 0.0, 0.0, 1.675809640155354E9, 0.0, 2023-02-07 17:40:40.155
141.0, 12136.840777020549, 187500.0, 187500.0, 187500.0, -187500.02235174447, -187500.02235174447, -187500.02235174447, -187500.02235174447, 0.012, -0.022, -0.992, 192.0, 0.0, 0.0, 0.0, 0.0, 0.0, 0.0, 0.0, 0.0, 0.0, 1.675809640155379E9, 0.0, 2023-02-07 17:40:40.155
142.0, 12202.353740019053, 187500.0, 187500.0, 187500.0, -187500.02235174447, -187500.02235174447, -187500.02235174447, -187500.02235174447, 0.012, -0.022, -0.992, 192.0, 0.0, 0.0, 0.0, 0.0, 0.0, 0.0, 0.0, 0.0, 0.0, 1.675809640163405E9, 0.0, 2023-02-07 17:40:40.163
143.0, 12473.905083406578, 187500.0, 187500.0, 187500.0, -187500.02235174447, -187500.02235174447, -187500.02235174447, -187500.02235174447, 0.012, -0.022, -0.992, 192.0, 0.0, 0.0, 0.0, 0.0, 0.0, 0.0, 0.0, 0.0, 0.0, 1.675809640163427E9, 0.0, 2023-02-07 17:40:40.163
144.0, 12393.729376045392, 187500.0, 187500.0, 187500.0, -187500.02235174447, -187500.02235174447, -187500.02235174447, -187500.02235174447, 0.012, -0.022, -0.992, 192.0, 0.0, 0.0, 0.0, 0.0, 0.0, 0.0, 0.0, 0.0, 0.0, 1.67580964017052E9, 0.0, 2023-02-07 17:40:40.170
145.0, 11769.154580730747, 187500.0, 187500.0, 187500.0, -187500.02235174447, -187500.02235174447, -187500.02235174447, -187500.02235174447, 0.018000000000000002, -0.022, -0.994, 192.0, 0.0, 144.0, 255.0, 80.0, 224.0, 240.0, 0.0, 0.0, 0.0, 1.675809640170575E9, 0.0, 2023-02-07 17:40:40.170
146.0, 12065.896340119403, 187500.0, 187500.0, 187500.0, -187500.02235174447, -187500.02235174447, -187500.02235174447, -187500.02235174447, 0.018000000000000002, -0.022, -0.994, 192.0, 0.0, 0.0, 0.0, 0.0, 0.0, 0.0, 0.0, 0.0, 0.0, 1.675809640177937E9, 0.0, 2023-02-07 17:40:40.177
147.0, 12431.593231152681, 187500.0, 187500.0, 187500.0, -187500.02235174447, -187500.02235174447, -187500.02235174447, -187500.02235174447, 0.018000000000000002, -0.022, -0.994, 192.0, 0.0, 0.0, 0.0, 0.0, 0.0, 0.0, 0.0, 0.0, 0.0, 1.675809640177949E9, 0.0, 2023-02-07 17:40:40.177
148.0, 12070.299633777098, 187500.0, 187500.0, 187500.0, -187500.02235174447, -187500.02235174447, -187500.02235174447, -187500.02235174447, 0.018000000000000002, -0.022, -0.994, 192.0, 0.0, 0.0, 0.0, 0.0, 0.0, 0.0, 0.0, 0.0, 0.0, 1.675809640184891E9, 0.0, 2023-02-07 17:40:40.184
149.0, 11711.107100380314, 187500.0, 187500.0, 187500.0, -187500.02235174447, -187500.02235174447, -187500.02235174447, -187500.02235174447, 0.018000000000000002, -0.022, -0.994, 192.0, 0.0, 0.0, 0.0, 0.0, 0.0, 0.0, 0.0, 0.0, 0.0, 1.675809640184904E9, 0.0, 2023-02-07 17:40:40.184
150.0, 11914.329160967965, 187500.0, 187500.0, 187500.0, -187500.02235174447, -187500.02235174447, -187500.02235174447, -187500.02235174447, 0.018000000000000002, -0.022, -0.994, 192.0, 0.0, 0.0, 0.0, 0.0, 0.0, 0.0, 0.0, 0.0, 0.0, 1.675809640193123E9, 0.0, 2023-02-07 17:40:40.193
151.0, 12153.001088261735, 187500.0, 187500.0, 187500.0, -187500.02235174447, -187500.02235174447, -187500.02235174447, -187500.02235174447, 0.018000000000000002, -0.022, -0.994, 192.0, 0.0, 0.0, 0.0, 0.0, 0.0, 0.0, 0.0, 0.0, 0.0, 1.675809640200113E9, 0.0, 2023-02-07 17:40:40.200
152.0, 12386.643873053059, 187500.0, 187500.0, 187500.0, -187500.02235174447, -187500.02235174447, -187500.02235174447, -187500.02235174447, 0.018000000000000002, -0.022, -0.994, 192.0, 0.0, 0.0, 0.0, 0.0, 0.0, 0.0, 0.0, 0.0, 0.0, 1.675809640200131E9, 0.0, 2023-02-07 17:40:40.200
153.0, 12322.427311232963, 187500.0, 187500.0, 187500.0, -187500.02235174447, -187500.02235174447, -187500.02235174447, -187500.02235174447, 0.018000000000000002, -0.022, -0.994, 192.0, 0.0, 0.0, 0.0, 0.0, 0.0, 0.0, 0.0, 0.0, 0.0, 1.675809640207835E9, 0.0, 2023-02-07 17:40:40.207
154.0, 11989.94511246027, 187500.0, 187500.0, 187500.0, -187500.02235174447, -187500.02235174447, -187500.02235174447, -187500.02235174447, 0.018000000000000002, -0.022, -0.994, 192.0, 0.0, 0.0, 0.0, 0.0, 0.0, 0.0, 0.0, 0.0, 0.0, 1.675809640207846E9, 0.0, 2023-02-07 17:40:40.207
155.0, 12028.345409434487, 187500.0, 187500.0, 187500.0, -187500.02235174447, -187500.02235174447, -187500.02235174447, -187500.02235174447, 0.018000000000000002, -0.022, -0.992, 192.0, 0.0, 144.0, 255.0, 80.0, 225.0, 0.0, 0.0, 0.0, 0.0, 1.675809640215625E9, 0.0, 2023-02-07 17:40:40.215
156.0, 12352.87038718109, 187500.0, 187500.0, 187500.0, -187500.02235174447, -187500.02235174447, -187500.02235174447, -187500.02235174447, 0.018000000000000002, -0.022, -0.992, 192.0, 0.0, 0.0, 0.0, 0.0, 0.0, 0.0, 0.0, 0.0, 0.0, 1.675809640215638E9, 0.0, 2023-02-07 17:40:40.215
157.0, 12395.361053390629, 187500.0, 187500.0, 187500.0, -187500.02235174447, -187500.02235174447, -187500.02235174447, -187500.02235174447, 0.018000000000000002, -0.022, -0.992, 192.0, 0.0, 0.0, 0.0, 0.0, 0.0, 0.0, 0.0, 0.0, 0.0, 1.675809640223582E9, 0.0, 2023-02-07 17:40:40.223
158.0, 12171.88831232647, 187500.0, 187500.0, 187500.0, -187500.02235174447, -187500.02235174447, -187500.02235174447, -187500.02235174447, 0.018000000000000002, -0.022, -0.992, 192.0, 0.0, 0.0, 0.0, 0.0, 0.0, 0.0, 0.0, 0.0, 0.0, 1.675809640223597E9, 0.0, 2023-02-07 17:40:40.223
159.0, 11810.505307973064, 187500.0, 187500.0, 187500.0, -187500.02235174447, -187500.02235174447, -187500.02235174447, -187500.02235174447, 0.018000000000000002, -0.022, -0.992, 192.0, 0.0, 0.0, 0.0, 0.0, 0.0, 0.0, 0.0, 0.0, 0.0, 1.675809640230336E9, 0.0, 2023-02-07 17:40:40.230
160.0, 12025.260868699655, 187500.0, 187500.0, 187500.0, -187500.02235174447, -187500.02235174447, -187500.02235174447, -187500.02235174447, 0.018000000000000002, -0.022, -0.992, 192.0, 0.0, 0.0, 0.0, 0.0, 0.0, 0.0, 0.0, 0.0, 0.0, 1.675809640230381E9, 0.0, 2023-02-07 17:40:40.230
161.0, 12319.543936198228, 187500.0, 187500.0, 187500.0, -187500.02235174447, -187500.02235174447, -187500.02235174447, -187500.02235174447, 0.018000000000000002, -0.022, -0.992, 192.0, 0.0, 0.0, 0.0, 0.0, 0.0, 0.0, 0.0, 0.0, 0.0, 1.675809640238298E9, 0.0, 2023-02-07 17:40:40.238
162.0, 12369.522436800295, 187500.0, 187500.0, 187500.0, -187500.02235174447, -187500.02235174447, -187500.02235174447, -187500.02235174447, 0.018000000000000002, -0.022, -0.992, 192.0, 0.0, 0.0, 0.0, 0.0, 0.0, 0.0, 0.0, 0.0, 0.0, 1.675809640238328E9, 0.0, 2023-02-07 17:40:40.238
163.0, 12091.936122409836, 187500.0, 187500.0, 187500.0, -187500.02235174447, -187500.02235174447, -187500.02235174447, -187500.02235174447, 0.018000000000000002, -0.022, -0.992, 192.0, 0.0, 0.0, 0.0, 0.0, 0.0, 0.0, 0.0, 0.0, 0.0, 1.675809640246218E9, 0.0, 2023-02-07 17:40:40.246
164.0, 12177.588007162572, 187500.0, 187500.0, 187500.0, -187500.02235174447, -187500.02235174447, -187500.02235174447, -187500.02235174447, 0.018000000000000002, -0.022, -0.992, 192.0, 0.0, 0.0, 0.0, 0.0, 0.0, 0.0, 0.0, 0.0, 0.0, 1.675809640246239E9, 0.0, 2023-02-07 17:40:40.246
165.0, 12250.566452809151, 187500.0, 187500.0, 187500.0, -187500.02235174447, -187500.02235174447, -187500.02235174447, -187500.02235174447, 0.016, -0.02, -0.992, 192.0, 0.0, 128.0, 255.0, 96.0, 225.0, 0.0, 0.0, 0.0, 0.0, 1.675809640253408E9, 0.0, 2023-02-07 17:40:40.253
166.0, 12011.335731903999, 187500.0, 187500.0, 187500.0, -187500.02235174447, -187500.02235174447, -187500.02235174447, -187500.02235174447, 0.016, -0.02, -0.992, 192.0, 0.0, 0.0, 0.0, 0.0, 0.0, 0.0, 0.0, 0.0, 0.0, 1.675809640259864E9, 0.0, 2023-02-07 17:40:40.259
167.0, 12196.899914371957, 187500.0, 187500.0, 187500.0, -187500.02235174447, -187500.02235174447, -187500.02235174447, -187500.02235174447, 0.016, -0.02, -0.992, 192.0, 0.0, 0.0, 0.0, 0.0, 0.0, 0.0, 0.0, 0.0, 0.0, 1.675809640259877E9, 0.0, 2023-02-07 17:40:40.259
168.0, 12340.576927730672, 187500.0, 187500.0, 187500.0, -187500.02235174447, -187500.02235174447, -187500.02235174447, -187500.02235174447, 0.016, -0.02, -0.992, 192.0, 0.0, 0.0, 0.0, 0.0, 0.0, 0.0, 0.0, 0.0, 0.0, 1.675809640267797E9, 0.0, 2023-02-07 17:40:40.267
169.0, 12132.63864906295, 187500.0, 187500.0, 187500.0, -187500.02235174447, -187500.02235174447, -187500.02235174447, -187500.02235174447, 0.016, -0.02, -0.992, 192.0, 0.0, 0.0, 0.0, 0.0, 0.0, 0.0, 0.0, 0.0, 0.0, 1.675809640267811E9, 0.0, 2023-02-07 17:40:40.267
170.0, 12147.189634703354, 187500.0, 187500.0, 187500.0, -187500.02235174447, -187500.02235174447, -187500.02235174447, -187500.02235174447, 0.016, -0.02, -0.992, 192.0, 0.0, 0.0, 0.0, 0.0, 0.0, 0.0, 0.0, 0.0, 0.0, 1.675809640277294E9, 0.0, 2023-02-07 17:40:40.277
171.0, 12178.370318218509, 187500.0, 187500.0, 187500.0, -187500.02235174447, -187500.02235174447, -187500.02235174447, -187500.02235174447, 0.016, -0.02, -0.992, 192.0, 0.0, 0.0, 0.0, 0.0, 0.0, 0.0, 0.0, 0.0, 0.0, 1.675809640277313E9, 0.0, 2023-02-07 17:40:40.277
172.0, 12416.125823989609, 187500.0, 187500.0, 187500.0, -187500.02235174447, -187500.02235174447, -187500.02235174447, -187500.02235174447, 0.016, -0.02, -0.992, 192.0, 0.0, 0.0, 0.0, 0.0, 0.0, 0.0, 0.0, 0.0, 0.0, 1.675809640282481E9, 0.0, 2023-02-07 17:40:40.282
173.0, 12022.131624475913, 187500.0, 187500.0, 187500.0, -187500.02235174447, -187500.02235174447, -187500.02235174447, -187500.02235174447, 0.016, -0.02, -0.992, 192.0, 0.0, 0.0, 0.0, 0.0, 0.0, 0.0, 0.0, 0.0, 0.0, 1.675809640282514E9, 0.0, 2023-02-07 17:40:40.282
174.0, 11808.113671316347, 187500.0, 187500.0, 187500.0, -187500.02235174447, -187500.02235174447, -187500.02235174447, -187500.02235174447, 0.016, -0.02, -0.992, 192.0, 0.0, 0.0, 0.0, 0.0, 0.0, 0.0, 0.0, 0.0, 0.0, 1.675809640290578E9, 0.0, 2023-02-07 17:40:40.290
175.0, 12105.995369672224, 187500.0, 187500.0, 187500.0, -187500.02235174447, -187500.02235174447, -187500.02235174447, -187500.02235174447, 0.012, -0.022, -0.998, 192.0, 0.0, 96.0, 255.0, 80.0, 224.0, 208.0, 0.0, 0.0, 0.0, 1.675809640290612E9, 0.0, 2023-02-07 17:40:40.290
176.0, 12358.413619806006, 187500.0, 187500.0, 187500.0, -187500.02235174447, -187500.02235174447, -187500.02235174447, -187500.02235174447, 0.012, -0.022, -0.998, 192.0, 0.0, 0.0, 0.0, 0.0, 0.0, 0.0, 0.0, 0.0, 0.0, 1.675809640298497E9, 0.0, 2023-02-07 17:40:40.298
177.0, 12212.188507579387, 187500.0, 187500.0, 187500.0, -187500.02235174447, -187500.02235174447, -187500.02235174447, -187500.02235174447, 0.012, -0.022, -0.998, 192.0, 0.0, 0.0, 0.0, 0.0, 0.0, 0.0, 0.0, 0.0, 0.0, 1.675809640298512E9, 0.0, 2023-02-07 17:40:40.298
178.0, 12058.564967938062, 187500.0, 187500.0, 187500.0, -187500.02235174447, -187500.02235174447, -187500.02235174447, -187500.02235174447, 0.012, -0.022, -0.998, 192.0, 0.0, 0.0, 0.0, 0.0, 0.0, 0.0, 0.0, 0.0, 0.0, 1.675809640305597E9, 0.0, 2023-02-07 17:40:40.305
179.0, 12529.136243955641, 187500.0, 187500.0, 187500.0, -187500.02235174447, -187500.02235174447, -187500.02235174447, -187500.02235174447, 0.012, -0.022, -0.998, 192.0, 0.0, 0.0, 0.0, 0.0, 0.0, 0.0, 0.0, 0.0, 0.0, 1.675809640305615E9, 0.0, 2023-02-07 17:40:40.305
180.0, 12250.857025487068, 187500.0, 187500.0, 187500.0, -187500.02235174447, -187500.02235174447, -187500.02235174447, -187500.02235174447, 0.012, -0.022, -0.998, 192.0, 0.0, 0.0, 0.0, 0.0, 0.0, 0.0, 0.0, 0.0, 0.0, 1.675809640312147E9, 0.0, 2023-02-07 17:40:40.312
181.0, 11815.601505708875, 187500.0, 187500.0, 187500.0, -187500.02235174447, -187500.02235174447, -187500.02235174447, -187500.02235174447, 0.012, -0.022, -0.998, 192.0, 0.0, 0.0, 0.0, 0.0, 0.0, 0.0, 0.0, 0.0, 0.0, 1.675809640320664E9, 0.0, 2023-02-07 17:40:40.320
182.0, 11982.300815856555, 187500.0, 187500.0, 187500.0, -187500.02235174447, -187500.02235174447, -187500.02235174447, -187500.02235174447, 0.012, -0.022, -0.998, 192.0, 0.0, 0.0, 0.0, 0.0, 0.0, 0.0, 0.0, 0.0, 0.0, 1.675809640320688E9, 0.0, 2023-02-07 17:40:40.320
183.0, 12196.74345216077, 187500.0, 187500.0, 187500.0, -187500.02235174447, -187500.02235174447, -187500.02235174447, -187500.02235174447, 0.012, -0.022, -0.998, 192.0, 0.0, 0.0, 0.0, 0.0, 0.0, 0.0, 0.0, 0.0, 0.0, 1.675809640328126E9, 0.0, 2023-02-07 17:40:40.328
184.0, 12552.605575633714, 187500.0, 187500.0, 187500.0, -187500.02235174447, -187500.02235174447, -187500.02235174447, -187500.02235174447, 0.012, -0.024, -0.994, 192.0, 0.0, 96.0, 255.0, 64.0, 224.0, 240.0, 0.0, 0.0, 0.0, 1.675809640328148E9, 0.0, 2023-02-07 17:40:40.328
185.0, 12077.474543747252, 187500.0, 187500.0, 187500.0, -187500.02235174447, -187500.02235174447, -187500.02235174447, -187500.02235174447, 0.012, -0.024, -0.994, 192.0, 0.0, 0.0, 0.0, 0.0, 0.0, 0.0, 0.0, 0.0, 0.0, 1.675809640335474E9, 0.0, 2023-02-07 17:40:40.335
186.0, 11906.863678319893, 187500.0, 187500.0, 187500.0, -187500.02235174447, -187500.02235174447, -187500.02235174447, -187500.02235174447, 0.012, -0.024, -0.994, 192.0, 0.0, 0.0, 0.0, 0.0, 0.0, 0.0, 0.0, 0.0, 0.0, 1.675809640335496E9, 0.0, 2023-02-07 17:40:40.335
187.0, 12193.345987003564, 187500.0, 187500.0, 187500.0, -187500.02235174447, -187500.02235174447, -187500.02235174447, -187500.02235174447, 0.012, -0.024, -0.994, 192.0, 0.0, 0.0, 0.0, 0.0, 0.0, 0.0, 0.0, 0.0, 0.0, 1.675809640342768E9, 0.0, 2023-02-07 17:40:40.342
188.0, 12113.460852320297, 187500.0, 187500.0, 187500.0, -187500.02235174447, -187500.02235174447, -187500.02235174447, -187500.02235174447, 0.012, -0.024, -0.994, 192.0, 0.0, 0.0, 0.0, 0.0, 0.0, 0.0, 0.0, 0.0, 0.0, 1.675809640342781E9, 0.0, 2023-02-07 17:40:40.342
189.0, 12300.008511544289, 187500.0, 187500.0, 187500.0, -187500.02235174447, -187500.02235174447, -187500.02235174447, -187500.02235174447, 0.012, -0.024, -0.994, 192.0, 0.0, 0.0, 0.0, 0.0, 0.0, 0.0, 0.0, 0.0, 0.0, 1.675809640350917E9, 0.0, 2023-02-07 17:40:40.350
190.0, 12476.9449206525, 187500.0, 187500.0, 187500.0, -187500.02235174447, -187500.02235174447, -187500.02235174447, -187500.02235174447, 0.012, -0.024, -0.994, 192.0, 0.0, 0.0, 0.0, 0.0, 0.0, 0.0, 0.0, 0.0, 0.0, 1.675809640350969E9, 0.0, 2023-02-07 17:40:40.350
191.0, 12097.009968401191, 187500.0, 187500.0, 187500.0, -187500.02235174447, -187500.02235174447, -187500.02235174447, -187500.02235174447, 0.012, -0.024, -0.994, 192.0, 0.0, 0.0, 0.0, 0.0, 0.0, 0.0, 0.0, 0.0, 0.0, 1.67580964035884E9, 0.0, 2023-02-07 17:40:40.358
192.0, 12057.38032548193, 187500.0, 187500.0, 187500.0, -187500.02235174447, -187500.02235174447, -187500.02235174447, -187500.02235174447, 0.012, -0.024, -0.994, 192.0, 0.0, 0.0, 0.0, 0.0, 0.0, 0.0, 0.0, 0.0, 0.0, 1.675809640358856E9, 0.0, 2023-02-07 17:40:40.358
193.0, 12182.952425831847, 187500.0, 187500.0, 187500.0, -187500.02235174447, -187500.02235174447, -187500.02235174447, -187500.02235174447, 0.012, -0.024, -0.994, 192.0, 0.0, 0.0, 0.0, 0.0, 0.0, 0.0, 0.0, 0.0, 0.0, 1.675809640365365E9, 0.0, 2023-02-07 17:40:40.365
194.0, 12192.921303858913, 187500.0, 187500.0, 187500.0, -187500.02235174447, -187500.02235174447, -187500.02235174447, -187500.02235174447, 0.012, -0.022, -0.996, 192.0, 0.0, 96.0, 255.0, 80.0, 224.0, 224.0, 0.0, 0.0, 0.0, 1.675809640365388E9, 0.0, 2023-02-07 17:40:40.365
195.0, 12479.18009509803, 187500.0, 187500.0, 187500.0, -187500.02235174447, -187500.02235174447, -187500.02235174447, -187500.02235174447, 0.012, -0.022, -0.996, 192.0, 0.0, 0.0, 0.0, 0.0, 0.0, 0.0, 0.0, 0.0, 0.0, 1.675809640372414E9, 0.0, 2023-02-07 17:40:40.372
196.0, 12359.486503539862, 187500.0, 187500.0, 187500.0, -187500.02235174447, -187500.02235174447, -187500.02235174447, -187500.02235174447, 0.012, -0.022, -0.996, 192.0, 0.0, 0.0, 0.0, 0.0, 0.0, 0.0, 0.0, 0.0, 0.0, 1.675809640380354E9, 0.0, 2023-02-07 17:40:40.380
197.0, 12050.63009865643, 187500.0, 187500.0, 187500.0, -187500.02235174447, -187500.02235174447, -187500.02235174447, -187500.02235174447, 0.012, -0.022, -0.996, 192.0, 0.0, 0.0, 0.0, 0.0, 0.0, 0.0, 0.0, 0.0, 0.0, 1.675809640380366E9, 0.0, 2023-02-07 17:40:40.380
198.0, 12221.106853617055, 187500.0, 187500.0, 187500.0, -187500.02235174447, -187500.02235174447, -187500.02235174447, -187500.02235174447, 0.012, -0.022, -0.996, 192.0, 0.0, 0.0, 0.0, 0.0, 0.0, 0.0, 0.0, 0.0, 0.0, 1.67580964038914E9, 0.0, 2023-02-07 17:40:40.389
199.0, 12205.393577264975, 187500.0, 187500.0, 187500.0, -187500.02235174447, -187500.02235174447, -187500.02235174447, -187500.02235174447, 0.012, -0.022, -0.996, 192.0, 0.0, 0.0, 0.0, 0.0, 0.0, 0.0, 0.0, 0.0, 0.0, 1.675809640389156E9, 0.0, 2023-02-07 17:40:40.389
200.0, 12255.193263911398, 187500.0, 187500.0, 187500.0, -187500.02235174447, -187500.02235174447, -187500.02235174447, -187500.02235174447, 0.012, -0.022, -0.996, 192.0, 0.0, 0.0, 0.0, 0.0, 0.0, 0.0, 0.0, 0.0, 0.0, 1.675809640395864E9, 0.0, 2023-02-07 17:40:40.395
201.0, 12165.383954689974, 187500.0, 187500.0, 187500.0, -187500.02235174447, -187500.02235174447, -187500.02235174447, -187500.02235174447, 0.012, -0.022, -0.996, 192.0, 0.0, 0.0, 0.0, 0.0, 0.0, 0.0, 0.0, 0.0, 0.0, 1.675809640395881E9, 0.0, 2023-02-07 17:40:40.395
202.0, 12029.105368745968, 187500.0, 187500.0, 187500.0, -187500.02235174447, -187500.02235174447, -187500.02235174447, -187500.02235174447, 0.012, -0.022, -0.996, 192.0, 0.0, 0.0, 0.0, 0.0, 0.0, 0.0, 0.0, 0.0, 0.0, 1.675809640403865E9, 0.0, 2023-02-07 17:40:40.403
203.0, 12159.907777298426, 187500.0, 187500.0, 187500.0, -187500.02235174447, -187500.02235174447, -187500.02235174447, -187500.02235174447, 0.012, -0.022, -0.996, 192.0, 0.0, 0.0, 0.0, 0.0, 0.0, 0.0, 0.0, 0.0, 0.0, 1.675809640403878E9, 0.0, 2023-02-07 17:40:40.403
204.0, 12099.62512250246, 187500.0, 187500.0, 187500.0, -187500.02235174447, -187500.02235174447, -187500.02235174447, -187500.02235174447, 0.008, -0.022, -0.996, 192.0, 0.0, 64.0, 255.0, 80.0, 224.0, 224.0, 0.0, 0.0, 0.0, 1.675809640410294E9, 0.0, 2023-02-07 17:40:40.410
205.0, 12330.853918892613, 187500.0, 187500.0, 187500.0, -187500.02235174447, -187500.02235174447, -187500.02235174447, -187500.02235174447, 0.008, -0.022, -0.996, 192.0, 0.0, 0.0, 0.0, 0.0, 0.0, 0.0, 0.0, 0.0, 0.0, 1.67580964041039E9, 0.0, 2023-02-07 17:40:40.410
206.0, 12622.745349734469, 187500.0, 187500.0, 187500.0, -187500.02235174447, -187500.02235174447, -187500.02235174447, -187500.02235174447, 0.008, -0.022, -0.996, 192.0, 0.0, 0.0, 0.0, 0.0, 0.0, 0.0, 0.0, 0.0, 0.0, 1.675809640418365E9, 0.0, 2023-02-07 17:40:40.418
207.0, 12454.883748875112, 187500.0, 187500.0, 187500.0, -187500.02235174447, -187500.02235174447, -187500.02235174447, -187500.02235174447, 0.008, -0.022, -0.996, 192.0, 0.0, 0.0, 0.0, 0.0, 0.0, 0.0, 0.0, 0.0, 0.0, 1.675809640418384E9, 0.0, 2023-02-07 17:40:40.418
208.0, 11761.622042849309, 187500.0, 187500.0, 187500.0, -187500.02235174447, -187500.02235174447, -187500.02235174447, -187500.02235174447, 0.008, -0.022, -0.996, 192.0, 0.0, 0.0, 0.0, 0.0, 0.0, 0.0, 0.0, 0.0, 0.0, 1.675809640426411E9, 0.0, 2023-02-07 17:40:40.426
209.0, 11918.2630679921, 187500.0, 187500.0, 187500.0, -187500.02235174447, -187500.02235174447, -187500.02235174447, -187500.02235174447, 0.008, -0.022, -0.996, 192.0, 0.0, 0.0, 0.0, 0.0, 0.0, 0.0, 0.0, 0.0, 0.0, 1.675809640426422E9, 0.0, 2023-02-07 17:40:40.426
210.0, 12157.426733663886, 187500.0, 187500.0, 187500.0, -187500.02235174447, -187500.02235174447, -187500.02235174447, -187500.02235174447, 0.008, -0.022, -0.996, 192.0, 0.0, 0.0, 0.0, 0.0, 0.0, 0.0, 0.0, 0.0, 0.0, 1.675809640432514E9, 0.0, 2023-02-07 17:40:40.432
211.0, 12232.595650267083, 187500.0, 187500.0, 187500.0, -187500.02235174447, -187500.02235174447, -187500.02235174447, -187500.02235174447, 0.008, -0.022, -0.996, 192.0, 0.0, 0.0, 0.0, 0.0, 0.0, 0.0, 0.0, 0.0, 0.0, 1.67580964043253E9, 0.0, 2023-02-07 17:40:40.432
212.0, 12447.306507504763, 187500.0, 187500.0, 187500.0, -187500.02235174447, -187500.02235174447, -187500.02235174447, -187500.02235174447, 0.008, -0.022, -0.996, 192.0, 0.0, 0.0, 0.0, 0.0, 0.0, 0.0, 0.0, 0.0, 0.0, 1.675809640440063E9, 0.0, 2023-02-07 17:40:40.440
213.0, 12789.645825582245, 187500.0, 187500.0, 187500.0, -187500.02235174447, -187500.02235174447, -187500.02235174447, -187500.02235174447, 0.008, -0.022, -0.996, 192.0, 0.0, 0.0, 0.0, 0.0, 0.0, 0.0, 0.0, 0.0, 0.0, 1.675809640448075E9, 0.0, 2023-02-07 17:40:40.448
214.0, 12091.01970088717, 187500.0, 187500.0, 187500.0, -187500.02235174447, -187500.02235174447, -187500.02235174447, -187500.02235174447, 0.014, -0.026000000000000002, -0.996, 192.0, 0.0, 112.0, 255.0, 48.0, 224.0, 224.0, 0.0, 0.0, 0.0, 1.675809640448092E9, 0.0, 2023-02-07 17:40:40.448
215.0, 11689.60472221431, 187500.0, 187500.0, 187500.0, -187500.02235174447, -187500.02235174447, -187500.02235174447, -187500.02235174447, 0.014, -0.026000000000000002, -0.996, 192.0, 0.0, 0.0, 0.0, 0.0, 0.0, 0.0, 0.0, 0.0, 0.0, 1.675809640456051E9, 0.0, 2023-02-07 17:40:40.456
216.0, 11969.917949428314, 187500.0, 187500.0, 187500.0, -187500.02235174447, -187500.02235174447, -187500.02235174447, -187500.02235174447, 0.014, -0.026000000000000002, -0.996, 192.0, 0.0, 0.0, 0.0, 0.0, 0.0, 0.0, 0.0, 0.0, 0.0, 1.675809640456073E9, 0.0, 2023-02-07 17:40:40.456
217.0, 12454.302603519274, 187500.0, 187500.0, 187500.0, -187500.02235174447, -187500.02235174447, -187500.02235174447, -187500.02235174447, 0.014, -0.026000000000000002, -0.996, 192.0, 0.0, 0.0, 0.0, 0.0, 0.0, 0.0, 0.0, 0.0, 0.0, 1.675809640462659E9, 0.0, 2023-02-07 17:40:40.462
218.0, 12928.18193771624, 187500.0, 187500.0, 187500.0, -187500.02235174447, -187500.02235174447, -187500.02235174447, -187500.02235174447, 0.014, -0.026000000000000002, -0.996, 192.0, 0.0, 0.0, 0.0, 0.0, 0.0, 0.0, 0.0, 0.0, 0.0, 1.675809640462671E9, 0.0, 2023-02-07 17:40:40.462
219.0, 12137.35486714302, 187500.0, 187500.0, 187500.0, -187500.02235174447, -187500.02235174447, -187500.02235174447, -187500.02235174447, 0.014, -0.026000000000000002, -0.996, 192.0, 0.0, 0.0, 0.0, 0.0, 0.0, 0.0, 0.0, 0.0, 0.0, 1.675809640470614E9, 0.0, 2023-02-07 17:40:40.470
220.0, 11720.338370840356, 187500.0, 187500.0, 187500.0, -187500.02235174447, -187500.02235174447, -187500.02235174447, -187500.02235174447, 0.014, -0.026000000000000002, -0.996, 192.0, 0.0, 0.0, 0.0, 0.0, 0.0, 0.0, 0.0, 0.0, 0.0, 1.675809640470674E9, 0.0, 2023-02-07 17:40:40.470
221.0, 12083.755383939193, 187500.0, 187500.0, 187500.0, -187500.02235174447, -187500.02235174447, -187500.02235174447, -187500.02235174447, 0.014, -0.026000000000000002, -0.996, 192.0, 0.0, 0.0, 0.0, 0.0, 0.0, 0.0, 0.0, 0.0, 0.0, 1.675809640478736E9, 0.0, 2023-02-07 17:40:40.478
222.0, 12171.1730565039, 187500.0, 187500.0, 187500.0, -187500.02235174447, -187500.02235174447, -187500.02235174447, -187500.02235174447, 0.014, -0.026000000000000002, -0.996, 192.0, 0.0, 0.0, 0.0, 0.0, 0.0, 0.0, 0.0, 0.0, 0.0, 1.675809640478752E9, 0.0, 2023-02-07 17:40:40.478
223.0, 12234.406141567963, 187500.0, 187500.0, 187500.0, -187500.02235174447, -187500.02235174447, -187500.02235174447, -187500.02235174447, 0.014, -0.026000000000000002, -0.996, 192.0, 0.0, 0.0, 0.0, 0.0, 0.0, 0.0, 0.0, 0.0, 0.0, 1.675809640485942E9, 0.0, 2023-02-07 17:40:40.485
224.0, 12391.158925433032, 187500.0, 187500.0, 187500.0, -187500.02235174447, -187500.02235174447, -187500.02235174447, -187500.02235174447, 0.012, -0.022, -0.996, 192.0, 0.0, 96.0, 255.0, 80.0, 224.0, 224.0, 0.0, 0.0, 0.0, 1.675809640485956E9, 0.0, 2023-02-07 17:40:40.485
225.0, 12531.863156779189, 187500.0, 187500.0, 187500.0, -187500.02235174447, -187500.02235174447, -187500.02235174447, -187500.02235174447, 0.012, -0.022, -0.996, 192.0, 0.0, 0.0, 0.0, 0.0, 0.0, 0.0, 0.0, 0.0, 0.0, 1.675809640493343E9, 0.0, 2023-02-07 17:40:40.493
226.0, 12698.51776343796, 187500.0, 187500.0, 187500.0, -187500.02235174447, -187500.02235174447, -187500.02235174447, -187500.02235174447, 0.012, -0.022, -0.996, 192.0, 0.0, 0.0, 0.0, 0.0, 0.0, 0.0, 0.0, 0.0, 0.0, 1.675809640493365E9, 0.0, 2023-02-07 17:40:40.493
227.0, 11958.071524867002, 187500.0, 187500.0, 187500.0, -187500.02235174447, -187500.02235174447, -187500.02235174447, -187500.02235174447, 0.012, -0.022, -0.996, 192.0, 0.0, 0.0, 0.0, 0.0, 0.0, 0.0, 0.0, 0.0, 0.0, 1.675809640500297E9, 0.0, 2023-02-07 17:40:40.500
228.0, 11759.096295725858, 187500.0, 187500.0, 187500.0, -187500.02235174447, -187500.02235174447, -187500.02235174447, -187500.02235174447, 0.012, -0.022, -0.996, 192.0, 0.0, 0.0, 0.0, 0.0, 0.0, 0.0, 0.0, 0.0, 0.0, 1.675809640508313E9, 0.0, 2023-02-07 17:40:40.508
229.0, 12077.273378047155, 187500.0, 187500.0, 187500.0, -187500.02235174447, -187500.02235174447, -187500.02235174447, -187500.02235174447, 0.012, -0.022, -0.996, 192.0, 0.0, 0.0, 0.0, 0.0, 0.0, 0.0, 0.0, 0.0, 0.0, 1.675809640508335E9, 0.0, 2023-02-07 17:40:40.508
230.0, 12408.54858261926, 187500.0, 187500.0, 187500.0, -187500.02235174447, -187500.02235174447, -187500.02235174447, -187500.02235174447, 0.012, -0.022, -0.996, 192.0, 0.0, 0.0, 0.0, 0.0, 0.0, 0.0, 0.0, 0.0, 0.0, 1.675809640515572E9, 0.0, 2023-02-07 17:40:40.515
231.0, 12382.084117184177, 187500.0, 187500.0, 187500.0, -187500.02235174447, -187500.02235174447, -187500.02235174447, -187500.02235174447, 0.012, -0.022, -0.996, 192.0, 0.0, 0.0, 0.0, 0.0, 0.0, 0.0, 0.0, 0.0, 0.0, 1.675809640515584E9, 0.0, 2023-02-07 17:40:40.515
232.0, 12212.948466890868, 187500.0, 187500.0, 187500.0, -187500.02235174447, -187500.02235174447, -187500.02235174447, -187500.02235174447, 0.012, -0.022, -0.996, 192.0, 0.0, 0.0, 0.0, 0.0, 0.0, 0.0, 0.0, 0.0, 0.0, 1.675809640523E9, 0.0, 2023-02-07 17:40:40.523
233.0, 11988.201676392757, 187500.0, 187500.0, 187500.0, -187500.02235174447, -187500.02235174447, -187500.02235174447, -187500.02235174447, 0.012, -0.022, -0.996, 192.0, 0.0, 0.0, 0.0, 0.0, 0.0, 0.0, 0.0, 0.0, 0.0, 1.675809640523013E9, 0.0, 2023-02-07 17:40:40.523
234.0, 12160.824198821092, 187500.0, 187500.0, 187500.0, -187500.02235174447, -187500.02235174447, -187500.02235174447, -187500.02235174447, 0.014, -0.024, -0.994, 192.0, 0.0, 112.0, 255.0, 64.0, 224.0, 240.0, 0.0, 0.0, 0.0, 1.675809640530961E9, 0.0, 2023-02-07 17:40:40.530
235.0, 12332.284430537753, 187500.0, 187500.0, 187500.0, -187500.02235174447, -187500.02235174447, -187500.02235174447, -187500.02235174447, 0.014, -0.024, -0.994, 192.0, 0.0, 0.0, 0.0, 0.0, 0.0, 0.0, 0.0, 0.0, 0.0, 1.675809640531015E9, 0.0, 2023-02-07 17:40:40.531
236.0, 12371.310576356718, 187500.0, 187500.0, 187500.0, -187500.02235174447, -187500.02235174447, -187500.02235174447, -187500.02235174447, 0.014, -0.024, -0.994, 192.0, 0.0, 0.0, 0.0, 0.0, 0.0, 0.0, 0.0, 0.0, 0.0, 1.675809640538975E9, 0.0, 2023-02-07 17:40:40.538
237.0, 12300.299084222208, 187500.0, 187500.0, 187500.0, -187500.02235174447, -187500.02235174447, -187500.02235174447, -187500.02235174447, 0.014, -0.024, -0.994, 192.0, 0.0, 0.0, 0.0, 0.0, 0.0, 0.0, 0.0, 0.0, 0.0, 1.675809640538995E9, 0.0, 2023-02-07 17:40:40.538
238.0, 12464.852626902179, 187500.0, 187500.0, 187500.0, -187500.02235174447, -187500.02235174447, -187500.02235174447, -187500.02235174447, 0.014, -0.024, -0.994, 192.0, 0.0, 0.0, 0.0, 0.0, 0.0, 0.0, 0.0, 0.0, 0.0, 1.675809640545581E9, 0.0, 2023-02-07 17:40:40.545
239.0, 12262.815208770659, 187500.0, 187500.0, 187500.0, -187500.02235174447, -187500.02235174447, -187500.02235174447, -187500.02235174447, 0.014, -0.024, -0.994, 192.0, 0.0, 0.0, 0.0, 0.0, 0.0, 0.0, 0.0, 0.0, 0.0, 1.675809640545595E9, 0.0, 2023-02-07 17:40:40.545
240.0, 12156.912643541413, 187500.0, 187500.0, 187500.0, -187500.02235174447, -187500.02235174447, -187500.02235174447, -187500.02235174447, 0.014, -0.024, -0.994, 192.0, 0.0, 0.0, 0.0, 0.0, 0.0, 0.0, 0.0, 0.0, 0.0, 1.675809640553562E9, 0.0, 2023-02-07 17:40:40.553
241.0, 12311.854936105603, 187500.0, 187500.0, 187500.0, -187500.02235174447, -187500.02235174447, -187500.02235174447, -187500.02235174447, 0.014, -0.024, -0.994, 192.0, 0.0, 0.0, 0.0, 0.0, 0.0, 0.0, 0.0, 0.0, 0.0, 1.675809640553581E9, 0.0, 2023-02-07 17:40:40.553
242.0, 12610.340131561772, 187500.0, 187500.0, 187500.0, -187500.02235174447, -187500.02235174447, -187500.02235174447, -187500.02235174447, 0.014, -0.024, -0.994, 192.0, 0.0, 0.0, 0.0, 0.0, 0.0, 0.0, 0.0, 0.0, 0.0, 1.675809640560606E9, 0.0, 2023-02-07 17:40:40.560
243.0, 12332.172671815477, 187500.0, 187500.0, 187500.0, -187500.02235174447, -187500.02235174447, -187500.02235174447, -187500.02235174447, 0.014, -0.024, -0.994, 192.0, 0.0, 112.0, 255.0, 64.0, 224.0, 240.0, 0.0, 0.0, 0.0, 1.675809640568752E9, 0.0, 2023-02-07 17:40:40.568
244.0, 12205.639446453983, 187500.0, 187500.0, 187500.0, -187500.02235174447, -187500.02235174447, -187500.02235174447, -187500.02235174447, 0.014, -0.024, -0.994, 192.0, 0.0, 0.0, 0.0, 0.0, 0.0, 0.0, 0.0, 0.0, 0.0, 1.675809640568775E9, 0.0, 2023-02-07 17:40:40.568
245.0, 12125.419035603885, 187500.0, 187500.0, 187500.0, -187500.02235174447, -187500.02235174447, -187500.02235174447, -187500.02235174447, 0.014, -0.024, -0.994, 192.0, 0.0, 0.0, 0.0, 0.0, 0.0, 0.0, 0.0, 0.0, 0.0, 1.675809640575284E9, 0.0, 2023-02-07 17:40:40.575
246.0, 11988.738118259684, 187500.0, 187500.0, 187500.0, -187500.02235174447, -187500.02235174447, -187500.02235174447, -187500.02235174447, 0.014, -0.024, -0.994, 192.0, 0.0, 0.0, 0.0, 0.0, 0.0, 0.0, 0.0, 0.0, 0.0, 1.675809640575316E9, 0.0, 2023-02-07 17:40:40.575
247.0, 12248.823016741637, 187500.0, 187500.0, 187500.0, -187500.02235174447, -187500.02235174447, -187500.02235174447, -187500.02235174447, 0.014, -0.024, -0.994, 192.0, 0.0, 0.0, 0.0, 0.0, 0.0, 0.0, 0.0, 0.0, 0.0, 1.675809640583185E9, 0.0, 2023-02-07 17:40:40.583
248.0, 12403.430033138995, 187500.0, 187500.0, 187500.0, -187500.02235174447, -187500.02235174447, -187500.02235174447, -187500.02235174447, 0.014, -0.024, -0.994, 192.0, 0.0, 0.0, 0.0, 0.0, 0.0, 0.0, 0.0, 0.0, 0.0, 1.675809640583209E9, 0.0, 2023-02-07 17:40:40.583
249.0, 12315.632380918549, 187500.0, 187500.0, 187500.0, -187500.02235174447, -187500.02235174447, -187500.02235174447, -187500.02235174447, 0.014, -0.024, -0.994, 192.0, 0.0, 0.0, 0.0, 0.0, 0.0, 0.0, 0.0, 0.0, 0.0, 1.675809640591233E9, 0.0, 2023-02-07 17:40:40.591
250.0, 12434.834234098702, 187500.0, 187500.0, 187500.0, -187500.02235174447, -187500.02235174447, -187500.02235174447, -187500.02235174447, 0.014, -0.024, -0.994, 192.0, 0.0, 0.0, 0.0, 0.0, 0.0, 0.0, 0.0, 0.0, 0.0, 1.675809640591255E9, 0.0, 2023-02-07 17:40:40.591
251.0, 12312.994875072824, 187500.0, 187500.0, 187500.0, -187500.02235174447, -187500.02235174447, -187500.02235174447, -187500.02235174447, 0.014, -0.024, -0.994, 192.0, 0.0, 0.0, 0.0, 0.0, 0.0, 0.0, 0.0, 0.0, 0.0, 1.675809640597817E9, 0.0, 2023-02-07 17:40:40.597
252.0, 12097.166430612378, 187500.0, 187500.0, 187500.0, -187500.02235174447, -187500.02235174447, -187500.02235174447, -187500.02235174447, 0.014, -0.024, -0.994, 192.0, 0.0, 0.0, 0.0, 0.0, 0.0, 0.0, 0.0, 0.0, 0.0, 1.675809640597834E9, 0.0, 2023-02-07 17:40:40.597
253.0, 12273.007604242279, 187500.0, 187500.0, 187500.0, -187500.02235174447, -187500.02235174447, -187500.02235174447, -187500.02235174447, 0.02, -0.024, -0.992, 192.0, 0.0, 160.0, 255.0, 64.0, 225.0, 0.0, 0.0, 0.0, 0.0, 1.675809640605837E9, 0.0, 2023-02-07 17:40:40.605
254.0, 12633.183614395097, 187500.0, 187500.0, 187500.0, -187500.02235174447, -187500.02235174447, -187500.02235174447, -187500.02235174447, 0.02, -0.024, -0.992, 192.0, 0.0, 0.0, 0.0, 0.0, 0.0, 0.0, 0.0, 0.0, 0.0, 1.675809640605863E9, 0.0, 2023-02-07 17:40:40.605
255.0, 12624.891117202178, 187500.0, 187500.0, 187500.0, -187500.02235174447, -187500.02235174447, -187500.02235174447, -187500.02235174447, 0.02, -0.024, -0.992, 192.0, 0.0, 0.0, 0.0, 0.0, 0.0, 0.0, 0.0, 0.0, 0.0, 1.675809640613923E9, 0.0, 2023-02-07 17:40:40.613
0.0, 12410.269666942319, 187500.0, 187500.0, 187500.0, -187500.02235174447, -187500.02235174447, -187500.02235174447, -187500.02235174447, 0.02, -0.024, -0.992, 192.0, 0.0, 0.0, 0.0, 0.0, 0.0, 0.0, 0.0, 0.0, 0.0, 1.675809640613942E9, 0.0, 2023-02-07 17:40:40.613
1.0, 12190.283798013186, 187500.0, 187500.0, 187500.0, -187500.02235174447, -187500.02235174447, -187500.02235174447, -187500.02235174447, 0.02, -0.024, -0.992, 192.0, 0.0, 0.0, 0.0, 0.0, 0.0, 0.0, 0.0, 0.0, 0.0, 1.675809640621231E9, 0.0, 2023-02-07 17:40:40.621
2.0, 12021.528127375619, 187500.0, 187500.0, 187500.0, -187500.02235174447, -187500.02235174447, -187500.02235174447, -187500.02235174447, 0.02, -0.024, -0.992, 192.0, 0.0, 0.0, 0.0, 0.0, 0.0, 0.0, 0.0, 0.0, 0.0, 1.67580964062742E9, 0.0, 2023-02-07 17:40:40.627
3.0, 12061.33658425052, 187500.0, 187500.0, 187500.0, -187500.02235174447, -187500.02235174447, -187500.02235174447, -187500.02235174447, 0.02, -0.024, -0.992, 192.0, 0.0, 0.0, 0.0, 0.0, 0.0, 0.0, 0.0, 0.0, 0.0, 1.675809640627438E9, 0.0, 2023-02-07 17:40:40.627
4.0, 12391.605960322138, 187500.0, 187500.0, 187500.0, -187500.02235174447, -187500.02235174447, -187500.02235174447, -187500.02235174447, 0.02, -0.024, -0.992, 192.0, 0.0, 0.0, 0.0, 0.0, 0.0, 0.0, 0.0, 0.0, 0.0, 1.675809640635478E9, 0.0, 2023-02-07 17:40:40.635
5.0, 12368.963643188912, 187500.0, 187500.0, 187500.0, -187500.02235174447, -187500.02235174447, -187500.02235174447, -187500.02235174447, 0.02, -0.024, -0.992, 192.0, 0.0, 0.0, 0.0, 0.0, 0.0, 0.0, 0.0, 0.0, 0.0, 1.675809640635489E9, 0.0, 2023-02-07 17:40:40.635
6.0, 12171.441277437363, 187500.0, 187500.0, 187500.0, -187500.02235174447, -187500.02235174447, -187500.02235174447, -187500.02235174447, 0.02, -0.024, -0.992, 192.0, 0.0, 0.0, 0.0, 0.0, 0.0, 0.0, 0.0, 0.0, 0.0, 1.675809640643566E9, 0.0, 2023-02-07 17:40:40.643
7.0, 12313.553668684206, 187500.0, 187500.0, 187500.0, -187500.02235174447, -187500.02235174447, -187500.02235174447, -187500.02235174447, 0.016, -0.024, -0.99, 192.0, 0.0, 128.0, 255.0, 64.0, 225.0, 16.0, 0.0, 0.0, 0.0, 1.67580964064358E9, 0.0, 2023-02-07 17:40:40.643
8.0, 12296.76750859827, 187500.0, 187500.0, 187500.0, -187500.02235174447, -187500.02235174447, -187500.02235174447, -187500.02235174447, 0.016, -0.024, -0.99, 192.0, 0.0, 0.0, 0.0, 0.0, 0.0, 0.0, 0.0, 0.0, 0.0, 1.675809640650858E9, 0.0, 2023-02-07 17:40:40.650
9.0, 12203.001940608257, 187500.0, 187500.0, 187500.0, -187500.02235174447, -187500.02235174447, -187500.02235174447, -187500.02235174447, 0.016, -0.024, -0.99, 192.0, 0.0, 0.0, 0.0, 0.0, 0.0, 0.0, 0.0, 0.0, 0.0, 1.675809640650871E9, 0.0, 2023-02-07 17:40:40.650
10.0, 12273.320528664653, 187500.0, 187500.0, 187500.0, -187500.02235174447, -187500.02235174447, -187500.02235174447, -187500.02235174447, 0.016, -0.024, -0.99, 192.0, 0.0, 0.0, 0.0, 0.0, 0.0, 0.0, 0.0, 0.0, 0.0, 1.675809640658181E9, 0.0, 2023-02-07 17:40:40.658
11.0, 12583.339224259762, 187500.0, 187500.0, 187500.0, -187500.02235174447, -187500.02235174447, -187500.02235174447, -187500.02235174447, 0.016, -0.024, -0.99, 192.0, 0.0, 0.0, 0.0, 0.0, 0.0, 0.0, 0.0, 0.0, 0.0, 1.675809640658198E9, 0.0, 2023-02-07 17:40:40.658
12.0, 12895.749556511588, 187500.0, 187500.0, 187500.0, -187500.02235174447, -187500.02235174447, -187500.02235174447, -187500.02235174447, 0.016, -0.024, -0.99, 192.0, 0.0, 0.0, 0.0, 0.0, 0.0, 0.0, 0.0, 0.0, 0.0, 1.675809640666152E9, 0.0, 2023-02-07 17:40:40.666
13.0, 12182.684204898384, 187500.0, 187500.0, 187500.0, -187500.02235174447, -187500.02235174447, -187500.02235174447, -187500.02235174447, 0.016, -0.024, -0.99, 192.0, 0.0, 0.0, 0.0, 0.0, 0.0, 0.0, 0.0, 0.0, 0.0, 1.675809640666171E9, 0.0, 2023-02-07 17:40:40.666
14.0, 11975.930568686792, 187500.0, 187500.0, 187500.0, -187500.02235174447, -187500.02235174447, -187500.02235174447, -187500.02235174447, 0.016, -0.024, -0.99, 192.0, 0.0, 0.0, 0.0, 0.0, 0.0, 0.0, 0.0, 0.0, 0.0, 1.675809640674144E9, 0.0, 2023-02-07 17:40:40.674
15.0, 12231.723932233326, 187500.0, 187500.0, 187500.0, -187500.02235174447, -187500.02235174447, -187500.02235174447, -187500.02235174447, 0.016, -0.024, -0.99, 192.0, 0.0, 0.0, 0.0, 0.0, 0.0, 0.0, 0.0, 0.0, 0.0, 1.675809640674157E9, 0.0, 2023-02-07 17:40:40.674
16.0, 12550.862139566201, 187500.0, 187500.0, 187500.0, -187500.02235174447, -187500.02235174447, -187500.02235174447, -187500.02235174447, 0.016, -0.024, -0.99, 192.0, 0.0, 0.0, 0.0, 0.0, 0.0, 0.0, 0.0, 0.0, 0.0, 1.675809640680274E9, 0.0, 2023-02-07 17:40:40.680
17.0, 12471.580501983226, 187500.0, 187500.0, 187500.0, -187500.02235174447, -187500.02235174447, -187500.02235174447, -187500.02235174447, 0.014, -0.026000000000000002, -0.994, 192.0, 0.0, 112.0, 255.0, 48.0, 224.0, 240.0, 0.0, 0.0, 0.0, 1.675809640680288E9, 0.0, 2023-02-07 17:40:40.680
18.0, 12208.008731366246, 187500.0, 187500.0, 187500.0, -187500.02235174447, -187500.02235174447, -187500.02235174447, -187500.02235174447, 0.014, -0.026000000000000002, -0.994, 192.0, 0.0, 0.0, 0.0, 0.0, 0.0, 0.0, 0.0, 0.0, 0.0, 1.675809640687829E9, 0.0, 2023-02-07 17:40:40.687
19.0, 11935.36215250041, 187500.0, 187500.0, 187500.0, -187500.02235174447, -187500.02235174447, -187500.02235174447, -187500.02235174447, 0.014, -0.026000000000000002, -0.994, 192.0, 0.0, 0.0, 0.0, 0.0, 0.0, 0.0, 0.0, 0.0, 0.0, 1.675809640695803E9, 0.0, 2023-02-07 17:40:40.695
20.0, 12165.987451790268, 187500.0, 187500.0, 187500.0, -187500.02235174447, -187500.02235174447, -187500.02235174447, -187500.02235174447, 0.014, -0.026000000000000002, -0.994, 192.0, 0.0, 0.0, 0.0, 0.0, 0.0, 0.0, 0.0, 0.0, 0.0, 1.675809640695827E9, 0.0, 2023-02-07 17:40:40.695
21.0, 12426.049998527766, 187500.0, 187500.0, 187500.0, -187500.02235174447, -187500.02235174447, -187500.02235174447, -187500.02235174447, 0.014, -0.026000000000000002, -0.994, 192.0, 0.0, 0.0, 0.0, 0.0, 0.0, 0.0, 0.0, 0.0, 0.0, 1.675809640703878E9, 0.0, 2023-02-07 17:40:40.703
22.0, 12401.910114516035, 187500.0, 187500.0, 187500.0, -187500.02235174447, -187500.02235174447, -187500.02235174447, -187500.02235174447, 0.014, -0.026000000000000002, -0.994, 192.0, 0.0, 0.0, 0.0, 0.0, 0.0, 0.0, 0.0, 0.0, 0.0, 1.67580964070389E9, 0.0, 2023-02-07 17:40:40.703
23.0, 12271.085354219122, 187500.0, 187500.0, 187500.0, -187500.02235174447, -187500.02235174447, -187500.02235174447, -187500.02235174447, 0.014, -0.026000000000000002, -0.994, 192.0, 0.0, 0.0, 0.0, 0.0, 0.0, 0.0, 0.0, 0.0, 0.0, 1.675809640710376E9, 0.0, 2023-02-07 17:40:40.710
24.0, 12440.444521956984, 187500.0, 187500.0, 187500.0, -187500.02235174447, -187500.02235174447, -187500.02235174447, -187500.02235174447, 0.014, -0.026000000000000002, -0.994, 192.0, 0.0, 0.0, 0.0, 0.0, 0.0, 0.0, 0.0, 0.0, 0.0, 1.675809640710397E9, 0.0, 2023-02-07 17:40:40.710
25.0, 12600.147736090154, 187500.0, 187500.0, 187500.0, -187500.02235174447, -187500.02235174447, -187500.02235174447, -187500.02235174447, 0.014, -0.026000000000000002, -0.994, 192.0, 0.0, 0.0, 0.0, 0.0, 0.0, 0.0, 0.0, 0.0, 0.0, 1.675809640718427E9, 0.0, 2023-02-07 17:40:40.718
26.0, 12371.645852523548, 187500.0, 187500.0, 187500.0, -187500.02235174447, -187500.02235174447, -187500.02235174447, -187500.02235174447, 0.014, -0.026000000000000002, -0.994, 192.0, 0.0, 0.0, 0.0, 0.0, 0.0, 0.0, 0.0, 0.0, 0.0, 1.675809640718441E9, 0.0, 2023-02-07 17:40:40.718
27.0, 12353.719753470392, 187500.0, 187500.0, 187500.0, -187500.02235174447, -187500.02235174447, -187500.02235174447, -187500.02235174447, 0.012, -0.03, -0.99, 192.0, 0.0, 96.0, 255.0, 16.0, 225.0, 16.0, 0.0, 0.0, 0.0, 1.67580964072645E9, 0.0, 2023-02-07 17:40:40.726
28.0, 12359.844131451146, 187500.0, 187500.0, 187500.0, -187500.02235174447, -187500.02235174447, -187500.02235174447, -187500.02235174447, 0.012, -0.03, -0.99, 192.0, 0.0, 0.0, 0.0, 0.0, 0.0, 0.0, 0.0, 0.0, 0.0, 1.675809640726462E9, 0.0, 2023-02-07 17:40:40.726
29.0, 12297.214543487376, 187500.0, 187500.0, 187500.0, -187500.02235174447, -187500.02235174447, -187500.02235174447, -187500.02235174447, 0.012, -0.03, -0.99, 192.0, 0.0, 0.0, 0.0, 0.0, 0.0, 0.0, 0.0, 0.0, 0.0, 1.675809640733535E9, 0.0, 2023-02-07 17:40:40.733
30.0, 12418.137480990586, 187500.0, 187500.0, 187500.0, -187500.02235174447, -187500.02235174447, -187500.02235174447, -187500.02235174447, 0.012, -0.03, -0.99, 192.0, 0.0, 0.0, 0.0, 0.0, 0.0, 0.0, 0.0, 0.0, 0.0, 1.675809640733547E9, 0.0, 2023-02-07 17:40:40.733
31.0, 12306.378758714052, 187500.0, 187500.0, 187500.0, -187500.02235174447, -187500.02235174447, -187500.02235174447, -187500.02235174447, 0.012, -0.03, -0.99, 192.0, 0.0, 0.0, 0.0, 0.0, 0.0, 0.0, 0.0, 0.0, 0.0, 1.675809640741224E9, 0.0, 2023-02-07 17:40:40.741
32.0, 12300.209677244387, 187500.0, 187500.0, 187500.0, -187500.02235174447, -187500.02235174447, -187500.02235174447, -187500.02235174447, 0.012, -0.03, -0.99, 192.0, 0.0, 0.0, 0.0, 0.0, 0.0, 0.0, 0.0, 0.0, 0.0, 1.675809640741242E9, 0.0, 2023-02-07 17:40:40.741
33.0, 12715.415682246172, 187500.0, 187500.0, 187500.0, -187500.02235174447, -187500.02235174447, -187500.02235174447, -187500.02235174447, 0.012, -0.03, -0.99, 192.0, 0.0, 0.0, 0.0, 0.0, 0.0, 0.0, 0.0, 0.0, 0.0, 1.675809640748043E9, 0.0, 2023-02-07 17:40:40.748
34.0, 12466.461952502961, 187500.0, 187500.0, 187500.0, -187500.02235174447, -187500.02235174447, -187500.02235174447, -187500.02235174447, 0.012, -0.03, -0.99, 192.0, 0.0, 0.0, 0.0, 0.0, 0.0, 0.0, 0.0, 0.0, 0.0, 1.675809640756167E9, 0.0, 2023-02-07 17:40:40.756
35.0, 12167.373259946497, 187500.0, 187500.0, 187500.0, -187500.02235174447, -187500.02235174447, -187500.02235174447, -187500.02235174447, 0.012, -0.03, -0.99, 192.0, 0.0, 0.0, 0.0, 0.0, 0.0, 0.0, 0.0, 0.0, 0.0, 1.675809640756184E9, 0.0, 2023-02-07 17:40:40.756
36.0, 12149.69303008235, 187500.0, 187500.0, 187500.0, -187500.02235174447, -187500.02235174447, -187500.02235174447, -187500.02235174447, 0.012, -0.03, -0.99, 192.0, 0.0, 0.0, 0.0, 0.0, 0.0, 0.0, 0.0, 0.0, 0.0, 1.675809640763142E9, 0.0, 2023-02-07 17:40:40.763
37.0, 12229.376999065518, 187500.0, 187500.0, 187500.0, -187500.02235174447, -187500.02235174447, -187500.02235174447, -187500.02235174447, 0.014, -0.022, -0.988, 192.0, 0.0, 112.0, 255.0, 80.0, 225.0, 32.0, 0.0, 0.0, 0.0, 1.675809640763155E9, 0.0, 2023-02-07 17:40:40.763
38.0, 12559.735782114958, 187500.0, 187500.0, 187500.0, -187500.02235174447, -187500.02235174447, -187500.02235174447, -187500.02235174447, 0.014, -0.022, -0.988, 192.0, 0.0, 0.0, 0.0, 0.0, 0.0, 0.0, 0.0, 0.0, 0.0, 1.675809640770684E9, 0.0, 2023-02-07 17:40:40.770
39.0, 12689.621769144747, 187500.0, 187500.0, 187500.0, -187500.02235174447, -187500.02235174447, -187500.02235174447, -187500.02235174447, 0.014, -0.022, -0.988, 192.0, 0.0, 0.0, 0.0, 0.0, 0.0, 0.0, 0.0, 0.0, 0.0, 1.675809640770703E9, 0.0, 2023-02-07 17:40:40.770
40.0, 12388.230846909386, 187500.0, 187500.0, 187500.0, -187500.02235174447, -187500.02235174447, -187500.02235174447, -187500.02235174447, 0.014, -0.022, -0.988, 192.0, 0.0, 0.0, 0.0, 0.0, 0.0, 0.0, 0.0, 0.0, 0.0, 1.675809640778846E9, 0.0, 2023-02-07 17:40:40.778
41.0, 12658.262271673952, 187500.0, 187500.0, 187500.0, -187500.02235174447, -187500.02235174447, -187500.02235174447, -187500.02235174447, 0.014, -0.022, -0.988, 192.0, 0.0, 0.0, 0.0, 0.0, 0.0, 0.0, 0.0, 0.0, 0.0, 1.675809640778863E9, 0.0, 2023-02-07 17:40:40.778
42.0, 12231.343952577587, 187500.0, 187500.0, 187500.0, -187500.02235174447, -187500.02235174447, -187500.02235174447, -187500.02235174447, 0.014, -0.022, -0.988, 192.0, 0.0, 0.0, 0.0, 0.0, 0.0, 0.0, 0.0, 0.0, 0.0, 1.675809640786676E9, 0.0, 2023-02-07 17:40:40.786
43.0, 12053.245252757699, 187500.0, 187500.0, 187500.0, -187500.02235174447, -187500.02235174447, -187500.02235174447, -187500.02235174447, 0.014, -0.022, -0.988, 192.0, 0.0, 0.0, 0.0, 0.0, 0.0, 0.0, 0.0, 0.0, 0.0, 1.675809640786689E9, 0.0, 2023-02-07 17:40:40.786
44.0, 12230.047551399179, 187500.0, 187500.0, 187500.0, -187500.02235174447, -187500.02235174447, -187500.02235174447, -187500.02235174447, 0.014, -0.022, -0.988, 192.0, 0.0, 0.0, 0.0, 0.0, 0.0, 0.0, 0.0, 0.0, 0.0, 1.675809640793255E9, 0.0, 2023-02-07 17:40:40.793
45.0, 12722.255316049495, 187500.0, 187500.0, 187500.0, -187500.02235174447, -187500.02235174447, -187500.02235174447, -187500.02235174447, 0.014, -0.022, -0.988, 192.0, 0.0, 0.0, 0.0, 0.0, 0.0, 0.0, 0.0, 0.0, 0.0, 1.675809640793274E9, 0.0, 2023-02-07 17:40:40.793
46.0, 12536.601726603714, 187500.0, 187500.0, 187500.0, -187500.02235174447, -187500.02235174447, -187500.02235174447, -187500.02235174447, 0.016, -0.024, -0.986, 192.0, 0.0, 128.0, 255.0, 64.0, 225.0, 48.0, 0.0, 0.0, 0.0, 1.675809640801271E9, 0.0, 2023-02-07 17:40:40.801
47.0, 12118.959381456301, 187500.0, 187500.0, 187500.0, -187500.02235174447, -187500.02235174447, -187500.02235174447, -187500.02235174447, 0.016, -0.024, -0.986, 192.0, 0.0, 0.0, 0.0, 0.0, 0.0, 0.0, 0.0, 0.0, 0.0, 1.675809640801283E9, 0.0, 2023-02-07 17:40:40.801
48.0, 12253.47217958834, 187500.0, 187500.0, 187500.0, -187500.02235174447, -187500.02235174447, -187500.02235174447, -187500.02235174447, 0.016, -0.024, -0.986, 192.0, 0.0, 0.0, 0.0, 0.0, 0.0, 0.0, 0.0, 0.0, 0.0, 1.675809640808318E9, 0.0, 2023-02-07 17:40:40.808
49.0, 12350.411695291006, 187500.0, 187500.0, 187500.0, -187500.02235174447, -187500.02235174447, -187500.02235174447, -187500.02235174447, 0.016, -0.024, -0.986, 192.0, 0.0, 0.0, 0.0, 0.0, 0.0, 0.0, 0.0, 0.0, 0.0, 1.675809640815411E9, 0.0, 2023-02-07 17:40:40.815
50.0, 12476.721403207946, 187500.0, 187500.0, 187500.0, -187500.02235174447, -187500.02235174447, -187500.02235174447, -187500.02235174447, 0.016, -0.024, -0.986, 192.0, 0.0, 0.0, 0.0, 0.0, 0.0, 0.0, 0.0, 0.0, 0.0, 1.675809640815427E9, 0.0, 2023-02-07 17:40:40.815
51.0, 12328.708151424904, 187500.0, 187500.0, 187500.0, -187500.02235174447, -187500.02235174447, -187500.02235174447, -187500.02235174447, 0.016, -0.024, -0.986, 192.0, 0.0, 0.0, 0.0, 0.0, 0.0, 0.0, 0.0, 0.0, 0.0, 1.675809640822943E9, 0.0, 2023-02-07 17:40:40.822
52.0, 12333.044389849234, 187500.0, 187500.0, 187500.0, -187500.02235174447, -187500.02235174447, -187500.02235174447, -187500.02235174447, 0.016, -0.024, -0.986, 192.0, 0.0, 0.0, 0.0, 0.0, 0.0, 0.0, 0.0, 0.0, 0.0, 1.675809640822958E9, 0.0, 2023-02-07 17:40:40.822
53.0, 12428.441635184483, 187500.0, 187500.0, 187500.0, -187500.02235174447, -187500.02235174447, -187500.02235174447, -187500.02235174447, 0.016, -0.024, -0.986, 192.0, 0.0, 0.0, 0.0, 0.0, 0.0, 0.0, 0.0, 0.0, 0.0, 1.675809640830984E9, 0.0, 2023-02-07 17:40:40.830
54.0, 12615.928067675599, 187500.0, 187500.0, 187500.0, -187500.02235174447, -187500.02235174447, -187500.02235174447, -187500.02235174447, 0.016, -0.024, -0.986, 192.0, 0.0, 0.0, 0.0, 0.0, 0.0, 0.0, 0.0, 0.0, 0.0, 1.675809640831006E9, 0.0, 2023-02-07 17:40:40.831
55.0, 12579.271206768895, 187500.0, 187500.0, 187500.0, -187500.02235174447, -187500.02235174447, -187500.02235174447, -187500.02235174447, 0.016, -0.024, -0.986, 192.0, 0.0, 0.0, 0.0, 0.0, 0.0, 0.0, 0.0, 0.0, 0.0, 1.675809640838917E9, 0.0, 2023-02-07 17:40:40.838
56.0, 12475.425002029539, 187500.0, 187500.0, 187500.0, -187500.02235174447, -187500.02235174447, -187500.02235174447, -187500.02235174447, 0.012, -0.03, -0.99, 192.0, 0.0, 96.0, 255.0, 16.0, 225.0, 16.0, 0.0, 0.0, 0.0, 1.675809640838938E9, 0.0, 2023-02-07 17:40:40.838
57.0, 12746.99869716152, 187500.0, 187500.0, 187500.0, -187500.02235174447, -187500.02235174447, -187500.02235174447, -187500.02235174447, 0.012, -0.03, -0.99, 192.0, 0.0, 0.0, 0.0, 0.0, 0.0, 0.0, 0.0, 0.0, 0.0, 1.675809640845508E9, 0.0, 2023-02-07 17:40:40.845
58.0, 12321.600296688117, 187500.0, 187500.0, 187500.0, -187500.02235174447, -187500.02235174447, -187500.02235174447, -187500.02235174447, 0.012, -0.03, -0.99, 192.0, 0.0, 0.0, 0.0, 0.0, 0.0, 0.0, 0.0, 0.0, 0.0, 1.67580964084552E9, 0.0, 2023-02-07 17:40:40.845
59.0, 12231.99215316679, 187500.0, 187500.0, 187500.0, -187500.02235174447, -187500.02235174447, -187500.02235174447, -187500.02235174447, 0.012, -0.03, -0.99, 192.0, 0.0, 0.0, 0.0, 0.0, 0.0, 0.0, 0.0, 0.0, 0.0, 1.675809640853625E9, 0.0, 2023-02-07 17:40:40.853
60.0, 12288.519714894263, 187500.0, 187500.0, 187500.0, -187500.02235174447, -187500.02235174447, -187500.02235174447, -187500.02235174447, 0.012, -0.03, -0.99, 192.0, 0.0, 0.0, 0.0, 0.0, 0.0, 0.0, 0.0, 0.0, 0.0, 1.675809640853639E9, 0.0, 2023-02-07 17:40:40.853
61.0, 12453.252071529874, 187500.0, 187500.0, 187500.0, -187500.02235174447, -187500.02235174447, -187500.02235174447, -187500.02235174447, 0.012, -0.03, -0.99, 192.0, 0.0, 0.0, 0.0, 0.0, 0.0, 0.0, 0.0, 0.0, 0.0, 1.675809640861638E9, 0.0, 2023-02-07 17:40:40.861
62.0, 12330.652753192515, 187500.0, 187500.0, 187500.0, -187500.02235174447, -187500.02235174447, -187500.02235174447, -187500.02235174447, 0.012, -0.03, -0.99, 192.0, 0.0, 0.0, 0.0, 0.0, 0.0, 0.0, 0.0, 0.0, 0.0, 1.675809640861654E9, 0.0, 2023-02-07 17:40:40.861
63.0, 12238.720028247837, 187500.0, 187500.0, 187500.0, -187500.02235174447, -187500.02235174447, -187500.02235174447, -187500.02235174447, 0.012, -0.03, -0.99, 192.0, 0.0, 0.0, 0.0, 0.0, 0.0, 0.0, 0.0, 0.0, 0.0, 1.675809640868806E9, 0.0, 2023-02-07 17:40:40.868
64.0, 12380.988881705867, 187500.0, 187500.0, 187500.0, -187500.02235174447, -187500.02235174447, -187500.02235174447, -187500.02235174447, 0.012, -0.03, -0.99, 192.0, 0.0, 0.0, 0.0, 0.0, 0.0, 0.0, 0.0, 0.0, 0.0, 1.67580964087529E9, 0.0, 2023-02-07 17:40:40.875
65.0, 12514.160575170587, 187500.0, 187500.0, 187500.0, -187500.02235174447, -187500.02235174447, -187500.02235174447, -187500.02235174447, 0.012, -0.03, -0.99, 192.0, 0.0, 0.0, 0.0, 0.0, 0.0, 0.0, 0.0, 0.0, 0.0, 1.675809640875309E9, 0.0, 2023-02-07 17:40:40.875
66.0, 12507.0527204338, 187500.0, 187500.0, 187500.0, -187500.02235174447, -187500.02235174447, -187500.02235174447, -187500.02235174447, 0.014, -0.028, -0.99, 192.0, 0.0, 112.0, 255.0, 32.0, 225.0, 16.0, 0.0, 0.0, 0.0, 1.675809640883281E9, 0.0, 2023-02-07 17:40:40.883
67.0, 12487.584351013227, 187500.0, 187500.0, 187500.0, -187500.02235174447, -187500.02235174447, -187500.02235174447, -187500.02235174447, 0.014, -0.028, -0.99, 192.0, 0.0, 0.0, 0.0, 0.0, 0.0, 0.0, 0.0, 0.0, 0.0, 1.675809640883298E9, 0.0, 2023-02-07 17:40:40.883
68.0, 12464.204426312976, 187500.0, 187500.0, 187500.0, -187500.02235174447, -187500.02235174447, -187500.02235174447, -187500.02235174447, 0.014, -0.028, -0.99, 192.0, 0.0, 0.0, 0.0, 0.0, 0.0, 0.0, 0.0, 0.0, 0.0, 1.675809640891232E9, 0.0, 2023-02-07 17:40:40.891
69.0, 12545.832997063757, 187500.0, 187500.0, 187500.0, -187500.02235174447, -187500.02235174447, -187500.02235174447, -187500.02235174447, 0.014, -0.028, -0.99, 192.0, 0.0, 0.0, 0.0, 0.0, 0.0, 0.0, 0.0, 0.0, 0.0, 1.675809640891246E9, 0.0, 2023-02-07 17:40:40.891
70.0, 12683.296225463895, 187500.0, 187500.0, 187500.0, -187500.02235174447, -187500.02235174447, -187500.02235174447, -187500.02235174447, 0.014, -0.028, -0.99, 192.0, 0.0, 0.0, 0.0, 0.0, 0.0, 0.0, 0.0, 0.0, 0.0, 1.67580964089844E9, 0.0, 2023-02-07 17:40:40.898
71.0, 12524.777653786858, 187500.0, 187500.0, 187500.0, -187500.02235174447, -187500.02235174447, -187500.02235174447, -187500.02235174447, 0.014, -0.028, -0.99, 192.0, 0.0, 0.0, 0.0, 0.0, 0.0, 0.0, 0.0, 0.0, 0.0, 1.675809640898455E9, 0.0, 2023-02-07 17:40:40.898
72.0, 12403.944123261468, 187500.0, 187500.0, 187500.0, -187500.02235174447, -187500.02235174447, -187500.02235174447, -187500.02235174447, 0.014, -0.028, -0.99, 192.0, 0.0, 0.0, 0.0, 0.0, 0.0, 0.0, 0.0, 0.0, 0.0, 1.675809640905849E9, 0.0, 2023-02-07 17:40:40.905
73.0, 12192.0272340807, 187500.0, 187500.0, 187500.0, -187500.02235174447, -187500.02235174447, -187500.02235174447, -187500.02235174447, 0.014, -0.028, -0.99, 192.0, 0.0, 0.0, 0.0, 0.0, 0.0, 0.0, 0.0, 0.0, 0.0, 1.675809640905861E9, 0.0, 2023-02-07 17:40:40.905
74.0, 12313.620723917571, 187500.0, 187500.0, 187500.0, -187500.02235174447, -187500.02235174447, -187500.02235174447, -187500.02235174447, 0.014, -0.028, -0.99, 192.0, 0.0, 0.0, 0.0, 0.0, 0.0, 0.0, 0.0, 0.0, 0.0, 1.675809640913883E9, 0.0, 2023-02-07 17:40:40.913
75.0, 12487.405537057584, 187500.0, 187500.0, 187500.0, -187500.02235174447, -187500.02235174447, -187500.02235174447, -187500.02235174447, 0.014, -0.028, -0.99, 192.0, 0.0, 0.0, 0.0, 0.0, 0.0, 0.0, 0.0, 0.0, 0.0, 1.675809640913902E9, 0.0, 2023-02-07 17:40:40.913
76.0, 12881.01975691554, 187500.0, 187500.0, 187500.0, -187500.02235174447, -187500.02235174447, -187500.02235174447, -187500.02235174447, 0.014, -0.024, -0.99, 192.0, 0.0, 112.0, 255.0, 64.0, 225.0, 16.0, 0.0, 0.0, 0.0, 1.675809640921944E9, 0.0, 2023-02-07 17:40:40.921
77.0, 12631.462530072038, 187500.0, 187500.0, 187500.0, -187500.02235174447, -187500.02235174447, -187500.02235174447, -187500.02235174447, 0.014, -0.024, -0.99, 192.0, 0.0, 0.0, 0.0, 0.0, 0.0, 0.0, 0.0, 0.0, 0.0, 1.675809640921964E9, 0.0, 2023-02-07 17:40:40.921
78.0, 12196.899914371957, 187500.0, 187500.0, 187500.0, -187500.02235174447, -187500.02235174447, -187500.02235174447, -187500.02235174447, 0.014, -0.024, -0.99, 192.0, 0.0, 0.0, 0.0, 0.0, 0.0, 0.0, 0.0, 0.0, 0.0, 1.675809640928174E9, 0.0, 2023-02-07 17:40:40.928
79.0, 12287.603293371594, 187500.0, 187500.0, 187500.0, -187500.02235174447, -187500.02235174447, -187500.02235174447, -187500.02235174447, 0.014, -0.024, -0.99, 192.0, 0.0, 0.0, 0.0, 0.0, 0.0, 0.0, 0.0, 0.0, 0.0, 1.675809640928195E9, 0.0, 2023-02-07 17:40:40.928
80.0, 12484.9468451675, 187500.0, 187500.0, 187500.0, -187500.02235174447, -187500.02235174447, -187500.02235174447, -187500.02235174447, 0.014, -0.024, -0.99, 192.0, 0.0, 0.0, 0.0, 0.0, 0.0, 0.0, 0.0, 0.0, 0.0, 1.675809640935431E9, 0.0, 2023-02-07 17:40:40.935
81.0, 12572.453924710027, 187500.0, 187500.0, 187500.0, -187500.02235174447, -187500.02235174447, -187500.02235174447, -187500.02235174447, 0.014, -0.024, -0.99, 192.0, 0.0, 0.0, 0.0, 0.0, 0.0, 0.0, 0.0, 0.0, 0.0, 1.675809640945017E9, 0.0, 2023-02-07 17:40:40.945
82.0, 12442.389123724595, 187500.0, 187500.0, 187500.0, -187500.02235174447, -187500.02235174447, -187500.02235174447, -187500.02235174447, 0.014, -0.024, -0.99, 192.0, 0.0, 0.0, 0.0, 0.0, 0.0, 0.0, 0.0, 0.0, 0.0, 1.675809640945032E9, 0.0, 2023-02-07 17:40:40.945
83.0, 12372.450515323939, 187500.0, 187500.0, 187500.0, -187500.02235174447, -187500.02235174447, -187500.02235174447, -187500.02235174447, 0.014, -0.024, -0.99, 192.0, 0.0, 0.0, 0.0, 0.0, 0.0, 0.0, 0.0, 0.0, 0.0, 1.675809640951479E9, 0.0, 2023-02-07 17:40:40.951
84.0, 12377.345547359651, 187500.0, 187500.0, 187500.0, -187500.02235174447, -187500.02235174447, -187500.02235174447, -187500.02235174447, 0.014, -0.024, -0.99, 192.0, 0.0, 0.0, 0.0, 0.0, 0.0, 0.0, 0.0, 0.0, 0.0, 1.675809640951492E9, 0.0, 2023-02-07 17:40:40.951
85.0, 12578.578302690781, 187500.0, 187500.0, 187500.0, -187500.02235174447, -187500.02235174447, -187500.02235174447, -187500.02235174447, 0.014, -0.024, -0.99, 192.0, 0.0, 0.0, 0.0, 0.0, 0.0, 0.0, 0.0, 0.0, 0.0, 1.675809640958214E9, 0.0, 2023-02-07 17:40:40.958
86.0, 12538.367514415684, 187500.0, 187500.0, 187500.0, -187500.02235174447, -187500.02235174447, -187500.02235174447, -187500.02235174447, 0.012, -0.026000000000000002, -0.994, 192.0, 0.0, 96.0, 255.0, 48.0, 224.0, 240.0, 0.0, 0.0, 0.0, 1.675809640958232E9, 0.0, 2023-02-07 17:40:40.958
87.0, 12466.149028080587, 187500.0, 187500.0, 187500.0, -187500.02235174447, -187500.02235174447, -187500.02235174447, -187500.02235174447, 0.012, -0.026000000000000002, -0.994, 192.0, 0.0, 0.0, 0.0, 0.0, 0.0, 0.0, 0.0, 0.0, 0.0, 1.675809640966157E9, 0.0, 2023-02-07 17:40:40.966
88.0, 12792.551552361436, 187500.0, 187500.0, 187500.0, -187500.02235174447, -187500.02235174447, -187500.02235174447, -187500.02235174447, 0.012, -0.026000000000000002, -0.994, 192.0, 0.0, 0.0, 0.0, 0.0, 0.0, 0.0, 0.0, 0.0, 0.0, 1.675809640966179E9, 0.0, 2023-02-07 17:40:40.966
89.0, 12532.801930046313, 187500.0, 187500.0, 187500.0, -187500.02235174447, -187500.02235174447, -187500.02235174447, -187500.02235174447, 0.012, -0.026000000000000002, -0.994, 192.0, 0.0, 0.0, 0.0, 0.0, 0.0, 0.0, 0.0, 0.0, 0.0, 1.675809640974183E9, 0.0, 2023-02-07 17:40:40.974
90.0, 12312.078453550155, 187500.0, 187500.0, 187500.0, -187500.02235174447, -187500.02235174447, -187500.02235174447, -187500.02235174447, 0.012, -0.026000000000000002, -0.994, 192.0, 0.0, 0.0, 0.0, 0.0, 0.0, 0.0, 0.0, 0.0, 0.0, 1.675809640974196E9, 0.0, 2023-02-07 17:40:40.974
91.0, 12320.594468187628, 187500.0, 187500.0, 187500.0, -187500.02235174447, -187500.02235174447, -187500.02235174447, -187500.02235174447, 0.012, -0.026000000000000002, -0.994, 192.0, 0.0, 0.0, 0.0, 0.0, 0.0, 0.0, 0.0, 0.0, 0.0, 1.675809640980798E9, 0.0, 2023-02-07 17:40:40.980
92.0, 12445.294850503786, 187500.0, 187500.0, 187500.0, -187500.02235174447, -187500.02235174447, -187500.02235174447, -187500.02235174447, 0.012, -0.026000000000000002, -0.994, 192.0, 0.0, 0.0, 0.0, 0.0, 0.0, 0.0, 0.0, 0.0, 0.0, 1.67580964098081E9, 0.0, 2023-02-07 17:40:40.980
93.0, 12807.415462424215, 187500.0, 187500.0, 187500.0, -187500.02235174447, -187500.02235174447, -187500.02235174447, -187500.02235174447, 0.012, -0.026000000000000002, -0.994, 192.0, 0.0, 0.0, 0.0, 0.0, 0.0, 0.0, 0.0, 0.0, 0.0, 1.675809640988811E9, 0.0, 2023-02-07 17:40:40.988
94.0, 12928.003123760596, 187500.0, 187500.0, 187500.0, -187500.02235174447, -187500.02235174447, -187500.02235174447, -187500.02235174447, 0.012, -0.026000000000000002, -0.994, 192.0, 0.0, 0.0, 0.0, 0.0, 0.0, 0.0, 0.0, 0.0, 0.0, 1.675809640988827E9, 0.0, 2023-02-07 17:40:40.988
95.0, 12558.372325703183, 187500.0, 187500.0, 187500.0, -187500.02235174447, -187500.02235174447, -187500.02235174447, -187500.02235174447, 0.012, -0.026000000000000002, -0.994, 192.0, 0.0, 0.0, 0.0, 0.0, 0.0, 0.0, 0.0, 0.0, 0.0, 1.675809640995821E9, 0.0, 2023-02-07 17:40:40.995
96.0, 12185.74639388876, 187500.0, 187500.0, 187500.0, -187500.02235174447, -187500.02235174447, -187500.02235174447, -187500.02235174447, 0.014, -0.026000000000000002, -0.99, 192.0, 0.0, 112.0, 255.0, 48.0, 225.0, 16.0, 0.0, 0.0, 0.0, 1.675809641003834E9, 0.0, 2023-02-07 17:40:41.003
97.0, 12337.000648617823, 187500.0, 187500.0, 187500.0, -187500.02235174447, -187500.02235174447, -187500.02235174447, -187500.02235174447, 0.014, -0.026000000000000002, -0.99, 192.0, 0.0, 0.0, 0.0, 0.0, 0.0, 0.0, 0.0, 0.0, 0.0, 1.675809641003857E9, 0.0, 2023-02-07 17:40:41.003
98.0, 12385.9733207194, 187500.0, 187500.0, 187500.0, -187500.02235174447, -187500.02235174447, -187500.02235174447, -187500.02235174447, 0.014, -0.026000000000000002, -0.99, 192.0, 0.0, 0.0, 0.0, 0.0, 0.0, 0.0, 0.0, 0.0, 0.0, 1.675809641010451E9, 0.0, 2023-02-07 17:40:41.010
99.0, 12408.79445180827, 187500.0, 187500.0, 187500.0, -187500.02235174447, -187500.02235174447, -187500.02235174447, -187500.02235174447, 0.014, -0.026000000000000002, -0.99, 192.0, 0.0, 0.0, 0.0, 0.0, 0.0, 0.0, 0.0, 0.0, 0.0, 1.675809641010463E9, 0.0, 2023-02-07 17:40:41.010
100.0, 12795.837258796366, 187500.0, 187500.0, 187500.0, -187500.02235174447, -187500.02235174447, -187500.02235174447, -187500.02235174447, 0.014, -0.026000000000000002, -0.99, 192.0, 0.0, 0.0, 0.0, 0.0, 0.0, 0.0, 0.0, 0.0, 0.0, 1.675809641018431E9, 0.0, 2023-02-07 17:40:41.018
101.0, 12867.966338153641, 187500.0, 187500.0, 187500.0, -187500.02235174447, -187500.02235174447, -187500.02235174447, -187500.02235174447, 0.014, -0.026000000000000002, -0.99, 192.0, 0.0, 0.0, 0.0, 0.0, 0.0, 0.0, 0.0, 0.0, 0.0, 1.675809641018444E9, 0.0, 2023-02-07 17:40:41.018
102.0, 12310.111500038089, 187500.0, 187500.0, 187500.0, -187500.02235174447, -187500.02235174447, -187500.02235174447, -187500.02235174447, 0.014, -0.026000000000000002, -0.99, 192.0, 0.0, 0.0, 0.0, 0.0, 0.0, 0.0, 0.0, 0.0, 0.0, 1.675809641026496E9, 0.0, 2023-02-07 17:40:41.026
103.0, 12352.691573225447, 187500.0, 187500.0, 187500.0, -187500.02235174447, -187500.02235174447, -187500.02235174447, -187500.02235174447, 0.014, -0.026000000000000002, -0.99, 192.0, 0.0, 0.0, 0.0, 0.0, 0.0, 0.0, 0.0, 0.0, 0.0, 1.67580964102651E9, 0.0, 2023-02-07 17:40:41.026
104.0, 12590.268265040906, 187500.0, 187500.0, 187500.0, -187500.02235174447, -187500.02235174447, -187500.02235174447, -187500.02235174447, 0.014, -0.026000000000000002, -0.99, 192.0, 0.0, 0.0, 0.0, 0.0, 0.0, 0.0, 0.0, 0.0, 0.0, 1.675809641033542E9, 0.0, 2023-02-07 17:40:41.033
105.0, 12666.264196188951, 187500.0, 187500.0, 187500.0, -187500.02235174447, -187500.02235174447, -187500.02235174447, -187500.02235174447, 0.016, -0.022, -0.992, 192.0, 0.0, 128.0, 255.0, 80.0, 225.0, 0.0, 0.0, 0.0, 0.0, 1.675809641033555E9, 0.0, 2023-02-07 17:40:41.033
106.0, 12556.651241380125, 187500.0, 187500.0, 187500.0, -187500.02235174447, -187500.02235174447, -187500.02235174447, -187500.02235174447, 0.016, -0.022, -0.992, 192.0, 0.0, 0.0, 0.0, 0.0, 0.0, 0.0, 0.0, 0.0, 0.0, 1.675809641041179E9, 0.0, 2023-02-07 17:40:41.041
107.0, 12438.656382400559, 187500.0, 187500.0, 187500.0, -187500.02235174447, -187500.02235174447, -187500.02235174447, -187500.02235174447, 0.016, -0.022, -0.992, 192.0, 0.0, 0.0, 0.0, 0.0, 0.0, 0.0, 0.0, 0.0, 0.0, 1.675809641041198E9, 0.0, 2023-02-07 17:40:41.041
108.0, 12434.45425444296, 187500.0, 187500.0, 187500.0, -187500.02235174447, -187500.02235174447, -187500.02235174447, -187500.02235174447, 0.016, -0.022, -0.992, 192.0, 0.0, 0.0, 0.0, 0.0, 0.0, 0.0, 0.0, 0.0, 0.0, 1.67580964104903E9, 0.0, 2023-02-07 17:40:41.049
109.0, 12459.689373933003, 187500.0, 187500.0, 187500.0, -187500.02235174447, -187500.02235174447, -187500.02235174447, -187500.02235174447, 0.016, -0.022, -0.992, 192.0, 0.0, 0.0, 0.0, 0.0, 0.0, 0.0, 0.0, 0.0, 0.0, 1.67580964104905E9, 0.0, 2023-02-07 17:40:41.049
110.0, 12872.302576577971, 187500.0, 187500.0, 187500.0, -187500.02235174447, -187500.02235174447, -187500.02235174447, -187500.02235174447, 0.016, -0.022, -0.992, 192.0, 0.0, 0.0, 0.0, 0.0, 0.0, 0.0, 0.0, 0.0, 0.0, 1.675809641056045E9, 0.0, 2023-02-07 17:40:41.056
111.0, 12689.510010422471, 187500.0, 187500.0, 187500.0, -187500.02235174447, -187500.02235174447, -187500.02235174447, -187500.02235174447, 0.016, -0.022, -0.992, 192.0, 0.0, 0.0, 0.0, 0.0, 0.0, 0.0, 0.0, 0.0, 0.0, 1.675809641063537E9, 0.0, 2023-02-07 17:40:41.063
112.0, 12458.258862287863, 187500.0, 187500.0, 187500.0, -187500.02235174447, -187500.02235174447, -187500.02235174447, -187500.02235174447, 0.016, -0.022, -0.992, 192.0, 0.0, 0.0, 0.0, 0.0, 0.0, 0.0, 0.0, 0.0, 0.0, 1.675809641063552E9, 0.0, 2023-02-07 17:40:41.063
113.0, 12548.694020354036, 187500.0, 187500.0, 187500.0, -187500.02235174447, -187500.02235174447, -187500.02235174447, -187500.02235174447, 0.016, -0.022, -0.992, 192.0, 0.0, 0.0, 0.0, 0.0, 0.0, 0.0, 0.0, 0.0, 0.0, 1.67580964107066E9, 0.0, 2023-02-07 17:40:41.070
114.0, 12770.892711984243, 187500.0, 187500.0, 187500.0, -187500.02235174447, -187500.02235174447, -187500.02235174447, -187500.02235174447, 0.016, -0.022, -0.992, 192.0, 0.0, 0.0, 0.0, 0.0, 0.0, 0.0, 0.0, 0.0, 0.0, 1.675809641070675E9, 0.0, 2023-02-07 17:40:41.070
115.0, 12540.356819672206, 187500.0, 187500.0, 187500.0, -187500.02235174447, -187500.02235174447, -187500.02235174447, -187500.02235174447, 0.02, -0.02, -0.992, 192.0, 0.0, 160.0, 255.0, 96.0, 225.0, 0.0, 0.0, 0.0, 0.0, 1.675809641078728E9, 0.0, 2023-02-07 17:40:41.078
116.0, 12434.074274787221, 187500.0, 187500.0, 187500.0, -187500.02235174447, -187500.02235174447, -187500.02235174447, -187500.02235174447, 0.02, -0.02, -0.992, 192.0, 0.0, 0.0, 0.0, 0.0, 0.0, 0.0, 0.0, 0.0, 0.0, 1.675809641078744E9, 0.0, 2023-02-07 17:40:41.078
117.0, 12391.427146366495, 187500.0, 187500.0, 187500.0, -187500.02235174447, -187500.02235174447, -187500.02235174447, -187500.02235174447, 0.02, -0.02, -0.992, 192.0, 0.0, 0.0, 0.0, 0.0, 0.0, 0.0, 0.0, 0.0, 0.0, 1.675809641086689E9, 0.0, 2023-02-07 17:40:41.086
118.0, 12524.062397964288, 187500.0, 187500.0, 187500.0, -187500.02235174447, -187500.02235174447, -187500.02235174447, -187500.02235174447, 0.02, -0.02, -0.992, 192.0, 0.0, 0.0, 0.0, 0.0, 0.0, 0.0, 0.0, 0.0, 0.0, 1.675809641086713E9, 0.0, 2023-02-07 17:40:41.086
119.0, 12731.28542080944, 187500.0, 187500.0, 187500.0, -187500.02235174447, -187500.02235174447, -187500.02235174447, -187500.02235174447, 0.02, -0.02, -0.992, 192.0, 0.0, 0.0, 0.0, 0.0, 0.0, 0.0, 0.0, 0.0, 0.0, 1.675809641093337E9, 0.0, 2023-02-07 17:40:41.093
120.0, 12420.41735892503, 187500.0, 187500.0, 187500.0, -187500.02235174447, -187500.02235174447, -187500.02235174447, -187500.02235174447, 0.02, -0.02, -0.992, 192.0, 0.0, 0.0, 0.0, 0.0, 0.0, 0.0, 0.0, 0.0, 0.0, 1.675809641093356E9, 0.0, 2023-02-07 17:40:41.093
121.0, 12446.747713893381, 187500.0, 187500.0, 187500.0, -187500.02235174447, -187500.02235174447, -187500.02235174447, -187500.02235174447, 0.02, -0.02, -0.992, 192.0, 0.0, 0.0, 0.0, 0.0, 0.0, 0.0, 0.0, 0.0, 0.0, 1.675809641101349E9, 0.0, 2023-02-07 17:40:41.101
122.0, 12558.640546636647, 187500.0, 187500.0, 187500.0, -187500.02235174447, -187500.02235174447, -187500.02235174447, -187500.02235174447, 0.02, -0.02, -0.992, 192.0, 0.0, 0.0, 0.0, 0.0, 0.0, 0.0, 0.0, 0.0, 0.0, 1.675809641101361E9, 0.0, 2023-02-07 17:40:41.101
123.0, 12652.517873348937, 187500.0, 187500.0, 187500.0, -187500.02235174447, -187500.02235174447, -187500.02235174447, -187500.02235174447, 0.02, -0.02, -0.992, 192.0, 0.0, 0.0, 0.0, 0.0, 0.0, 0.0, 0.0, 0.0, 0.0, 1.675809641109329E9, 0.0, 2023-02-07 17:40:41.109
124.0, 13054.066962488529, 187500.0, 187500.0, 187500.0, -187500.02235174447, -187500.02235174447, -187500.02235174447, -187500.02235174447, 0.02, -0.02, -0.992, 192.0, 0.0, 0.0, 0.0, 0.0, 0.0, 0.0, 0.0, 0.0, 0.0, 1.67580964110934E9, 0.0, 2023-02-07 17:40:41.109
125.0, 12812.176383993195, 187500.0, 187500.0, 187500.0, -187500.02235174447, -187500.02235174447, -187500.02235174447, -187500.02235174447, 0.014, -0.02, -0.998, 192.0, 0.0, 112.0, 255.0, 96.0, 224.0, 208.0, 0.0, 0.0, 0.0, 1.675809641116534E9, 0.0, 2023-02-07 17:40:41.116
126.0, 12338.744084685337, 187500.0, 187500.0, 187500.0, -187500.02235174447, -187500.02235174447, -187500.02235174447, -187500.02235174447, 0.014, -0.02, -0.998, 192.0, 0.0, 0.0, 0.0, 0.0, 0.0, 0.0, 0.0, 0.0, 0.0, 1.675809641122926E9, 0.0, 2023-02-07 17:40:41.122
127.0, 12537.853424293211, 187500.0, 187500.0, 187500.0, -187500.02235174447, -187500.02235174447, -187500.02235174447, -187500.02235174447, 0.014, -0.02, -0.998, 192.0, 0.0, 0.0, 0.0, 0.0, 0.0, 0.0, 0.0, 0.0, 0.0, 1.67580964112294E9, 0.0, 2023-02-07 17:40:41.122
128.0, 12743.355362815306, 187500.0, 187500.0, 187500.0, -187500.02235174447, -187500.02235174447, -187500.02235174447, -187500.02235174447, 0.014, -0.02, -0.998, 192.0, 0.0, 0.0, 0.0, 0.0, 0.0, 0.0, 0.0, 0.0, 0.0, 1.675809641130946E9, 0.0, 2023-02-07 17:40:41.130
129.0, 12376.853808981636, 187500.0, 187500.0, 187500.0, -187500.02235174447, -187500.02235174447, -187500.02235174447, -187500.02235174447, 0.014, -0.02, -0.998, 192.0, 0.0, 0.0, 0.0, 0.0, 0.0, 0.0, 0.0, 0.0, 0.0, 1.675809641130964E9, 0.0, 2023-02-07 17:40:41.130
130.0, 12475.8943886631, 187500.0, 187500.0, 187500.0, -187500.02235174447, -187500.02235174447, -187500.02235174447, -187500.02235174447, 0.014, -0.02, -0.998, 192.0, 0.0, 0.0, 0.0, 0.0, 0.0, 0.0, 0.0, 0.0, 0.0, 1.675809641138956E9, 0.0, 2023-02-07 17:40:41.138
131.0, 12394.869315012613, 187500.0, 187500.0, 187500.0, -187500.02235174447, -187500.02235174447, -187500.02235174447, -187500.02235174447, 0.014, -0.02, -0.998, 192.0, 0.0, 0.0, 0.0, 0.0, 0.0, 0.0, 0.0, 0.0, 0.0, 1.675809641138973E9, 0.0, 2023-02-07 17:40:41.138
132.0, 12532.019618990376, 187500.0, 187500.0, 187500.0, -187500.02235174447, -187500.02235174447, -187500.02235174447, -187500.02235174447, 0.014, -0.02, -0.998, 192.0, 0.0, 0.0, 0.0, 0.0, 0.0, 0.0, 0.0, 0.0, 0.0, 1.675809641146107E9, 0.0, 2023-02-07 17:40:41.146
133.0, 12692.37103371275, 187500.0, 187500.0, 187500.0, -187500.02235174447, -187500.02235174447, -187500.02235174447, -187500.02235174447, 0.014, -0.02, -0.998, 192.0, 0.0, 0.0, 0.0, 0.0, 0.0, 0.0, 0.0, 0.0, 0.0, 1.675809641146119E9, 0.0, 2023-02-07 17:40:41.146
134.0, 12700.730586139034, 187500.0, 187500.0, 187500.0, -187500.02235174447, -187500.02235174447, -187500.02235174447, -187500.02235174447, 0.014, -0.02, -0.998, 192.0, 0.0, 0.0, 0.0, 0.0, 0.0, 0.0, 0.0, 0.0, 0.0, 1.675809641153707E9, 0.0, 2023-02-07 17:40:41.153
135.0, 12687.386594699215, 187500.0, 187500.0, 187500.0, -187500.02235174447, -187500.02235174447, -187500.02235174447, -187500.02235174447, 0.018000000000000002, -0.02, -0.996, 192.0, 0.0, 144.0, 255.0, 96.0, 224.0, 224.0, 0.0, 0.0, 0.0, 1.675809641153723E9, 0.0, 2023-02-07 17:40:41.153
136.0, 13082.833657602509, 187500.0, 187500.0, 187500.0, -187500.02235174447, -187500.02235174447, -187500.02235174447, -187500.02235174447, 0.018000000000000002, -0.02, -0.996, 192.0, 0.0, 0.0, 0.0, 0.0, 0.0, 0.0, 0.0, 0.0, 0.0, 1.675809641161629E9, 0.0, 2023-02-07 17:40:41.161
137.0, 12449.161702294554, 187500.0, 187500.0, 187500.0, -187500.02235174447, -187500.02235174447, -187500.02235174447, -187500.02235174447, 0.018000000000000002, -0.02, -0.996, 192.0, 0.0, 0.0, 0.0, 0.0, 0.0, 0.0, 0.0, 0.0, 0.0, 1.675809641161643E9, 0.0, 2023-02-07 17:40:41.161
138.0, 12290.933703295435, 187500.0, 187500.0, 187500.0, -187500.02235174447, -187500.02235174447, -187500.02235174447, -187500.02235174447, 0.018000000000000002, -0.02, -0.996, 192.0, 0.0, 0.0, 0.0, 0.0, 0.0, 0.0, 0.0, 0.0, 0.0, 1.675809641168659E9, 0.0, 2023-02-07 17:40:41.168
139.0, 12678.825876572833, 187500.0, 187500.0, 187500.0, -187500.02235174447, -187500.02235174447, -187500.02235174447, -187500.02235174447, 0.018000000000000002, -0.02, -0.996, 192.0, 0.0, 0.0, 0.0, 0.0, 0.0, 0.0, 0.0, 0.0, 0.0, 1.675809641168683E9, 0.0, 2023-02-07 17:40:41.168
140.0, 12598.851334911746, 187500.0, 187500.0, 187500.0, -187500.02235174447, -187500.02235174447, -187500.02235174447, -187500.02235174447, 0.018000000000000002, -0.02, -0.996, 192.0, 0.0, 0.0, 0.0, 0.0, 0.0, 0.0, 0.0, 0.0, 0.0, 1.675809641175201E9, 0.0, 2023-02-07 17:40:41.175
141.0, 12406.469870384917, 187500.0, 187500.0, 187500.0, -187500.02235174447, -187500.02235174447, -187500.02235174447, -187500.02235174447, 0.018000000000000002, -0.02, -0.996, 192.0, 0.0, 0.0, 0.0, 0.0, 0.0, 0.0, 0.0, 0.0, 0.0, 1.675809641175223E9, 0.0, 2023-02-07 17:40:41.175
142.0, 12650.439161114593, 187500.0, 187500.0, 187500.0, -187500.02235174447, -187500.02235174447, -187500.02235174447, -187500.02235174447, 0.018000000000000002, -0.02, -0.996, 192.0, 0.0, 0.0, 0.0, 0.0, 0.0, 0.0, 0.0, 0.0, 0.0, 1.675809641183279E9, 0.0, 2023-02-07 17:40:41.183
143.0, 12842.462997730137, 187500.0, 187500.0, 187500.0, -187500.02235174447, -187500.02235174447, -187500.02235174447, -187500.02235174447, 0.018000000000000002, -0.02, -0.996, 192.0, 0.0, 0.0, 0.0, 0.0, 0.0, 0.0, 0.0, 0.0, 0.0, 1.67580964119127E9, 0.0, 2023-02-07 17:40:41.191
144.0, 12529.627982333659, 187500.0, 187500.0, 187500.0, -187500.02235174447, -187500.02235174447, -187500.02235174447, -187500.02235174447, 0.018000000000000002, -0.02, -0.996, 192.0, 0.0, 0.0, 0.0, 0.0, 0.0, 0.0, 0.0, 0.0, 0.0, 1.675809641191285E9, 0.0, 2023-02-07 17:40:41.191
145.0, 12606.361521048728, 187500.0, 187500.0, 187500.0, -187500.02235174447, -187500.02235174447, -187500.02235174447, -187500.02235174447, 0.014, -0.024, -0.994, 192.0, 0.0, 112.0, 255.0, 64.0, 224.0, 240.0, 0.0, 0.0, 0.0, 1.675809641198293E9, 0.0, 2023-02-07 17:40:41.198
146.0, 13162.070591696573, 187500.0, 187500.0, 187500.0, -187500.02235174447, -187500.02235174447, -187500.02235174447, -187500.02235174447, 0.014, -0.024, -0.994, 192.0, 0.0, 0.0, 0.0, 0.0, 0.0, 0.0, 0.0, 0.0, 0.0, 1.675809641198306E9, 0.0, 2023-02-07 17:40:41.198
147.0, 12857.997460126575, 187500.0, 187500.0, 187500.0, -187500.02235174447, -187500.02235174447, -187500.02235174447, -187500.02235174447, 0.014, -0.024, -0.994, 192.0, 0.0, 0.0, 0.0, 0.0, 0.0, 0.0, 0.0, 0.0, 0.0, 1.675809641205806E9, 0.0, 2023-02-07 17:40:41.205
148.0, 12680.435202173616, 187500.0, 187500.0, 187500.0, -187500.02235174447, -187500.02235174447, -187500.02235174447, -187500.02235174447, 0.014, -0.024, -0.994, 192.0, 0.0, 0.0, 0.0, 0.0, 0.0, 0.0, 0.0, 0.0, 0.0, 1.675809641205818E9, 0.0, 2023-02-07 17:40:41.205
149.0, 12326.24945953482, 187500.0, 187500.0, 187500.0, -187500.02235174447, -187500.02235174447, -187500.02235174447, -187500.02235174447, 0.014, -0.024, -0.994, 192.0, 0.0, 0.0, 0.0, 0.0, 0.0, 0.0, 0.0, 0.0, 0.0, 1.675809641213824E9, 0.0, 2023-02-07 17:40:41.213
150.0, 12401.552486604749, 187500.0, 187500.0, 187500.0, -187500.02235174447, -187500.02235174447, -187500.02235174447, -187500.02235174447, 0.014, -0.024, -0.994, 192.0, 0.0, 0.0, 0.0, 0.0, 0.0, 0.0, 0.0, 0.0, 0.0, 1.675809641213842E9, 0.0, 2023-02-07 17:40:41.213
151.0, 12570.48697119796, 187500.0, 187500.0, 187500.0, -187500.02235174447, -187500.02235174447, -187500.02235174447, -187500.02235174447, 0.014, -0.024, -0.994, 192.0, 0.0, 0.0, 0.0, 0.0, 0.0, 0.0, 0.0, 0.0, 0.0, 1.675809641221884E9, 0.0, 2023-02-07 17:40:41.221
152.0, 12587.720166173001, 187500.0, 187500.0, 187500.0, -187500.02235174447, -187500.02235174447, -187500.02235174447, -187500.02235174447, 0.014, -0.024, -0.994, 192.0, 0.0, 0.0, 0.0, 0.0, 0.0, 0.0, 0.0, 0.0, 0.0, 1.675809641221906E9, 0.0, 2023-02-07 17:40:41.221
153.0, 12615.101053130753, 187500.0, 187500.0, 187500.0, -187500.02235174447, -187500.02235174447, -187500.02235174447, -187500.02235174447, 0.014, -0.024, -0.994, 192.0, 0.0, 0.0, 0.0, 0.0, 0.0, 0.0, 0.0, 0.0, 0.0, 1.675809641228466E9, 0.0, 2023-02-07 17:40:41.228
154.0, 12393.88583825658, 187500.0, 187500.0, 187500.0, -187500.02235174447, -187500.02235174447, -187500.02235174447, -187500.02235174447, 0.014, -0.024, -0.994, 192.0, 0.0, 0.0, 0.0, 0.0, 0.0, 0.0, 0.0, 0.0, 0.0, 1.675809641228485E9, 0.0, 2023-02-07 17:40:41.228
155.0, 12623.460605557038, 187500.0, 187500.0, 187500.0, -187500.02235174447, -187500.02235174447, -187500.02235174447, -187500.02235174447, 0.018000000000000002, -0.022, -0.992, 192.0, 0.0, 144.0, 255.0, 80.0, 225.0, 0.0, 0.0, 0.0, 0.0, 1.675809641236839E9, 0.0, 2023-02-07 17:40:41.236
156.0, 12588.614235951214, 187500.0, 187500.0, 187500.0, -187500.02235174447, -187500.02235174447, -187500.02235174447, -187500.02235174447, 0.018000000000000002, -0.022, -0.992, 192.0, 0.0, 0.0, 0.0, 0.0, 0.0, 0.0, 0.0, 0.0, 0.0, 1.675809641236854E9, 0.0, 2023-02-07 17:40:41.236
157.0, 12658.396382140683, 187500.0, 187500.0, 187500.0, -187500.02235174447, -187500.02235174447, -187500.02235174447, -187500.02235174447, 0.018000000000000002, -0.022, -0.992, 192.0, 0.0, 0.0, 0.0, 0.0, 0.0, 0.0, 0.0, 0.0, 0.0, 1.675809641243519E9, 0.0, 2023-02-07 17:40:41.243
158.0, 12615.63749499768, 187500.0, 187500.0, 187500.0, -187500.02235174447, -187500.02235174447, -187500.02235174447, -187500.02235174447, 0.018000000000000002, -0.022, -0.992, 192.0, 0.0, 0.0, 0.0, 0.0, 0.0, 0.0, 0.0, 0.0, 0.0, 1.675809641251477E9, 0.0, 2023-02-07 17:40:41.251
159.0, 12578.555950946326, 187500.0, 187500.0, 187500.0, -187500.02235174447, -187500.02235174447, -187500.02235174447, -187500.02235174447, 0.018000000000000002, -0.022, -0.992, 192.0, 0.0, 0.0, 0.0, 0.0, 0.0, 0.0, 0.0, 0.0, 0.0, 1.67580964125149E9, 0.0, 2023-02-07 17:40:41.251
160.0, 12632.937745206089, 187500.0, 187500.0, 187500.0, -187500.02235174447, -187500.02235174447, -187500.02235174447, -187500.02235174447, 0.018000000000000002, -0.022, -0.992, 192.0, 0.0, 0.0, 0.0, 0.0, 0.0, 0.0, 0.0, 0.0, 0.0, 1.675809641258176E9, 0.0, 2023-02-07 17:40:41.258
161.0, 12649.388629125195, 187500.0, 187500.0, 187500.0, -187500.02235174447, -187500.02235174447, -187500.02235174447, -187500.02235174447, 0.018000000000000002, -0.022, -0.992, 192.0, 0.0, 0.0, 0.0, 0.0, 0.0, 0.0, 0.0, 0.0, 0.0, 1.675809641258205E9, 0.0, 2023-02-07 17:40:41.258
162.0, 12704.910362352177, 187500.0, 187500.0, 187500.0, -187500.02235174447, -187500.02235174447, -187500.02235174447, -187500.02235174447, 0.018000000000000002, -0.022, -0.992, 192.0, 0.0, 0.0, 0.0, 0.0, 0.0, 0.0, 0.0, 0.0, 0.0, 1.675809641266151E9, 0.0, 2023-02-07 17:40:41.266
163.0, 12915.12851895434, 187500.0, 187500.0, 187500.0, -187500.02235174447, -187500.02235174447, -187500.02235174447, -187500.02235174447, 0.018000000000000002, -0.022, -0.992, 192.0, 0.0, 0.0, 0.0, 0.0, 0.0, 0.0, 0.0, 0.0, 0.0, 1.675809641266172E9, 0.0, 2023-02-07 17:40:41.266
164.0, 13185.495219885734, 187500.0, 187500.0, 187500.0, -187500.02235174447, -187500.02235174447, -187500.02235174447, -187500.02235174447, 0.018000000000000002, -0.026000000000000002, -0.994, 192.0, 0.0, 144.0, 255.0, 48.0, 224.0, 240.0, 0.0, 0.0, 0.0, 1.675809641274146E9, 0.0, 2023-02-07 17:40:41.274
165.0, 12672.41092591416, 187500.0, 187500.0, 187500.0, -187500.02235174447, -187500.02235174447, -187500.02235174447, -187500.02235174447, 0.018000000000000002, -0.026000000000000002, -0.994, 192.0, 0.0, 0.0, 0.0, 0.0, 0.0, 0.0, 0.0, 0.0, 0.0, 1.675809641274162E9, 0.0, 2023-02-07 17:40:41.274
166.0, 12491.42885105954, 187500.0, 187500.0, 187500.0, -187500.02235174447, -187500.02235174447, -187500.02235174447, -187500.02235174447, 0.018000000000000002, -0.026000000000000002, -0.994, 192.0, 0.0, 0.0, 0.0, 0.0, 0.0, 0.0, 0.0, 0.0, 0.0, 1.675809641281312E9, 0.0, 2023-02-07 17:40:41.281
167.0, 12623.214736368029, 187500.0, 187500.0, 187500.0, -187500.02235174447, -187500.02235174447, -187500.02235174447, -187500.02235174447, 0.018000000000000002, -0.026000000000000002, -0.994, 192.0, 0.0, 0.0, 0.0, 0.0, 0.0, 0.0, 0.0, 0.0, 0.0, 1.675809641281327E9, 0.0, 2023-02-07 17:40:41.281
168.0, 12530.119720711675, 187500.0, 187500.0, 187500.0, -187500.02235174447, -187500.02235174447, -187500.02235174447, -187500.02235174447, 0.018000000000000002, -0.026000000000000002, -0.994, 192.0, 0.0, 0.0, 0.0, 0.0, 0.0, 0.0, 0.0, 0.0, 0.0, 1.675809641288778E9, 0.0, 2023-02-07 17:40:41.288
169.0, 12505.979836699944, 187500.0, 187500.0, 187500.0, -187500.02235174447, -187500.02235174447, -187500.02235174447, -187500.02235174447, 0.018000000000000002, -0.026000000000000002, -0.994, 192.0, 0.0, 0.0, 0.0, 0.0, 0.0, 0.0, 0.0, 0.0, 0.0, 1.675809641288791E9, 0.0, 2023-02-07 17:40:41.288
170.0, 12765.371831103783, 187500.0, 187500.0, 187500.0, -187500.02235174447, -187500.02235174447, -187500.02235174447, -187500.02235174447, 0.018000000000000002, -0.026000000000000002, -0.994, 192.0, 0.0, 0.0, 0.0, 0.0, 0.0, 0.0, 0.0, 0.0, 0.0, 1.675809641296791E9, 0.0, 2023-02-07 17:40:41.296
171.0, 13095.194172286294, 187500.0, 187500.0, 187500.0, -187500.02235174447, -187500.02235174447, -187500.02235174447, -187500.02235174447, 0.018000000000000002, -0.026000000000000002, -0.994, 192.0, 0.0, 0.0, 0.0, 0.0, 0.0, 0.0, 0.0, 0.0, 0.0, 1.675809641296809E9, 0.0, 2023-02-07 17:40:41.296
172.0, 12993.203162336727, 187500.0, 187500.0, 187500.0, -187500.02235174447, -187500.02235174447, -187500.02235174447, -187500.02235174447, 0.018000000000000002, -0.026000000000000002, -0.994, 192.0, 0.0, 0.0, 0.0, 0.0, 0.0, 0.0, 0.0, 0.0, 0.0, 1.675809641303804E9, 0.0, 2023-02-07 17:40:41.303
173.0, 12785.220180180095, 187500.0, 187500.0, 187500.0, -187500.02235174447, -187500.02235174447, -187500.02235174447, -187500.02235174447, 0.018000000000000002, -0.026000000000000002, -0.994, 192.0, 0.0, 0.0, 0.0, 0.0, 0.0, 0.0, 0.0, 0.0, 0.0, 1.6758096413109E9, 0.0, 2023-02-07 17:40:41.310
174.0, 12397.372710391606, 187500.0, 187500.0, 187500.0, -187500.02235174447, -187500.02235174447, -187500.02235174447, -187500.02235174447, 0.022, -0.02, -0.99, 192.0, 0.0, 176.0, 255.0, 96.0, 225.0, 16.0, 0.0, 0.0, 0.0, 1.675809641310911E9, 0.0, 2023-02-07 17:40:41.310
175.0, 12505.778670999845, 187500.0, 187500.0, 187500.0, -187500.02235174447, -187500.02235174447, -187500.02235174447, -187500.02235174447, 0.022, -0.02, -0.99, 192.0, 0.0, 0.0, 0.0, 0.0, 0.0, 0.0, 0.0, 0.0, 0.0, 1.675809641318548E9, 0.0, 2023-02-07 17:40:41.318
176.0, 12636.446969085571, 187500.0, 187500.0, 187500.0, -187500.02235174447, -187500.02235174447, -187500.02235174447, -187500.02235174447, 0.022, -0.02, -0.99, 192.0, 0.0, 0.0, 0.0, 0.0, 0.0, 0.0, 0.0, 0.0, 0.0, 1.675809641318563E9, 0.0, 2023-02-07 17:40:41.318
177.0, 12619.929029933099, 187500.0, 187500.0, 187500.0, -187500.02235174447, -187500.02235174447, -187500.02235174447, -187500.02235174447, 0.022, -0.02, -0.99, 192.0, 0.0, 0.0, 0.0, 0.0, 0.0, 0.0, 0.0, 0.0, 0.0, 1.675809641326519E9, 0.0, 2023-02-07 17:40:41.326
178.0, 12942.509405912091, 187500.0, 187500.0, 187500.0, -187500.02235174447, -187500.02235174447, -187500.02235174447, -187500.02235174447, 0.022, -0.02, -0.99, 192.0, 0.0, 0.0, 0.0, 0.0, 0.0, 0.0, 0.0, 0.0, 0.0, 1.675809641326539E9, 0.0, 2023-02-07 17:40:41.326
179.0, 12905.740786283111, 187500.0, 187500.0, 187500.0, -187500.02235174447, -187500.02235174447, -187500.02235174447, -187500.02235174447, 0.022, -0.02, -0.99, 192.0, 0.0, 0.0, 0.0, 0.0, 0.0, 0.0, 0.0, 0.0, 0.0, 1.675809641334474E9, 0.0, 2023-02-07 17:40:41.334
