%OpenBCI Raw EEG Data
%Number of channels = 8
%Sample Rate = 250 Hz
%Board = OpenBCI_GUI$BoardCytonSerial
Sample Index, EXG Channel 0, EXG Channel 1, EXG Channel 2, EXG Channel 3, EXG Channel 4, EXG Channel 5, EXG Channel 6, EXG Channel 7, Accel Channel 0, Accel Channel 1, Accel Channel 2, Other, Other, Other, Other, Other, Other, Other, Analog Channel 0, Analog Channel 1, Analog Channel 2, Timestamp, Other, Timestamp (Formatted)
126.0, 15172.699412429263, 187500.0, 187500.0, 187500.0, -187500.02235174447, -187500.02235174447, -187500.02235174447, -187500.02235174447, 0.0, 0.0, 0.0, 192.0, 0.0, 0.0, 0.0, 0.0, 0.0, 0.0, 0.0, 0.0, 0.0, 1.675809596015077E9, 0.0, 2023-02-07 17:39:56.015
127.0, 15154.90742384284, 187500.0, 187500.0, 187500.0, -187500.02235174447, -187500.02235174447, -187500.02235174447, -187500.02235174447, 0.0, 0.0, 0.0, 192.0, 0.0, 0.0, 0.0, 0.0, 0.0, 0.0, 0.0, 0.0, 0.0, 1.675809596015102E9, 0.0, 2023-02-07 17:39:56.015
128.0, 15155.242700009669, 187500.0, 187500.0, 187500.0, -187500.02235174447, -187500.02235174447, -187500.02235174447, -187500.02235174447, 0.0, 0.0, 0.0, 192.0, 0.0, 0.0, 0.0, 0.0, 0.0, 0.0, 0.0, 0.0, 0.0, 1.675809596015112E9, 0.0, 2023-02-07 17:39:56.015
129.0, 15145.162063260326, 187500.0, 187500.0, 187500.0, -187500.02235174447, -187500.02235174447, -187500.02235174447, -187500.02235174447, 0.0, 0.0, 0.0, 192.0, 0.0, 0.0, 0.0, 0.0, 0.0, 0.0, 0.0, 0.0, 0.0, 1.675809596015122E9, 0.0, 2023-02-07 17:39:56.015
0.0, 0.0, 0.0, 0.0, 0.0, 0.0, 0.0, 0.0, 0.0, 0.0, 0.0, 0.0, 192.0, 0.0, 0.0, 0.0, 0.0, 0.0, 0.0, 0.0, 0.0, 0.0, 1.675809596083481E9, 0.0, 2023-02-07 17:39:56.083
1.0, 8890.205191398287, 187500.0, 187500.0, 187500.0, -187500.02235174447, -187500.02235174447, -187500.02235174447, -187500.02235174447, 0.012, -0.028, -0.994, 192.0, 0.0, 96.0, 255.0, 32.0, 224.0, 240.0, 0.0, 0.0, 0.0, 1.67580959609639E9, 0.0, 2023-02-07 17:39:56.096
2.0, 8884.103165161987, 187500.0, 187500.0, 187500.0, -187500.02235174447, -187500.02235174447, -187500.02235174447, -187500.02235174447, 0.012, -0.028, -0.994, 192.0, 0.0, 0.0, 0.0, 0.0, 0.0, 0.0, 0.0, 0.0, 0.0, 1.675809596102533E9, 0.0, 2023-02-07 17:39:56.102
3.0, 8891.367482109963, 187500.0, 187500.0, 187500.0, -187500.02235174447, -187500.02235174447, -187500.02235174447, -187500.02235174447, 0.012, -0.028, -0.994, 192.0, 0.0, 0.0, 0.0, 0.0, 0.0, 0.0, 0.0, 0.0, 0.0, 1.675809596102549E9, 0.0, 2023-02-07 17:39:56.102
4.0, 8871.876760944935, 187500.0, 187500.0, 187500.0, -187500.02235174447, -187500.02235174447, -187500.02235174447, -187500.02235174447, 0.012, -0.028, -0.994, 192.0, 0.0, 0.0, 0.0, 0.0, 0.0, 0.0, 0.0, 0.0, 0.0, 1.675809596111269E9, 0.0, 2023-02-07 17:39:56.111
5.0, 8832.649449425871, 187500.0, 187500.0, 187500.0, -187500.02235174447, -187500.02235174447, -187500.02235174447, -187500.02235174447, 0.012, -0.028, -0.994, 192.0, 0.0, 0.0, 0.0, 0.0, 0.0, 0.0, 0.0, 0.0, 0.0, 1.675809596111295E9, 0.0, 2023-02-07 17:39:56.111
6.0, 8844.719391431736, 187500.0, 187500.0, 187500.0, -187500.02235174447, -187500.02235174447, -187500.02235174447, -187500.02235174447, 0.012, -0.028, -0.994, 192.0, 0.0, 0.0, 0.0, 0.0, 0.0, 0.0, 0.0, 0.0, 0.0, 1.675809596118838E9, 0.0, 2023-02-07 17:39:56.118
7.0, 8866.735859720215, 187500.0, 187500.0, 187500.0, -187500.02235174447, -187500.02235174447, -187500.02235174447, -187500.02235174447, 0.012, -0.028, -0.994, 192.0, 0.0, 0.0, 0.0, 0.0, 0.0, 0.0, 0.0, 0.0, 0.0, 1.67580959611886E9, 0.0, 2023-02-07 17:39:56.118
8.0, 8866.378231808929, 187500.0, 187500.0, 187500.0, -187500.02235174447, -187500.02235174447, -187500.02235174447, -187500.02235174447, 0.01, -0.032, -0.994, 192.0, 0.0, 80.0, 255.0, 0.0, 224.0, 240.0, 0.0, 0.0, 0.0, 1.675809596125999E9, 0.0, 2023-02-07 17:39:56.125
9.0, 8853.973013636234, 187500.0, 187500.0, 187500.0, -187500.02235174447, -187500.02235174447, -187500.02235174447, -187500.02235174447, 0.01, -0.032, -0.994, 192.0, 0.0, 0.0, 0.0, 0.0, 0.0, 0.0, 0.0, 0.0, 0.0, 1.675809596126016E9, 0.0, 2023-02-07 17:39:56.126
10.0, 8854.330641547518, 187500.0, 187500.0, 187500.0, -187500.02235174447, -187500.02235174447, -187500.02235174447, -187500.02235174447, 0.01, -0.032, -0.994, 192.0, 0.0, 0.0, 0.0, 0.0, 0.0, 0.0, 0.0, 0.0, 0.0, 1.675809596134596E9, 0.0, 2023-02-07 17:39:56.134
11.0, 8877.71056624777, 187500.0, 187500.0, 187500.0, -187500.02235174447, -187500.02235174447, -187500.02235174447, -187500.02235174447, 0.01, -0.032, -0.994, 192.0, 0.0, 0.0, 0.0, 0.0, 0.0, 0.0, 0.0, 0.0, 0.0, 1.675809596134619E9, 0.0, 2023-02-07 17:39:56.134
12.0, 8879.163429637365, 187500.0, 187500.0, 187500.0, -187500.02235174447, -187500.02235174447, -187500.02235174447, -187500.02235174447, 0.01, -0.032, -0.994, 192.0, 0.0, 0.0, 0.0, 0.0, 0.0, 0.0, 0.0, 0.0, 0.0, 1.675809596141236E9, 0.0, 2023-02-07 17:39:56.141
13.0, 8825.988629578189, 187500.0, 187500.0, 187500.0, -187500.02235174447, -187500.02235174447, -187500.02235174447, -187500.02235174447, 0.01, -0.032, -0.994, 192.0, 0.0, 0.0, 0.0, 0.0, 0.0, 0.0, 0.0, 0.0, 0.0, 1.675809596141256E9, 0.0, 2023-02-07 17:39:56.141
14.0, 8847.021621110633, 187500.0, 187500.0, 187500.0, -187500.02235174447, -187500.02235174447, -187500.02235174447, -187500.02235174447, 0.01, -0.032, -0.994, 192.0, 0.0, 0.0, 0.0, 0.0, 0.0, 0.0, 0.0, 0.0, 0.0, 1.675809596148235E9, 0.0, 2023-02-07 17:39:56.148
15.0, 8849.502664745172, 187500.0, 187500.0, 187500.0, -187500.02235174447, -187500.02235174447, -187500.02235174447, -187500.02235174447, 0.01, -0.032, -0.994, 192.0, 0.0, 0.0, 0.0, 0.0, 0.0, 0.0, 0.0, 0.0, 0.0, 1.675809596148252E9, 0.0, 2023-02-07 17:39:56.148
16.0, 8849.077981600522, 187500.0, 187500.0, 187500.0, -187500.02235174447, -187500.02235174447, -187500.02235174447, -187500.02235174447, 0.01, -0.032, -0.994, 192.0, 0.0, 0.0, 0.0, 0.0, 0.0, 0.0, 0.0, 0.0, 0.0, 1.675809596154736E9, 0.0, 2023-02-07 17:39:56.154
17.0, 8843.60180420897, 187500.0, 187500.0, 187500.0, -187500.02235174447, -187500.02235174447, -187500.02235174447, -187500.02235174447, 0.01, -0.032, -0.994, 192.0, 0.0, 0.0, 0.0, 0.0, 0.0, 0.0, 0.0, 0.0, 0.0, 1.675809596162953E9, 0.0, 2023-02-07 17:39:56.162
18.0, 8847.80393216657, 187500.0, 187500.0, 187500.0, -187500.02235174447, -187500.02235174447, -187500.02235174447, -187500.02235174447, 0.01, -0.026000000000000002, -0.996, 192.0, 0.0, 80.0, 255.0, 48.0, 224.0, 224.0, 0.0, 0.0, 0.0, 1.675809596162985E9, 0.0, 2023-02-07 17:39:56.162
19.0, 8845.591109465493, 187500.0, 187500.0, 187500.0, -187500.02235174447, -187500.02235174447, -187500.02235174447, -187500.02235174447, 0.01, -0.026000000000000002, -0.996, 192.0, 0.0, 0.0, 0.0, 0.0, 0.0, 0.0, 0.0, 0.0, 0.0, 1.67580959617095E9, 0.0, 2023-02-07 17:39:56.170
20.0, 8845.456998998761, 187500.0, 187500.0, 187500.0, -187500.02235174447, -187500.02235174447, -187500.02235174447, -187500.02235174447, 0.01, -0.026000000000000002, -0.996, 192.0, 0.0, 0.0, 0.0, 0.0, 0.0, 0.0, 0.0, 0.0, 0.0, 1.675809596170968E9, 0.0, 2023-02-07 17:39:56.170
21.0, 8843.758266420158, 187500.0, 187500.0, 187500.0, -187500.02235174447, -187500.02235174447, -187500.02235174447, -187500.02235174447, 0.01, -0.026000000000000002, -0.996, 192.0, 0.0, 0.0, 0.0, 0.0, 0.0, 0.0, 0.0, 0.0, 0.0, 1.675809596177399E9, 0.0, 2023-02-07 17:39:56.177
22.0, 8829.341391246486, 187500.0, 187500.0, 187500.0, -187500.02235174447, -187500.02235174447, -187500.02235174447, -187500.02235174447, 0.01, -0.026000000000000002, -0.996, 192.0, 0.0, 0.0, 0.0, 0.0, 0.0, 0.0, 0.0, 0.0, 0.0, 1.675809596177418E9, 0.0, 2023-02-07 17:39:56.177
23.0, 8832.18006279231, 187500.0, 187500.0, 187500.0, -187500.02235174447, -187500.02235174447, -187500.02235174447, -187500.02235174447, 0.01, -0.026000000000000002, -0.996, 192.0, 0.0, 0.0, 0.0, 0.0, 0.0, 0.0, 0.0, 0.0, 0.0, 1.67580959618555E9, 0.0, 2023-02-07 17:39:56.185
24.0, 8851.380211279418, 187500.0, 187500.0, 187500.0, -187500.02235174447, -187500.02235174447, -187500.02235174447, -187500.02235174447, 0.01, -0.026000000000000002, -0.996, 192.0, 0.0, 0.0, 0.0, 0.0, 0.0, 0.0, 0.0, 0.0, 0.0, 1.675809596185574E9, 0.0, 2023-02-07 17:39:56.185
25.0, 8846.775751921625, 187500.0, 187500.0, 187500.0, -187500.02235174447, -187500.02235174447, -187500.02235174447, -187500.02235174447, 0.01, -0.026000000000000002, -0.996, 192.0, 0.0, 0.0, 0.0, 0.0, 0.0, 0.0, 0.0, 0.0, 0.0, 1.675809596193532E9, 0.0, 2023-02-07 17:39:56.193
26.0, 8867.026432398134, 187500.0, 187500.0, 187500.0, -187500.02235174447, -187500.02235174447, -187500.02235174447, -187500.02235174447, 0.01, -0.026000000000000002, -0.996, 192.0, 0.0, 0.0, 0.0, 0.0, 0.0, 0.0, 0.0, 0.0, 0.0, 1.675809596193552E9, 0.0, 2023-02-07 17:39:56.193
27.0, 8864.008946896667, 187500.0, 187500.0, 187500.0, -187500.02235174447, -187500.02235174447, -187500.02235174447, -187500.02235174447, 0.006, -0.02, -0.998, 192.0, 0.0, 48.0, 255.0, 96.0, 224.0, 208.0, 0.0, 0.0, 0.0, 1.675809596200463E9, 0.0, 2023-02-07 17:39:56.200
28.0, 8795.322036185507, 187500.0, 187500.0, 187500.0, -187500.02235174447, -187500.02235174447, -187500.02235174447, -187500.02235174447, 0.006, -0.02, -0.998, 192.0, 0.0, 0.0, 0.0, 0.0, 0.0, 0.0, 0.0, 0.0, 0.0, 1.675809596200477E9, 0.0, 2023-02-07 17:39:56.200
29.0, 8812.197603249264, 187500.0, 187500.0, 187500.0, -187500.02235174447, -187500.02235174447, -187500.02235174447, -187500.02235174447, 0.006, -0.02, -0.998, 192.0, 0.0, 0.0, 0.0, 0.0, 0.0, 0.0, 0.0, 0.0, 0.0, 1.675809596208008E9, 0.0, 2023-02-07 17:39:56.208
30.0, 8821.071245798023, 187500.0, 187500.0, 187500.0, -187500.02235174447, -187500.02235174447, -187500.02235174447, -187500.02235174447, 0.006, -0.02, -0.998, 192.0, 0.0, 0.0, 0.0, 0.0, 0.0, 0.0, 0.0, 0.0, 0.0, 1.675809596208024E9, 0.0, 2023-02-07 17:39:56.208
31.0, 8805.380321190396, 187500.0, 187500.0, 187500.0, -187500.02235174447, -187500.02235174447, -187500.02235174447, -187500.02235174447, 0.006, -0.02, -0.998, 192.0, 0.0, 0.0, 0.0, 0.0, 0.0, 0.0, 0.0, 0.0, 0.0, 1.675809596215235E9, 0.0, 2023-02-07 17:39:56.215
32.0, 8819.573678919516, 187500.0, 187500.0, 187500.0, -187500.02235174447, -187500.02235174447, -187500.02235174447, -187500.02235174447, 0.006, -0.02, -0.998, 192.0, 0.0, 0.0, 0.0, 0.0, 0.0, 0.0, 0.0, 0.0, 0.0, 1.67580959622318E9, 0.0, 2023-02-07 17:39:56.223
33.0, 8823.105254543454, 187500.0, 187500.0, 187500.0, -187500.02235174447, -187500.02235174447, -187500.02235174447, -187500.02235174447, 0.006, -0.02, -0.998, 192.0, 0.0, 0.0, 0.0, 0.0, 0.0, 0.0, 0.0, 0.0, 0.0, 1.675809596223199E9, 0.0, 2023-02-07 17:39:56.223
34.0, 8800.261771710131, 187500.0, 187500.0, 187500.0, -187500.02235174447, -187500.02235174447, -187500.02235174447, -187500.02235174447, 0.006, -0.02, -0.998, 192.0, 0.0, 0.0, 0.0, 0.0, 0.0, 0.0, 0.0, 0.0, 0.0, 1.675809596230129E9, 0.0, 2023-02-07 17:39:56.230
35.0, 8827.55325169006, 187500.0, 187500.0, 187500.0, -187500.02235174447, -187500.02235174447, -187500.02235174447, -187500.02235174447, 0.006, -0.02, -0.998, 192.0, 0.0, 0.0, 0.0, 0.0, 0.0, 0.0, 0.0, 0.0, 0.0, 1.675809596230147E9, 0.0, 2023-02-07 17:39:56.230
36.0, 8872.010871411667, 187500.0, 187500.0, 187500.0, -187500.02235174447, -187500.02235174447, -187500.02235174447, -187500.02235174447, 0.006, -0.02, -0.998, 192.0, 0.0, 0.0, 0.0, 0.0, 0.0, 0.0, 0.0, 0.0, 0.0, 1.675809596237842E9, 0.0, 2023-02-07 17:39:56.237
37.0, 8886.651264029893, 187500.0, 187500.0, 187500.0, -187500.02235174447, -187500.02235174447, -187500.02235174447, -187500.02235174447, 0.012, -0.024, -0.99, 192.0, 0.0, 96.0, 255.0, 64.0, 225.0, 16.0, 0.0, 0.0, 0.0, 1.675809596237857E9, 0.0, 2023-02-07 17:39:56.237
38.0, 8809.962428803734, 187500.0, 187500.0, 187500.0, -187500.02235174447, -187500.02235174447, -187500.02235174447, -187500.02235174447, 0.012, -0.024, -0.99, 192.0, 0.0, 0.0, 0.0, 0.0, 0.0, 0.0, 0.0, 0.0, 0.0, 1.675809596245816E9, 0.0, 2023-02-07 17:39:56.245
39.0, 8803.525126400606, 187500.0, 187500.0, 187500.0, -187500.02235174447, -187500.02235174447, -187500.02235174447, -187500.02235174447, 0.012, -0.024, -0.99, 192.0, 0.0, 0.0, 0.0, 0.0, 0.0, 0.0, 0.0, 0.0, 0.0, 1.675809596245839E9, 0.0, 2023-02-07 17:39:56.245
40.0, 8824.647524910872, 187500.0, 187500.0, 187500.0, -187500.02235174447, -187500.02235174447, -187500.02235174447, -187500.02235174447, 0.012, -0.024, -0.99, 192.0, 0.0, 0.0, 0.0, 0.0, 0.0, 0.0, 0.0, 0.0, 0.0, 1.675809596253727E9, 0.0, 2023-02-07 17:39:56.253
41.0, 8828.849652868468, 187500.0, 187500.0, 187500.0, -187500.02235174447, -187500.02235174447, -187500.02235174447, -187500.02235174447, 0.012, -0.024, -0.99, 192.0, 0.0, 0.0, 0.0, 0.0, 0.0, 0.0, 0.0, 0.0, 0.0, 1.675809596253747E9, 0.0, 2023-02-07 17:39:56.253
42.0, 8802.116966499922, 187500.0, 187500.0, 187500.0, -187500.02235174447, -187500.02235174447, -187500.02235174447, -187500.02235174447, 0.012, -0.024, -0.99, 192.0, 0.0, 0.0, 0.0, 0.0, 0.0, 0.0, 0.0, 0.0, 0.0, 1.675809596260323E9, 0.0, 2023-02-07 17:39:56.260
43.0, 8809.850670081458, 187500.0, 187500.0, 187500.0, -187500.02235174447, -187500.02235174447, -187500.02235174447, -187500.02235174447, 0.012, -0.024, -0.99, 192.0, 0.0, 0.0, 0.0, 0.0, 0.0, 0.0, 0.0, 0.0, 0.0, 1.675809596260346E9, 0.0, 2023-02-07 17:39:56.260
44.0, 8820.17717601981, 187500.0, 187500.0, 187500.0, -187500.02235174447, -187500.02235174447, -187500.02235174447, -187500.02235174447, 0.012, -0.024, -0.99, 192.0, 0.0, 0.0, 0.0, 0.0, 0.0, 0.0, 0.0, 0.0, 0.0, 1.675809596268468E9, 0.0, 2023-02-07 17:39:56.268
45.0, 8832.9847255927, 187500.0, 187500.0, 187500.0, -187500.02235174447, -187500.02235174447, -187500.02235174447, -187500.02235174447, 0.012, -0.024, -0.99, 192.0, 0.0, 0.0, 0.0, 0.0, 0.0, 0.0, 0.0, 0.0, 0.0, 1.675809596268489E9, 0.0, 2023-02-07 17:39:56.268
46.0, 8822.658219654348, 187500.0, 187500.0, 187500.0, -187500.02235174447, -187500.02235174447, -187500.02235174447, -187500.02235174447, 0.012, -0.024, -0.99, 192.0, 0.0, 0.0, 0.0, 0.0, 0.0, 0.0, 0.0, 0.0, 0.0, 1.67580959627581E9, 0.0, 2023-02-07 17:39:56.275
47.0, 8794.115041984922, 187500.0, 187500.0, 187500.0, -187500.02235174447, -187500.02235174447, -187500.02235174447, -187500.02235174447, 0.008, -0.02, -0.99, 192.0, 0.0, 64.0, 255.0, 96.0, 225.0, 16.0, 0.0, 0.0, 0.0, 1.675809596283366E9, 0.0, 2023-02-07 17:39:56.283
48.0, 8801.35700718844, 187500.0, 187500.0, 187500.0, -187500.02235174447, -187500.02235174447, -187500.02235174447, -187500.02235174447, 0.008, -0.02, -0.99, 192.0, 0.0, 0.0, 0.0, 0.0, 0.0, 0.0, 0.0, 0.0, 0.0, 1.675809596283387E9, 0.0, 2023-02-07 17:39:56.283
49.0, 8833.856443626457, 187500.0, 187500.0, 187500.0, -187500.02235174447, -187500.02235174447, -187500.02235174447, -187500.02235174447, 0.008, -0.02, -0.99, 192.0, 0.0, 0.0, 0.0, 0.0, 0.0, 0.0, 0.0, 0.0, 0.0, 1.675809596290011E9, 0.0, 2023-02-07 17:39:56.290
50.0, 8824.044027810578, 187500.0, 187500.0, 187500.0, -187500.02235174447, -187500.02235174447, -187500.02235174447, -187500.02235174447, 0.008, -0.02, -0.99, 192.0, 0.0, 0.0, 0.0, 0.0, 0.0, 0.0, 0.0, 0.0, 0.0, 1.675809596290028E9, 0.0, 2023-02-07 17:39:56.290
51.0, 8792.662178595327, 187500.0, 187500.0, 187500.0, -187500.02235174447, -187500.02235174447, -187500.02235174447, -187500.02235174447, 0.008, -0.02, -0.99, 192.0, 0.0, 0.0, 0.0, 0.0, 0.0, 0.0, 0.0, 0.0, 0.0, 1.675809596298047E9, 0.0, 2023-02-07 17:39:56.298
52.0, 8797.177230975298, 187500.0, 187500.0, 187500.0, -187500.02235174447, -187500.02235174447, -187500.02235174447, -187500.02235174447, 0.008, -0.02, -0.99, 192.0, 0.0, 0.0, 0.0, 0.0, 0.0, 0.0, 0.0, 0.0, 0.0, 1.67580959629807E9, 0.0, 2023-02-07 17:39:56.298
53.0, 8800.194716476764, 187500.0, 187500.0, 187500.0, -187500.02235174447, -187500.02235174447, -187500.02235174447, -187500.02235174447, 0.008, -0.02, -0.99, 192.0, 0.0, 0.0, 0.0, 0.0, 0.0, 0.0, 0.0, 0.0, 0.0, 1.67580959630597E9, 0.0, 2023-02-07 17:39:56.305
54.0, 8793.779765818092, 187500.0, 187500.0, 187500.0, -187500.02235174447, -187500.02235174447, -187500.02235174447, -187500.02235174447, 0.008, -0.02, -0.99, 192.0, 0.0, 0.0, 0.0, 0.0, 0.0, 0.0, 0.0, 0.0, 0.0, 1.675809596305981E9, 0.0, 2023-02-07 17:39:56.305
55.0, 8793.64565535136, 187500.0, 187500.0, 187500.0, -187500.02235174447, -187500.02235174447, -187500.02235174447, -187500.02235174447, 0.008, -0.02, -0.99, 192.0, 0.0, 0.0, 0.0, 0.0, 0.0, 0.0, 0.0, 0.0, 0.0, 1.675809596312596E9, 0.0, 2023-02-07 17:39:56.312
56.0, 8818.41138820784, 187500.0, 187500.0, 187500.0, -187500.02235174447, -187500.02235174447, -187500.02235174447, -187500.02235174447, 0.008, -0.02, -0.99, 192.0, 0.0, 0.0, 0.0, 0.0, 0.0, 0.0, 0.0, 0.0, 0.0, 1.675809596312608E9, 0.0, 2023-02-07 17:39:56.312
57.0, 8794.718539085216, 187500.0, 187500.0, 187500.0, -187500.02235174447, -187500.02235174447, -187500.02235174447, -187500.02235174447, 0.008, -0.022, -0.994, 192.0, 0.0, 64.0, 255.0, 80.0, 224.0, 240.0, 0.0, 0.0, 0.0, 1.675809596320557E9, 0.0, 2023-02-07 17:39:56.320
58.0, 8783.766184302114, 187500.0, 187500.0, 187500.0, -187500.02235174447, -187500.02235174447, -187500.02235174447, -187500.02235174447, 0.008, -0.022, -0.994, 192.0, 0.0, 0.0, 0.0, 0.0, 0.0, 0.0, 0.0, 0.0, 0.0, 1.675809596320575E9, 0.0, 2023-02-07 17:39:56.320
59.0, 8811.862327082436, 187500.0, 187500.0, 187500.0, -187500.02235174447, -187500.02235174447, -187500.02235174447, -187500.02235174447, 0.008, -0.022, -0.994, 192.0, 0.0, 0.0, 0.0, 0.0, 0.0, 0.0, 0.0, 0.0, 0.0, 1.675809596328663E9, 0.0, 2023-02-07 17:39:56.328
60.0, 8819.104292285954, 187500.0, 187500.0, 187500.0, -187500.02235174447, -187500.02235174447, -187500.02235174447, -187500.02235174447, 0.008, -0.022, -0.994, 192.0, 0.0, 0.0, 0.0, 0.0, 0.0, 0.0, 0.0, 0.0, 0.0, 1.675809596328677E9, 0.0, 2023-02-07 17:39:56.328
61.0, 8813.918687572323, 187500.0, 187500.0, 187500.0, -187500.02235174447, -187500.02235174447, -187500.02235174447, -187500.02235174447, 0.008, -0.022, -0.994, 192.0, 0.0, 0.0, 0.0, 0.0, 0.0, 0.0, 0.0, 0.0, 0.0, 1.675809596335862E9, 0.0, 2023-02-07 17:39:56.335
62.0, 8812.64463813837, 187500.0, 187500.0, 187500.0, -187500.02235174447, -187500.02235174447, -187500.02235174447, -187500.02235174447, 0.008, -0.022, -0.994, 192.0, 0.0, 0.0, 0.0, 0.0, 0.0, 0.0, 0.0, 0.0, 0.0, 1.675809596335882E9, 0.0, 2023-02-07 17:39:56.335
63.0, 8819.46192019724, 187500.0, 187500.0, 187500.0, -187500.02235174447, -187500.02235174447, -187500.02235174447, -187500.02235174447, 0.008, -0.022, -0.994, 192.0, 0.0, 0.0, 0.0, 0.0, 0.0, 0.0, 0.0, 0.0, 0.0, 1.675809596342333E9, 0.0, 2023-02-07 17:39:56.342
64.0, 8830.74955114717, 187500.0, 187500.0, 187500.0, -187500.02235174447, -187500.02235174447, -187500.02235174447, -187500.02235174447, 0.008, -0.022, -0.994, 192.0, 0.0, 0.0, 0.0, 0.0, 0.0, 0.0, 0.0, 0.0, 0.0, 1.675809596350257E9, 0.0, 2023-02-07 17:39:56.350
65.0, 8852.475446757728, 187500.0, 187500.0, 187500.0, -187500.02235174447, -187500.02235174447, -187500.02235174447, -187500.02235174447, 0.008, -0.022, -0.994, 192.0, 0.0, 0.0, 0.0, 0.0, 0.0, 0.0, 0.0, 0.0, 0.0, 1.67580959635027E9, 0.0, 2023-02-07 17:39:56.350
66.0, 8807.101405513455, 187500.0, 187500.0, 187500.0, -187500.02235174447, -187500.02235174447, -187500.02235174447, -187500.02235174447, 0.008, -0.022, -0.994, 192.0, 0.0, 0.0, 0.0, 0.0, 0.0, 0.0, 0.0, 0.0, 0.0, 1.675809596358332E9, 0.0, 2023-02-07 17:39:56.358
67.0, 8781.441602878762, 187500.0, 187500.0, 187500.0, -187500.02235174447, -187500.02235174447, -187500.02235174447, -187500.02235174447, 0.008, -0.022, -0.99, 192.0, 0.0, 64.0, 255.0, 80.0, 225.0, 16.0, 0.0, 0.0, 0.0, 1.675809596358346E9, 0.0, 2023-02-07 17:39:56.358
68.0, 8760.609777046417, 187500.0, 187500.0, 187500.0, -187500.02235174447, -187500.02235174447, -187500.02235174447, -187500.02235174447, 0.008, -0.022, -0.99, 192.0, 0.0, 0.0, 0.0, 0.0, 0.0, 0.0, 0.0, 0.0, 0.0, 1.675809596365413E9, 0.0, 2023-02-07 17:39:56.365
69.0, 8790.583466360982, 187500.0, 187500.0, 187500.0, -187500.02235174447, -187500.02235174447, -187500.02235174447, -187500.02235174447, 0.008, -0.022, -0.99, 192.0, 0.0, 0.0, 0.0, 0.0, 0.0, 0.0, 0.0, 0.0, 0.0, 1.675809596365429E9, 0.0, 2023-02-07 17:39:56.365
70.0, 8824.356952232953, 187500.0, 187500.0, 187500.0, -187500.02235174447, -187500.02235174447, -187500.02235174447, -187500.02235174447, 0.008, -0.022, -0.99, 192.0, 0.0, 0.0, 0.0, 0.0, 0.0, 0.0, 0.0, 0.0, 0.0, 1.675809596372932E9, 0.0, 2023-02-07 17:39:56.372
71.0, 8833.23059478171, 187500.0, 187500.0, 187500.0, -187500.02235174447, -187500.02235174447, -187500.02235174447, -187500.02235174447, 0.008, -0.022, -0.99, 192.0, 0.0, 0.0, 0.0, 0.0, 0.0, 0.0, 0.0, 0.0, 0.0, 1.675809596372955E9, 0.0, 2023-02-07 17:39:56.372
72.0, 8891.99333095471, 187500.0, 187500.0, 187500.0, -187500.02235174447, -187500.02235174447, -187500.02235174447, -187500.02235174447, 0.008, -0.022, -0.99, 192.0, 0.0, 0.0, 0.0, 0.0, 0.0, 0.0, 0.0, 0.0, 0.0, 1.675809596380836E9, 0.0, 2023-02-07 17:39:56.380
73.0, 8807.436681680285, 187500.0, 187500.0, 187500.0, -187500.02235174447, -187500.02235174447, -187500.02235174447, -187500.02235174447, 0.008, -0.022, -0.99, 192.0, 0.0, 0.0, 0.0, 0.0, 0.0, 0.0, 0.0, 0.0, 0.0, 1.675809596380856E9, 0.0, 2023-02-07 17:39:56.380
74.0, 8727.998581886122, 187500.0, 187500.0, 187500.0, -187500.02235174447, -187500.02235174447, -187500.02235174447, -187500.02235174447, 0.008, -0.022, -0.99, 192.0, 0.0, 0.0, 0.0, 0.0, 0.0, 0.0, 0.0, 0.0, 0.0, 1.675809596389009E9, 0.0, 2023-02-07 17:39:56.389
75.0, 8761.1685706578, 187500.0, 187500.0, 187500.0, -187500.02235174447, -187500.02235174447, -187500.02235174447, -187500.02235174447, 0.008, -0.022, -0.99, 192.0, 0.0, 0.0, 0.0, 0.0, 0.0, 0.0, 0.0, 0.0, 0.0, 1.675809596389026E9, 0.0, 2023-02-07 17:39:56.389
76.0, 8777.753565043637, 187500.0, 187500.0, 187500.0, -187500.02235174447, -187500.02235174447, -187500.02235174447, -187500.02235174447, 0.012, -0.024, -0.992, 192.0, 0.0, 96.0, 255.0, 64.0, 225.0, 0.0, 0.0, 0.0, 0.0, 1.675809596395565E9, 0.0, 2023-02-07 17:39:56.395
77.0, 8800.865268810425, 187500.0, 187500.0, 187500.0, -187500.02235174447, -187500.02235174447, -187500.02235174447, -187500.02235174447, 0.012, -0.024, -0.992, 192.0, 0.0, 0.0, 0.0, 0.0, 0.0, 0.0, 0.0, 0.0, 0.0, 1.675809596395581E9, 0.0, 2023-02-07 17:39:56.395
78.0, 8838.304440773063, 187500.0, 187500.0, 187500.0, -187500.02235174447, -187500.02235174447, -187500.02235174447, -187500.02235174447, 0.012, -0.024, -0.992, 192.0, 0.0, 0.0, 0.0, 0.0, 0.0, 0.0, 0.0, 0.0, 0.0, 1.67580959640248E9, 0.0, 2023-02-07 17:39:56.402
79.0, 8836.113969816442, 187500.0, 187500.0, 187500.0, -187500.02235174447, -187500.02235174447, -187500.02235174447, -187500.02235174447, 0.012, -0.024, -0.992, 192.0, 0.0, 0.0, 0.0, 0.0, 0.0, 0.0, 0.0, 0.0, 0.0, 1.675809596410563E9, 0.0, 2023-02-07 17:39:56.410
80.0, 8738.615660502393, 187500.0, 187500.0, 187500.0, -187500.02235174447, -187500.02235174447, -187500.02235174447, -187500.02235174447, 0.012, -0.024, -0.992, 192.0, 0.0, 0.0, 0.0, 0.0, 0.0, 0.0, 0.0, 0.0, 0.0, 1.67580959641058E9, 0.0, 2023-02-07 17:39:56.410
81.0, 8748.226910618176, 187500.0, 187500.0, 187500.0, -187500.02235174447, -187500.02235174447, -187500.02235174447, -187500.02235174447, 0.012, -0.024, -0.992, 192.0, 0.0, 0.0, 0.0, 0.0, 0.0, 0.0, 0.0, 0.0, 0.0, 1.675809596418619E9, 0.0, 2023-02-07 17:39:56.418
82.0, 8753.747791498638, 187500.0, 187500.0, 187500.0, -187500.02235174447, -187500.02235174447, -187500.02235174447, -187500.02235174447, 0.012, -0.024, -0.992, 192.0, 0.0, 0.0, 0.0, 0.0, 0.0, 0.0, 0.0, 0.0, 0.0, 1.675809596418658E9, 0.0, 2023-02-07 17:39:56.418
83.0, 8764.834256748469, 187500.0, 187500.0, 187500.0, -187500.02235174447, -187500.02235174447, -187500.02235174447, -187500.02235174447, 0.012, -0.024, -0.992, 192.0, 0.0, 0.0, 0.0, 0.0, 0.0, 0.0, 0.0, 0.0, 0.0, 1.675809596425284E9, 0.0, 2023-02-07 17:39:56.425
84.0, 8759.134561912366, 187500.0, 187500.0, 187500.0, -187500.02235174447, -187500.02235174447, -187500.02235174447, -187500.02235174447, 0.012, -0.024, -0.992, 192.0, 0.0, 0.0, 0.0, 0.0, 0.0, 0.0, 0.0, 0.0, 0.0, 1.675809596425301E9, 0.0, 2023-02-07 17:39:56.425
85.0, 8716.018046858078, 187500.0, 187500.0, 187500.0, -187500.02235174447, -187500.02235174447, -187500.02235174447, -187500.02235174447, 0.012, -0.024, -0.992, 192.0, 0.0, 0.0, 0.0, 0.0, 0.0, 0.0, 0.0, 0.0, 0.0, 1.675809596433178E9, 0.0, 2023-02-07 17:39:56.433
86.0, 8776.859495265424, 187500.0, 187500.0, 187500.0, -187500.02235174447, -187500.02235174447, -187500.02235174447, -187500.02235174447, 0.01, -0.024, -0.992, 192.0, 0.0, 80.0, 255.0, 64.0, 225.0, 0.0, 0.0, 0.0, 0.0, 1.675809596433199E9, 0.0, 2023-02-07 17:39:56.433
87.0, 8793.958579773735, 187500.0, 187500.0, 187500.0, -187500.02235174447, -187500.02235174447, -187500.02235174447, -187500.02235174447, 0.01, -0.024, -0.992, 192.0, 0.0, 0.0, 0.0, 0.0, 0.0, 0.0, 0.0, 0.0, 0.0, 1.675809596441222E9, 0.0, 2023-02-07 17:39:56.441
88.0, 8774.803134775537, 187500.0, 187500.0, 187500.0, -187500.02235174447, -187500.02235174447, -187500.02235174447, -187500.02235174447, 0.01, -0.024, -0.992, 192.0, 0.0, 0.0, 0.0, 0.0, 0.0, 0.0, 0.0, 0.0, 0.0, 1.675809596441236E9, 0.0, 2023-02-07 17:39:56.441
89.0, 8759.73805901266, 187500.0, 187500.0, 187500.0, -187500.02235174447, -187500.02235174447, -187500.02235174447, -187500.02235174447, 0.01, -0.024, -0.992, 192.0, 0.0, 0.0, 0.0, 0.0, 0.0, 0.0, 0.0, 0.0, 0.0, 1.67580959644832E9, 0.0, 2023-02-07 17:39:56.448
90.0, 8756.027669433079, 187500.0, 187500.0, 187500.0, -187500.02235174447, -187500.02235174447, -187500.02235174447, -187500.02235174447, 0.01, -0.024, -0.992, 192.0, 0.0, 0.0, 0.0, 0.0, 0.0, 0.0, 0.0, 0.0, 0.0, 1.675809596448332E9, 0.0, 2023-02-07 17:39:56.448
91.0, 8764.029593948078, 187500.0, 187500.0, 187500.0, -187500.02235174447, -187500.02235174447, -187500.02235174447, -187500.02235174447, 0.01, -0.024, -0.992, 192.0, 0.0, 0.0, 0.0, 0.0, 0.0, 0.0, 0.0, 0.0, 0.0, 1.675809596455816E9, 0.0, 2023-02-07 17:39:56.455
92.0, 8794.293855940563, 187500.0, 187500.0, 187500.0, -187500.02235174447, -187500.02235174447, -187500.02235174447, -187500.02235174447, 0.01, -0.024, -0.992, 192.0, 0.0, 0.0, 0.0, 0.0, 0.0, 0.0, 0.0, 0.0, 0.0, 1.675809596455832E9, 0.0, 2023-02-07 17:39:56.455
93.0, 8840.9866501077, 187500.0, 187500.0, 187500.0, -187500.02235174447, -187500.02235174447, -187500.02235174447, -187500.02235174447, 0.01, -0.024, -0.992, 192.0, 0.0, 0.0, 0.0, 0.0, 0.0, 0.0, 0.0, 0.0, 0.0, 1.675809596462871E9, 0.0, 2023-02-07 17:39:56.462
94.0, 8715.01221835759, 187500.0, 187500.0, 187500.0, -187500.02235174447, -187500.02235174447, -187500.02235174447, -187500.02235174447, 0.01, -0.024, -0.992, 192.0, 0.0, 0.0, 0.0, 0.0, 0.0, 0.0, 0.0, 0.0, 0.0, 1.675809596470886E9, 0.0, 2023-02-07 17:39:56.470
95.0, 8679.025909784545, 187500.0, 187500.0, 187500.0, -187500.02235174447, -187500.02235174447, -187500.02235174447, -187500.02235174447, 0.01, -0.024, -0.992, 192.0, 0.0, 0.0, 0.0, 0.0, 0.0, 0.0, 0.0, 0.0, 0.0, 1.675809596470907E9, 0.0, 2023-02-07 17:39:56.470
96.0, 8692.504011691095, 187500.0, 187500.0, 187500.0, -187500.02235174447, -187500.02235174447, -187500.02235174447, -187500.02235174447, 0.014, -0.024, -0.994, 192.0, 0.0, 112.0, 255.0, 64.0, 224.0, 240.0, 0.0, 0.0, 0.0, 1.67580959647802E9, 0.0, 2023-02-07 17:39:56.478
97.0, 8700.036549572535, 187500.0, 187500.0, 187500.0, -187500.02235174447, -187500.02235174447, -187500.02235174447, -187500.02235174447, 0.014, -0.024, -0.994, 192.0, 0.0, 0.0, 0.0, 0.0, 0.0, 0.0, 0.0, 0.0, 0.0, 1.675809596478035E9, 0.0, 2023-02-07 17:39:56.478
98.0, 8735.508768023106, 187500.0, 187500.0, 187500.0, -187500.02235174447, -187500.02235174447, -187500.02235174447, -187500.02235174447, 0.014, -0.024, -0.994, 192.0, 0.0, 0.0, 0.0, 0.0, 0.0, 0.0, 0.0, 0.0, 0.0, 1.675809596485535E9, 0.0, 2023-02-07 17:39:56.485
99.0, 8763.82842824798, 187500.0, 187500.0, 187500.0, -187500.02235174447, -187500.02235174447, -187500.02235174447, -187500.02235174447, 0.014, -0.024, -0.994, 192.0, 0.0, 0.0, 0.0, 0.0, 0.0, 0.0, 0.0, 0.0, 0.0, 1.675809596485557E9, 0.0, 2023-02-07 17:39:56.485
100.0, 8759.246320634642, 187500.0, 187500.0, 187500.0, -187500.02235174447, -187500.02235174447, -187500.02235174447, -187500.02235174447, 0.014, -0.024, -0.994, 192.0, 0.0, 0.0, 0.0, 0.0, 0.0, 0.0, 0.0, 0.0, 0.0, 1.675809596493331E9, 0.0, 2023-02-07 17:39:56.493
101.0, 8736.626355245871, 187500.0, 187500.0, 187500.0, -187500.02235174447, -187500.02235174447, -187500.02235174447, -187500.02235174447, 0.014, -0.024, -0.994, 192.0, 0.0, 0.0, 0.0, 0.0, 0.0, 0.0, 0.0, 0.0, 0.0, 1.675809596493352E9, 0.0, 2023-02-07 17:39:56.493
102.0, 8736.939279668246, 187500.0, 187500.0, 187500.0, -187500.02235174447, -187500.02235174447, -187500.02235174447, -187500.02235174447, 0.014, -0.024, -0.994, 192.0, 0.0, 0.0, 0.0, 0.0, 0.0, 0.0, 0.0, 0.0, 0.0, 1.675809596501523E9, 0.0, 2023-02-07 17:39:56.501
103.0, 8747.0646199065, 187500.0, 187500.0, 187500.0, -187500.02235174447, -187500.02235174447, -187500.02235174447, -187500.02235174447, 0.014, -0.024, -0.994, 192.0, 0.0, 0.0, 0.0, 0.0, 0.0, 0.0, 0.0, 0.0, 0.0, 1.675809596501554E9, 0.0, 2023-02-07 17:39:56.501
104.0, 8736.648706990327, 187500.0, 187500.0, 187500.0, -187500.02235174447, -187500.02235174447, -187500.02235174447, -187500.02235174447, 0.014, -0.024, -0.994, 192.0, 0.0, 0.0, 0.0, 0.0, 0.0, 0.0, 0.0, 0.0, 0.0, 1.6758095965081E9, 0.0, 2023-02-07 17:39:56.508
105.0, 8710.653628188806, 187500.0, 187500.0, 187500.0, -187500.02235174447, -187500.02235174447, -187500.02235174447, -187500.02235174447, 0.014, -0.024, -0.994, 192.0, 0.0, 0.0, 0.0, 0.0, 0.0, 0.0, 0.0, 0.0, 0.0, 1.675809596508113E9, 0.0, 2023-02-07 17:39:56.508
106.0, 8721.807148672004, 187500.0, 187500.0, 187500.0, -187500.02235174447, -187500.02235174447, -187500.02235174447, -187500.02235174447, 0.018000000000000002, -0.022, -0.994, 192.0, 0.0, 144.0, 255.0, 80.0, 224.0, 240.0, 0.0, 0.0, 0.0, 1.67580959651622E9, 0.0, 2023-02-07 17:39:56.516
107.0, 8749.232739118665, 187500.0, 187500.0, 187500.0, -187500.02235174447, -187500.02235174447, -187500.02235174447, -187500.02235174447, 0.018000000000000002, -0.022, -0.994, 192.0, 0.0, 0.0, 0.0, 0.0, 0.0, 0.0, 0.0, 0.0, 0.0, 1.675809596516254E9, 0.0, 2023-02-07 17:39:56.516
108.0, 8757.055849678021, 187500.0, 187500.0, 187500.0, -187500.02235174447, -187500.02235174447, -187500.02235174447, -187500.02235174447, 0.018000000000000002, -0.022, -0.994, 192.0, 0.0, 0.0, 0.0, 0.0, 0.0, 0.0, 0.0, 0.0, 0.0, 1.675809596523244E9, 0.0, 2023-02-07 17:39:56.523
109.0, 8742.907195437812, 187500.0, 187500.0, 187500.0, -187500.02235174447, -187500.02235174447, -187500.02235174447, -187500.02235174447, 0.018000000000000002, -0.022, -0.994, 192.0, 0.0, 0.0, 0.0, 0.0, 0.0, 0.0, 0.0, 0.0, 0.0, 1.675809596530282E9, 0.0, 2023-02-07 17:39:56.530
110.0, 8737.721590724183, 187500.0, 187500.0, 187500.0, -187500.02235174447, -187500.02235174447, -187500.02235174447, -187500.02235174447, 0.018000000000000002, -0.022, -0.994, 192.0, 0.0, 0.0, 0.0, 0.0, 0.0, 0.0, 0.0, 0.0, 0.0, 1.675809596530298E9, 0.0, 2023-02-07 17:39:56.530
111.0, 8740.20263435872, 187500.0, 187500.0, 187500.0, -187500.02235174447, -187500.02235174447, -187500.02235174447, -187500.02235174447, 0.018000000000000002, -0.022, -0.994, 192.0, 0.0, 0.0, 0.0, 0.0, 0.0, 0.0, 0.0, 0.0, 0.0, 1.675809596537896E9, 0.0, 2023-02-07 17:39:56.537
112.0, 8754.552454299028, 187500.0, 187500.0, 187500.0, -187500.02235174447, -187500.02235174447, -187500.02235174447, -187500.02235174447, 0.018000000000000002, -0.022, -0.994, 192.0, 0.0, 0.0, 0.0, 0.0, 0.0, 0.0, 0.0, 0.0, 0.0, 1.675809596537919E9, 0.0, 2023-02-07 17:39:56.537
113.0, 8729.406741786808, 187500.0, 187500.0, 187500.0, -187500.02235174447, -187500.02235174447, -187500.02235174447, -187500.02235174447, 0.018000000000000002, -0.022, -0.994, 192.0, 0.0, 0.0, 0.0, 0.0, 0.0, 0.0, 0.0, 0.0, 0.0, 1.675809596545723E9, 0.0, 2023-02-07 17:39:56.545
114.0, 8736.604003501416, 187500.0, 187500.0, 187500.0, -187500.02235174447, -187500.02235174447, -187500.02235174447, -187500.02235174447, 0.018000000000000002, -0.022, -0.994, 192.0, 0.0, 0.0, 0.0, 0.0, 0.0, 0.0, 0.0, 0.0, 0.0, 1.675809596545743E9, 0.0, 2023-02-07 17:39:56.545
115.0, 8753.34546009844, 187500.0, 187500.0, 187500.0, -187500.02235174447, -187500.02235174447, -187500.02235174447, -187500.02235174447, 0.018000000000000002, -0.022, -0.994, 192.0, 0.0, 0.0, 0.0, 0.0, 0.0, 0.0, 0.0, 0.0, 0.0, 1.675809596553789E9, 0.0, 2023-02-07 17:39:56.553
116.0, 8746.215253617198, 187500.0, 187500.0, 187500.0, -187500.02235174447, -187500.02235174447, -187500.02235174447, -187500.02235174447, 0.012, -0.022, -0.996, 192.0, 0.0, 96.0, 255.0, 80.0, 224.0, 224.0, 0.0, 0.0, 0.0, 1.675809596553807E9, 0.0, 2023-02-07 17:39:56.553
117.0, 8744.851797205425, 187500.0, 187500.0, 187500.0, -187500.02235174447, -187500.02235174447, -187500.02235174447, -187500.02235174447, 0.012, -0.022, -0.996, 192.0, 0.0, 0.0, 0.0, 0.0, 0.0, 0.0, 0.0, 0.0, 0.0, 1.675809596560315E9, 0.0, 2023-02-07 17:39:56.560
118.0, 8710.161889810788, 187500.0, 187500.0, 187500.0, -187500.02235174447, -187500.02235174447, -187500.02235174447, -187500.02235174447, 0.012, -0.022, -0.996, 192.0, 0.0, 0.0, 0.0, 0.0, 0.0, 0.0, 0.0, 0.0, 0.0, 1.675809596560332E9, 0.0, 2023-02-07 17:39:56.560
119.0, 8715.191032313232, 187500.0, 187500.0, 187500.0, -187500.02235174447, -187500.02235174447, -187500.02235174447, -187500.02235174447, 0.012, -0.022, -0.996, 192.0, 0.0, 0.0, 0.0, 0.0, 0.0, 0.0, 0.0, 0.0, 0.0, 1.675809596568399E9, 0.0, 2023-02-07 17:39:56.568
120.0, 8740.694372736738, 187500.0, 187500.0, 187500.0, -187500.02235174447, -187500.02235174447, -187500.02235174447, -187500.02235174447, 0.012, -0.022, -0.996, 192.0, 0.0, 0.0, 0.0, 0.0, 0.0, 0.0, 0.0, 0.0, 0.0, 1.675809596568417E9, 0.0, 2023-02-07 17:39:56.568
121.0, 8704.842174630425, 187500.0, 187500.0, 187500.0, -187500.02235174447, -187500.02235174447, -187500.02235174447, -187500.02235174447, 0.012, -0.022, -0.996, 192.0, 0.0, 0.0, 0.0, 0.0, 0.0, 0.0, 0.0, 0.0, 0.0, 1.675809596576591E9, 0.0, 2023-02-07 17:39:56.576
122.0, 8673.348566692897, 187500.0, 187500.0, 187500.0, -187500.02235174447, -187500.02235174447, -187500.02235174447, -187500.02235174447, 0.012, -0.022, -0.996, 192.0, 0.0, 0.0, 0.0, 0.0, 0.0, 0.0, 0.0, 0.0, 0.0, 1.675809596576611E9, 0.0, 2023-02-07 17:39:56.576
123.0, 8702.718758907171, 187500.0, 187500.0, 187500.0, -187500.02235174447, -187500.02235174447, -187500.02235174447, -187500.02235174447, 0.012, -0.022, -0.996, 192.0, 0.0, 0.0, 0.0, 0.0, 0.0, 0.0, 0.0, 0.0, 0.0, 1.675809596583586E9, 0.0, 2023-02-07 17:39:56.583
124.0, 8722.96943938368, 187500.0, 187500.0, 187500.0, -187500.02235174447, -187500.02235174447, -187500.02235174447, -187500.02235174447, 0.012, -0.022, -0.996, 192.0, 0.0, 0.0, 0.0, 0.0, 0.0, 0.0, 0.0, 0.0, 0.0, 1.675809596583612E9, 0.0, 2023-02-07 17:39:56.583
125.0, 8723.818805672981, 187500.0, 187500.0, 187500.0, -187500.02235174447, -187500.02235174447, -187500.02235174447, -187500.02235174447, 0.012, -0.022, -0.996, 192.0, 0.0, 0.0, 0.0, 0.0, 0.0, 0.0, 0.0, 0.0, 0.0, 1.67580959659021E9, 0.0, 2023-02-07 17:39:56.590
126.0, 8712.307657278498, 187500.0, 187500.0, 187500.0, -187500.02235174447, -187500.02235174447, -187500.02235174447, -187500.02235174447, 0.01, -0.022, -0.998, 192.0, 0.0, 80.0, 255.0, 80.0, 224.0, 208.0, 0.0, 0.0, 0.0, 1.67580959659808E9, 0.0, 2023-02-07 17:39:56.598
127.0, 8690.626465156849, 187500.0, 187500.0, 187500.0, -187500.02235174447, -187500.02235174447, -187500.02235174447, -187500.02235174447, 0.01, -0.022, -0.998, 192.0, 0.0, 0.0, 0.0, 0.0, 0.0, 0.0, 0.0, 0.0, 0.0, 1.675809596598105E9, 0.0, 2023-02-07 17:39:56.598
128.0, 8720.376637026864, 187500.0, 187500.0, 187500.0, -187500.02235174447, -187500.02235174447, -187500.02235174447, -187500.02235174447, 0.01, -0.022, -0.998, 192.0, 0.0, 0.0, 0.0, 0.0, 0.0, 0.0, 0.0, 0.0, 0.0, 1.675809596607835E9, 0.0, 2023-02-07 17:39:56.607
129.0, 8758.486361323163, 187500.0, 187500.0, 187500.0, -187500.02235174447, -187500.02235174447, -187500.02235174447, -187500.02235174447, 0.01, -0.022, -0.998, 192.0, 0.0, 0.0, 0.0, 0.0, 0.0, 0.0, 0.0, 0.0, 0.0, 1.67580959660785E9, 0.0, 2023-02-07 17:39:56.607
130.0, 8707.837308387436, 187500.0, 187500.0, 187500.0, -187500.02235174447, -187500.02235174447, -187500.02235174447, -187500.02235174447, 0.01, -0.022, -0.998, 192.0, 0.0, 0.0, 0.0, 0.0, 0.0, 0.0, 0.0, 0.0, 0.0, 1.675809596613208E9, 0.0, 2023-02-07 17:39:56.613
131.0, 8705.423319986263, 187500.0, 187500.0, 187500.0, -187500.02235174447, -187500.02235174447, -187500.02235174447, -187500.02235174447, 0.01, -0.022, -0.998, 192.0, 0.0, 0.0, 0.0, 0.0, 0.0, 0.0, 0.0, 0.0, 0.0, 1.675809596613221E9, 0.0, 2023-02-07 17:39:56.613
132.0, 8720.801320171515, 187500.0, 187500.0, 187500.0, -187500.02235174447, -187500.02235174447, -187500.02235174447, -187500.02235174447, 0.01, -0.022, -0.998, 192.0, 0.0, 0.0, 0.0, 0.0, 0.0, 0.0, 0.0, 0.0, 0.0, 1.675809596620724E9, 0.0, 2023-02-07 17:39:56.620
133.0, 8716.599192213916, 187500.0, 187500.0, 187500.0, -187500.02235174447, -187500.02235174447, -187500.02235174447, -187500.02235174447, 0.01, -0.022, -0.998, 192.0, 0.0, 0.0, 0.0, 0.0, 0.0, 0.0, 0.0, 0.0, 0.0, 1.675809596620744E9, 0.0, 2023-02-07 17:39:56.620
134.0, 8700.997674584112, 187500.0, 187500.0, 187500.0, -187500.02235174447, -187500.02235174447, -187500.02235174447, -187500.02235174447, 0.01, -0.022, -0.998, 192.0, 0.0, 0.0, 0.0, 0.0, 0.0, 0.0, 0.0, 0.0, 0.0, 1.675809596628608E9, 0.0, 2023-02-07 17:39:56.628
135.0, 8712.084139833945, 187500.0, 187500.0, 187500.0, -187500.02235174447, -187500.02235174447, -187500.02235174447, -187500.02235174447, 0.01, -0.022, -0.992, 192.0, 0.0, 80.0, 255.0, 80.0, 225.0, 0.0, 0.0, 0.0, 0.0, 1.675809596628628E9, 0.0, 2023-02-07 17:39:56.628
136.0, 8685.105584276389, 187500.0, 187500.0, 187500.0, -187500.02235174447, -187500.02235174447, -187500.02235174447, -187500.02235174447, 0.01, -0.022, -0.992, 192.0, 0.0, 0.0, 0.0, 0.0, 0.0, 0.0, 0.0, 0.0, 0.0, 1.675809596636742E9, 0.0, 2023-02-07 17:39:56.636
137.0, 8728.512672008595, 187500.0, 187500.0, 187500.0, -187500.02235174447, -187500.02235174447, -187500.02235174447, -187500.02235174447, 0.01, -0.022, -0.992, 192.0, 0.0, 0.0, 0.0, 0.0, 0.0, 0.0, 0.0, 0.0, 0.0, 1.675809596636755E9, 0.0, 2023-02-07 17:39:56.636
138.0, 8722.120073094376, 187500.0, 187500.0, 187500.0, -187500.02235174447, -187500.02235174447, -187500.02235174447, -187500.02235174447, 0.01, -0.022, -0.992, 192.0, 0.0, 0.0, 0.0, 0.0, 0.0, 0.0, 0.0, 0.0, 0.0, 1.675809596643356E9, 0.0, 2023-02-07 17:39:56.643
139.0, 8709.044302588023, 187500.0, 187500.0, 187500.0, -187500.02235174447, -187500.02235174447, -187500.02235174447, -187500.02235174447, 0.01, -0.022, -0.992, 192.0, 0.0, 0.0, 0.0, 0.0, 0.0, 0.0, 0.0, 0.0, 0.0, 1.675809596643368E9, 0.0, 2023-02-07 17:39:56.643
140.0, 8734.838215689448, 187500.0, 187500.0, 187500.0, -187500.02235174447, -187500.02235174447, -187500.02235174447, -187500.02235174447, 0.01, -0.022, -0.992, 192.0, 0.0, 0.0, 0.0, 0.0, 0.0, 0.0, 0.0, 0.0, 0.0, 1.675809596650325E9, 0.0, 2023-02-07 17:39:56.650
141.0, 8746.438771061752, 187500.0, 187500.0, 187500.0, -187500.02235174447, -187500.02235174447, -187500.02235174447, -187500.02235174447, 0.01, -0.022, -0.992, 192.0, 0.0, 0.0, 0.0, 0.0, 0.0, 0.0, 0.0, 0.0, 0.0, 1.675809596658271E9, 0.0, 2023-02-07 17:39:56.658
142.0, 8668.319424190453, 187500.0, 187500.0, 187500.0, -187500.02235174447, -187500.02235174447, -187500.02235174447, -187500.02235174447, 0.01, -0.022, -0.992, 192.0, 0.0, 0.0, 0.0, 0.0, 0.0, 0.0, 0.0, 0.0, 0.0, 1.675809596658286E9, 0.0, 2023-02-07 17:39:56.658
143.0, 8682.356319708386, 187500.0, 187500.0, 187500.0, -187500.02235174447, -187500.02235174447, -187500.02235174447, -187500.02235174447, 0.01, -0.022, -0.992, 192.0, 0.0, 0.0, 0.0, 0.0, 0.0, 0.0, 0.0, 0.0, 0.0, 1.675809596666385E9, 0.0, 2023-02-07 17:39:56.666
144.0, 8723.327067294964, 187500.0, 187500.0, 187500.0, -187500.02235174447, -187500.02235174447, -187500.02235174447, -187500.02235174447, 0.01, -0.022, -0.992, 192.0, 0.0, 0.0, 0.0, 0.0, 0.0, 0.0, 0.0, 0.0, 0.0, 1.675809596666406E9, 0.0, 2023-02-07 17:39:56.666
145.0, 8725.96457314069, 187500.0, 187500.0, 187500.0, -187500.02235174447, -187500.02235174447, -187500.02235174447, -187500.02235174447, 0.01, -0.022, -0.988, 192.0, 0.0, 80.0, 255.0, 80.0, 225.0, 32.0, 0.0, 0.0, 0.0, 1.675809596672991E9, 0.0, 2023-02-07 17:39:56.672
146.0, 8711.905325878302, 187500.0, 187500.0, 187500.0, -187500.02235174447, -187500.02235174447, -187500.02235174447, -187500.02235174447, 0.01, -0.022, -0.988, 192.0, 0.0, 0.0, 0.0, 0.0, 0.0, 0.0, 0.0, 0.0, 0.0, 1.675809596673019E9, 0.0, 2023-02-07 17:39:56.673
147.0, 8685.19499125421, 187500.0, 187500.0, 187500.0, -187500.02235174447, -187500.02235174447, -187500.02235174447, -187500.02235174447, 0.01, -0.022, -0.988, 192.0, 0.0, 0.0, 0.0, 0.0, 0.0, 0.0, 0.0, 0.0, 0.0, 1.675809596680922E9, 0.0, 2023-02-07 17:39:56.680
148.0, 8683.0492237865, 187500.0, 187500.0, 187500.0, -187500.02235174447, -187500.02235174447, -187500.02235174447, -187500.02235174447, 0.01, -0.022, -0.988, 192.0, 0.0, 0.0, 0.0, 0.0, 0.0, 0.0, 0.0, 0.0, 0.0, 1.675809596680939E9, 0.0, 2023-02-07 17:39:56.680
149.0, 8680.635235385327, 187500.0, 187500.0, 187500.0, -187500.02235174447, -187500.02235174447, -187500.02235174447, -187500.02235174447, 0.01, -0.022, -0.988, 192.0, 0.0, 0.0, 0.0, 0.0, 0.0, 0.0, 0.0, 0.0, 0.0, 1.675809596688971E9, 0.0, 2023-02-07 17:39:56.688
150.0, 8712.397064256318, 187500.0, 187500.0, 187500.0, -187500.02235174447, -187500.02235174447, -187500.02235174447, -187500.02235174447, 0.01, -0.022, -0.988, 192.0, 0.0, 0.0, 0.0, 0.0, 0.0, 0.0, 0.0, 0.0, 0.0, 1.675809596688983E9, 0.0, 2023-02-07 17:39:56.688
151.0, 8697.801375127003, 187500.0, 187500.0, 187500.0, -187500.02235174447, -187500.02235174447, -187500.02235174447, -187500.02235174447, 0.01, -0.022, -0.988, 192.0, 0.0, 0.0, 0.0, 0.0, 0.0, 0.0, 0.0, 0.0, 0.0, 1.67580959669593E9, 0.0, 2023-02-07 17:39:56.695
152.0, 8693.062805302477, 187500.0, 187500.0, 187500.0, -187500.02235174447, -187500.02235174447, -187500.02235174447, -187500.02235174447, 0.01, -0.022, -0.988, 192.0, 0.0, 0.0, 0.0, 0.0, 0.0, 0.0, 0.0, 0.0, 0.0, 1.675809596695945E9, 0.0, 2023-02-07 17:39:56.695
153.0, 8717.157985825299, 187500.0, 187500.0, 187500.0, -187500.02235174447, -187500.02235174447, -187500.02235174447, -187500.02235174447, 0.01, -0.022, -0.988, 192.0, 0.0, 0.0, 0.0, 0.0, 0.0, 0.0, 0.0, 0.0, 0.0, 1.67580959670361E9, 0.0, 2023-02-07 17:39:56.703
154.0, 8731.68661972125, 187500.0, 187500.0, 187500.0, -187500.02235174447, -187500.02235174447, -187500.02235174447, -187500.02235174447, 0.01, -0.022, -0.988, 192.0, 0.0, 0.0, 0.0, 0.0, 0.0, 0.0, 0.0, 0.0, 0.0, 1.675809596703653E9, 0.0, 2023-02-07 17:39:56.703
155.0, 8666.71009858967, 187500.0, 187500.0, 187500.0, -187500.02235174447, -187500.02235174447, -187500.02235174447, -187500.02235174447, 0.01, -0.022, -0.992, 192.0, 0.0, 80.0, 255.0, 80.0, 225.0, 0.0, 0.0, 0.0, 0.0, 1.675809596710556E9, 0.0, 2023-02-07 17:39:56.710
156.0, 8644.134836689811, 187500.0, 187500.0, 187500.0, -187500.02235174447, -187500.02235174447, -187500.02235174447, -187500.02235174447, 0.01, -0.022, -0.992, 192.0, 0.0, 0.0, 0.0, 0.0, 0.0, 0.0, 0.0, 0.0, 0.0, 1.675809596718482E9, 0.0, 2023-02-07 17:39:56.718
157.0, 8667.447706156696, 187500.0, 187500.0, 187500.0, -187500.02235174447, -187500.02235174447, -187500.02235174447, -187500.02235174447, 0.01, -0.022, -0.992, 192.0, 0.0, 0.0, 0.0, 0.0, 0.0, 0.0, 0.0, 0.0, 0.0, 1.675809596718498E9, 0.0, 2023-02-07 17:39:56.718
158.0, 8683.33979646442, 187500.0, 187500.0, 187500.0, -187500.02235174447, -187500.02235174447, -187500.02235174447, -187500.02235174447, 0.01, -0.022, -0.992, 192.0, 0.0, 0.0, 0.0, 0.0, 0.0, 0.0, 0.0, 0.0, 0.0, 1.675809596725128E9, 0.0, 2023-02-07 17:39:56.725
159.0, 8655.511874617563, 187500.0, 187500.0, 187500.0, -187500.02235174447, -187500.02235174447, -187500.02235174447, -187500.02235174447, 0.01, -0.022, -0.992, 192.0, 0.0, 0.0, 0.0, 0.0, 0.0, 0.0, 0.0, 0.0, 0.0, 1.675809596725143E9, 0.0, 2023-02-07 17:39:56.725
160.0, 8654.237825183609, 187500.0, 187500.0, 187500.0, -187500.02235174447, -187500.02235174447, -187500.02235174447, -187500.02235174447, 0.01, -0.022, -0.992, 192.0, 0.0, 0.0, 0.0, 0.0, 0.0, 0.0, 0.0, 0.0, 0.0, 1.675809596733198E9, 0.0, 2023-02-07 17:39:56.733
161.0, 8674.846133571404, 187500.0, 187500.0, 187500.0, -187500.02235174447, -187500.02235174447, -187500.02235174447, -187500.02235174447, 0.01, -0.022, -0.992, 192.0, 0.0, 0.0, 0.0, 0.0, 0.0, 0.0, 0.0, 0.0, 0.0, 1.675809596733213E9, 0.0, 2023-02-07 17:39:56.733
162.0, 8672.298034703497, 187500.0, 187500.0, 187500.0, -187500.02235174447, -187500.02235174447, -187500.02235174447, -187500.02235174447, 0.01, -0.022, -0.992, 192.0, 0.0, 0.0, 0.0, 0.0, 0.0, 0.0, 0.0, 0.0, 0.0, 1.675809596741147E9, 0.0, 2023-02-07 17:39:56.741
163.0, 8656.517703118052, 187500.0, 187500.0, 187500.0, -187500.02235174447, -187500.02235174447, -187500.02235174447, -187500.02235174447, 0.01, -0.022, -0.992, 192.0, 0.0, 0.0, 0.0, 0.0, 0.0, 0.0, 0.0, 0.0, 0.0, 1.675809596741163E9, 0.0, 2023-02-07 17:39:56.741
164.0, 8660.719831075648, 187500.0, 187500.0, 187500.0, -187500.02235174447, -187500.02235174447, -187500.02235174447, -187500.02235174447, 0.01, -0.022, -0.992, 192.0, 0.0, 0.0, 0.0, 0.0, 0.0, 0.0, 0.0, 0.0, 0.0, 1.67580959674845E9, 0.0, 2023-02-07 17:39:56.748
165.0, 8658.037621741012, 187500.0, 187500.0, 187500.0, -187500.02235174447, -187500.02235174447, -187500.02235174447, -187500.02235174447, 0.014, -0.02, -0.994, 192.0, 0.0, 112.0, 255.0, 96.0, 224.0, 240.0, 0.0, 0.0, 0.0, 1.675809596748469E9, 0.0, 2023-02-07 17:39:56.748
166.0, 8660.585720608917, 187500.0, 187500.0, 187500.0, -187500.02235174447, -187500.02235174447, -187500.02235174447, -187500.02235174447, 0.014, -0.02, -0.994, 192.0, 0.0, 0.0, 0.0, 0.0, 0.0, 0.0, 0.0, 0.0, 0.0, 1.675809596755796E9, 0.0, 2023-02-07 17:39:56.755
167.0, 8653.388458894307, 187500.0, 187500.0, 187500.0, -187500.02235174447, -187500.02235174447, -187500.02235174447, -187500.02235174447, 0.014, -0.02, -0.994, 192.0, 0.0, 0.0, 0.0, 0.0, 0.0, 0.0, 0.0, 0.0, 0.0, 1.675809596755825E9, 0.0, 2023-02-07 17:39:56.755
168.0, 8651.600319337884, 187500.0, 187500.0, 187500.0, -187500.02235174447, -187500.02235174447, -187500.02235174447, -187500.02235174447, 0.014, -0.02, -0.994, 192.0, 0.0, 0.0, 0.0, 0.0, 0.0, 0.0, 0.0, 0.0, 0.0, 1.675809596763851E9, 0.0, 2023-02-07 17:39:56.763
169.0, 8628.04158068199, 187500.0, 187500.0, 187500.0, -187500.02235174447, -187500.02235174447, -187500.02235174447, -187500.02235174447, 0.014, -0.02, -0.994, 192.0, 0.0, 0.0, 0.0, 0.0, 0.0, 0.0, 0.0, 0.0, 0.0, 1.675809596763869E9, 0.0, 2023-02-07 17:39:56.763
170.0, 8627.169862648232, 187500.0, 187500.0, 187500.0, -187500.02235174447, -187500.02235174447, -187500.02235174447, -187500.02235174447, 0.014, -0.02, -0.994, 192.0, 0.0, 0.0, 0.0, 0.0, 0.0, 0.0, 0.0, 0.0, 0.0, 1.675809596770831E9, 0.0, 2023-02-07 17:39:56.770
171.0, 8617.46920555463, 187500.0, 187500.0, 187500.0, -187500.02235174447, -187500.02235174447, -187500.02235174447, -187500.02235174447, 0.014, -0.02, -0.994, 192.0, 0.0, 0.0, 0.0, 0.0, 0.0, 0.0, 0.0, 0.0, 0.0, 1.675809596777909E9, 0.0, 2023-02-07 17:39:56.777
172.0, 8677.461287672673, 187500.0, 187500.0, 187500.0, -187500.02235174447, -187500.02235174447, -187500.02235174447, -187500.02235174447, 0.014, -0.02, -0.994, 192.0, 0.0, 0.0, 0.0, 0.0, 0.0, 0.0, 0.0, 0.0, 0.0, 1.675809596777924E9, 0.0, 2023-02-07 17:39:56.777
173.0, 8644.894796001292, 187500.0, 187500.0, 187500.0, -187500.02235174447, -187500.02235174447, -187500.02235174447, -187500.02235174447, 0.014, -0.02, -0.994, 192.0, 0.0, 0.0, 0.0, 0.0, 0.0, 0.0, 0.0, 0.0, 0.0, 1.675809596785387E9, 0.0, 2023-02-07 17:39:56.785
174.0, 8622.14072014579, 187500.0, 187500.0, 187500.0, -187500.02235174447, -187500.02235174447, -187500.02235174447, -187500.02235174447, 0.014, -0.02, -0.994, 192.0, 0.0, 0.0, 0.0, 0.0, 0.0, 0.0, 0.0, 0.0, 0.0, 1.6758095967854E9, 0.0, 2023-02-07 17:39:56.785
175.0, 8662.485618887618, 187500.0, 187500.0, 187500.0, -187500.02235174447, -187500.02235174447, -187500.02235174447, -187500.02235174447, 0.014, -0.024, -0.99, 192.0, 0.0, 112.0, 255.0, 64.0, 225.0, 16.0, 0.0, 0.0, 0.0, 1.675809596793586E9, 0.0, 2023-02-07 17:39:56.793
176.0, 8683.29509297551, 187500.0, 187500.0, 187500.0, -187500.02235174447, -187500.02235174447, -187500.02235174447, -187500.02235174447, 0.014, -0.024, -0.99, 192.0, 0.0, 0.0, 0.0, 0.0, 0.0, 0.0, 0.0, 0.0, 0.0, 1.675809596793612E9, 0.0, 2023-02-07 17:39:56.793
177.0, 8641.005592466068, 187500.0, 187500.0, 187500.0, -187500.02235174447, -187500.02235174447, -187500.02235174447, -187500.02235174447, 0.014, -0.024, -0.99, 192.0, 0.0, 0.0, 0.0, 0.0, 0.0, 0.0, 0.0, 0.0, 0.0, 1.67580959680149E9, 0.0, 2023-02-07 17:39:56.801
178.0, 8625.739351003092, 187500.0, 187500.0, 187500.0, -187500.02235174447, -187500.02235174447, -187500.02235174447, -187500.02235174447, 0.014, -0.024, -0.99, 192.0, 0.0, 0.0, 0.0, 0.0, 0.0, 0.0, 0.0, 0.0, 0.0, 1.675809596801503E9, 0.0, 2023-02-07 17:39:56.801
179.0, 8658.551711863483, 187500.0, 187500.0, 187500.0, -187500.02235174447, -187500.02235174447, -187500.02235174447, -187500.02235174447, 0.014, -0.024, -0.99, 192.0, 0.0, 0.0, 0.0, 0.0, 0.0, 0.0, 0.0, 0.0, 0.0, 1.675809596808126E9, 0.0, 2023-02-07 17:39:56.808
180.0, 8670.420488169251, 187500.0, 187500.0, 187500.0, -187500.02235174447, -187500.02235174447, -187500.02235174447, -187500.02235174447, 0.014, -0.024, -0.99, 192.0, 0.0, 0.0, 0.0, 0.0, 0.0, 0.0, 0.0, 0.0, 0.0, 1.675809596808139E9, 0.0, 2023-02-07 17:39:56.808
181.0, 8674.890837060313, 187500.0, 187500.0, 187500.0, -187500.02235174447, -187500.02235174447, -187500.02235174447, -187500.02235174447, 0.014, -0.024, -0.99, 192.0, 0.0, 0.0, 0.0, 0.0, 0.0, 0.0, 0.0, 0.0, 0.0, 1.675809596816447E9, 0.0, 2023-02-07 17:39:56.816
182.0, 8615.569307275928, 187500.0, 187500.0, 187500.0, -187500.02235174447, -187500.02235174447, -187500.02235174447, -187500.02235174447, 0.014, -0.024, -0.99, 192.0, 0.0, 0.0, 0.0, 0.0, 0.0, 0.0, 0.0, 0.0, 0.0, 1.675809596816467E9, 0.0, 2023-02-07 17:39:56.816
183.0, 8658.61876709685, 187500.0, 187500.0, 187500.0, -187500.02235174447, -187500.02235174447, -187500.02235174447, -187500.02235174447, 0.014, -0.024, -0.99, 192.0, 0.0, 0.0, 0.0, 0.0, 0.0, 0.0, 0.0, 0.0, 0.0, 1.675809596824131E9, 0.0, 2023-02-07 17:39:56.824
184.0, 8656.025964740034, 187500.0, 187500.0, 187500.0, -187500.02235174447, -187500.02235174447, -187500.02235174447, -187500.02235174447, 0.014, -0.024, -0.99, 192.0, 0.0, 0.0, 0.0, 0.0, 0.0, 0.0, 0.0, 0.0, 0.0, 1.675809596824144E9, 0.0, 2023-02-07 17:39:56.824
185.0, 8670.420488169251, 187500.0, 187500.0, 187500.0, -187500.02235174447, -187500.02235174447, -187500.02235174447, -187500.02235174447, 0.016, -0.026000000000000002, -0.988, 192.0, 0.0, 128.0, 255.0, 48.0, 225.0, 32.0, 0.0, 0.0, 0.0, 1.675809596831293E9, 0.0, 2023-02-07 17:39:56.831
186.0, 8705.780947897549, 187500.0, 187500.0, 187500.0, -187500.02235174447, -187500.02235174447, -187500.02235174447, -187500.02235174447, 0.016, -0.026000000000000002, -0.988, 192.0, 0.0, 0.0, 0.0, 0.0, 0.0, 0.0, 0.0, 0.0, 0.0, 1.675809596831316E9, 0.0, 2023-02-07 17:39:56.831
187.0, 8641.542034332995, 187500.0, 187500.0, 187500.0, -187500.02235174447, -187500.02235174447, -187500.02235174447, -187500.02235174447, 0.016, -0.026000000000000002, -0.988, 192.0, 0.0, 0.0, 0.0, 0.0, 0.0, 0.0, 0.0, 0.0, 0.0, 1.675809596837718E9, 0.0, 2023-02-07 17:39:56.837
188.0, 8587.964902873624, 187500.0, 187500.0, 187500.0, -187500.02235174447, -187500.02235174447, -187500.02235174447, -187500.02235174447, 0.016, -0.026000000000000002, -0.988, 192.0, 0.0, 0.0, 0.0, 0.0, 0.0, 0.0, 0.0, 0.0, 0.0, 1.675809596845831E9, 0.0, 2023-02-07 17:39:56.845
189.0, 8594.871591910314, 187500.0, 187500.0, 187500.0, -187500.02235174447, -187500.02235174447, -187500.02235174447, -187500.02235174447, 0.016, -0.026000000000000002, -0.988, 192.0, 0.0, 0.0, 0.0, 0.0, 0.0, 0.0, 0.0, 0.0, 0.0, 1.675809596845859E9, 0.0, 2023-02-07 17:39:56.845
190.0, 8626.096978914378, 187500.0, 187500.0, 187500.0, -187500.02235174447, -187500.02235174447, -187500.02235174447, -187500.02235174447, 0.016, -0.026000000000000002, -0.988, 192.0, 0.0, 0.0, 0.0, 0.0, 0.0, 0.0, 0.0, 0.0, 0.0, 1.675809596853745E9, 0.0, 2023-02-07 17:39:56.853
191.0, 8660.04927874199, 187500.0, 187500.0, 187500.0, -187500.02235174447, -187500.02235174447, -187500.02235174447, -187500.02235174447, 0.016, -0.026000000000000002, -0.988, 192.0, 0.0, 0.0, 0.0, 0.0, 0.0, 0.0, 0.0, 0.0, 0.0, 1.675809596853757E9, 0.0, 2023-02-07 17:39:56.853
192.0, 8637.585775564407, 187500.0, 187500.0, 187500.0, -187500.02235174447, -187500.02235174447, -187500.02235174447, -187500.02235174447, 0.016, -0.026000000000000002, -0.988, 192.0, 0.0, 0.0, 0.0, 0.0, 0.0, 0.0, 0.0, 0.0, 0.0, 1.67580959686077E9, 0.0, 2023-02-07 17:39:56.860
193.0, 8629.025057438022, 187500.0, 187500.0, 187500.0, -187500.02235174447, -187500.02235174447, -187500.02235174447, -187500.02235174447, 0.016, -0.026000000000000002, -0.988, 192.0, 0.0, 0.0, 0.0, 0.0, 0.0, 0.0, 0.0, 0.0, 0.0, 1.675809596860784E9, 0.0, 2023-02-07 17:39:56.860
194.0, 8684.680901131738, 187500.0, 187500.0, 187500.0, -187500.02235174447, -187500.02235174447, -187500.02235174447, -187500.02235174447, 0.014, -0.022, -0.99, 192.0, 0.0, 112.0, 255.0, 80.0, 225.0, 16.0, 0.0, 0.0, 0.0, 1.675809596868363E9, 0.0, 2023-02-07 17:39:56.868
195.0, 8793.578600117993, 187500.0, 187500.0, 187500.0, -187500.02235174447, -187500.02235174447, -187500.02235174447, -187500.02235174447, 0.014, -0.022, -0.99, 192.0, 0.0, 0.0, 0.0, 0.0, 0.0, 0.0, 0.0, 0.0, 0.0, 1.67580959686838E9, 0.0, 2023-02-07 17:39:56.868
196.0, 8604.438138537185, 187500.0, 187500.0, 187500.0, -187500.02235174447, -187500.02235174447, -187500.02235174447, -187500.02235174447, 0.014, -0.022, -0.99, 192.0, 0.0, 0.0, 0.0, 0.0, 0.0, 0.0, 0.0, 0.0, 0.0, 1.675809596876457E9, 0.0, 2023-02-07 17:39:56.876
197.0, 8573.592731188863, 187500.0, 187500.0, 187500.0, -187500.02235174447, -187500.02235174447, -187500.02235174447, -187500.02235174447, 0.014, -0.022, -0.99, 192.0, 0.0, 0.0, 0.0, 0.0, 0.0, 0.0, 0.0, 0.0, 0.0, 1.675809596876477E9, 0.0, 2023-02-07 17:39:56.876
198.0, 8623.772397491026, 187500.0, 187500.0, 187500.0, -187500.02235174447, -187500.02235174447, -187500.02235174447, -187500.02235174447, 0.014, -0.022, -0.99, 192.0, 0.0, 0.0, 0.0, 0.0, 0.0, 0.0, 0.0, 0.0, 0.0, 1.675809596884465E9, 0.0, 2023-02-07 17:39:56.884
199.0, 8630.14264466079, 187500.0, 187500.0, 187500.0, -187500.02235174447, -187500.02235174447, -187500.02235174447, -187500.02235174447, 0.014, -0.022, -0.99, 192.0, 0.0, 0.0, 0.0, 0.0, 0.0, 0.0, 0.0, 0.0, 0.0, 1.675809596884481E9, 0.0, 2023-02-07 17:39:56.884
200.0, 8622.94538294618, 187500.0, 187500.0, 187500.0, -187500.02235174447, -187500.02235174447, -187500.02235174447, -187500.02235174447, 0.014, -0.022, -0.99, 192.0, 0.0, 0.0, 0.0, 0.0, 0.0, 0.0, 0.0, 0.0, 0.0, 1.675809596890878E9, 0.0, 2023-02-07 17:39:56.890
201.0, 8608.66261823924, 187500.0, 187500.0, 187500.0, -187500.02235174447, -187500.02235174447, -187500.02235174447, -187500.02235174447, 0.014, -0.022, -0.99, 192.0, 0.0, 0.0, 0.0, 0.0, 0.0, 0.0, 0.0, 0.0, 0.0, 1.675809596890919E9, 0.0, 2023-02-07 17:39:56.890
202.0, 8636.065856941445, 187500.0, 187500.0, 187500.0, -187500.02235174447, -187500.02235174447, -187500.02235174447, -187500.02235174447, 0.014, -0.022, -0.99, 192.0, 0.0, 0.0, 0.0, 0.0, 0.0, 0.0, 0.0, 0.0, 0.0, 1.675809596898055E9, 0.0, 2023-02-07 17:39:56.898
203.0, 8668.900569546291, 187500.0, 187500.0, 187500.0, -187500.02235174447, -187500.02235174447, -187500.02235174447, -187500.02235174447, 0.014, -0.022, -0.99, 192.0, 0.0, 0.0, 0.0, 0.0, 0.0, 0.0, 0.0, 0.0, 0.0, 1.675809596906092E9, 0.0, 2023-02-07 17:39:56.906
204.0, 8638.90452848727, 187500.0, 187500.0, 187500.0, -187500.02235174447, -187500.02235174447, -187500.02235174447, -187500.02235174447, 0.012, -0.02, -0.99, 192.0, 0.0, 96.0, 255.0, 96.0, 225.0, 16.0, 0.0, 0.0, 0.0, 1.675809596906109E9, 0.0, 2023-02-07 17:39:56.906
205.0, 8619.302048599964, 187500.0, 187500.0, 187500.0, -187500.02235174447, -187500.02235174447, -187500.02235174447, -187500.02235174447, 0.012, -0.02, -0.99, 192.0, 0.0, 0.0, 0.0, 0.0, 0.0, 0.0, 0.0, 0.0, 0.0, 1.675809596913122E9, 0.0, 2023-02-07 17:39:56.913
206.0, 8620.844318967382, 187500.0, 187500.0, 187500.0, -187500.02235174447, -187500.02235174447, -187500.02235174447, -187500.02235174447, 0.012, -0.02, -0.99, 192.0, 0.0, 0.0, 0.0, 0.0, 0.0, 0.0, 0.0, 0.0, 0.0, 1.67580959691314E9, 0.0, 2023-02-07 17:39:56.913
207.0, 8612.149490374266, 187500.0, 187500.0, 187500.0, -187500.02235174447, -187500.02235174447, -187500.02235174447, -187500.02235174447, 0.012, -0.02, -0.99, 192.0, 0.0, 0.0, 0.0, 0.0, 0.0, 0.0, 0.0, 0.0, 0.0, 1.675809596920588E9, 0.0, 2023-02-07 17:39:56.920
208.0, 8647.666412313749, 187500.0, 187500.0, 187500.0, -187500.02235174447, -187500.02235174447, -187500.02235174447, -187500.02235174447, 0.012, -0.02, -0.99, 192.0, 0.0, 0.0, 0.0, 0.0, 0.0, 0.0, 0.0, 0.0, 0.0, 1.67580959692061E9, 0.0, 2023-02-07 17:39:56.920
209.0, 8649.320441403443, 187500.0, 187500.0, 187500.0, -187500.02235174447, -187500.02235174447, -187500.02235174447, -187500.02235174447, 0.012, -0.02, -0.99, 192.0, 0.0, 0.0, 0.0, 0.0, 0.0, 0.0, 0.0, 0.0, 0.0, 1.675809596928717E9, 0.0, 2023-02-07 17:39:56.928
210.0, 8615.859879953847, 187500.0, 187500.0, 187500.0, -187500.02235174447, -187500.02235174447, -187500.02235174447, -187500.02235174447, 0.012, -0.02, -0.99, 192.0, 0.0, 0.0, 0.0, 0.0, 0.0, 0.0, 0.0, 0.0, 0.0, 1.675809596928739E9, 0.0, 2023-02-07 17:39:56.928
211.0, 8636.110560430356, 187500.0, 187500.0, 187500.0, -187500.02235174447, -187500.02235174447, -187500.02235174447, -187500.02235174447, 0.012, -0.02, -0.99, 192.0, 0.0, 0.0, 0.0, 0.0, 0.0, 0.0, 0.0, 0.0, 0.0, 1.675809596936789E9, 0.0, 2023-02-07 17:39:56.936
212.0, 8642.1902349222, 187500.0, 187500.0, 187500.0, -187500.02235174447, -187500.02235174447, -187500.02235174447, -187500.02235174447, 0.012, -0.02, -0.99, 192.0, 0.0, 0.0, 0.0, 0.0, 0.0, 0.0, 0.0, 0.0, 0.0, 1.675809596936803E9, 0.0, 2023-02-07 17:39:56.936
213.0, 8644.067781456444, 187500.0, 187500.0, 187500.0, -187500.02235174447, -187500.02235174447, -187500.02235174447, -187500.02235174447, 0.012, -0.02, -0.99, 192.0, 0.0, 0.0, 0.0, 0.0, 0.0, 0.0, 0.0, 0.0, 0.0, 1.67580959694382E9, 0.0, 2023-02-07 17:39:56.943
214.0, 8639.351563376375, 187500.0, 187500.0, 187500.0, -187500.02235174447, -187500.02235174447, -187500.02235174447, -187500.02235174447, 0.012, -0.024, -0.99, 192.0, 0.0, 96.0, 255.0, 64.0, 225.0, 16.0, 0.0, 0.0, 0.0, 1.675809596943832E9, 0.0, 2023-02-07 17:39:56.943
215.0, 8648.80635128097, 187500.0, 187500.0, 187500.0, -187500.02235174447, -187500.02235174447, -187500.02235174447, -187500.02235174447, 0.012, -0.024, -0.99, 192.0, 0.0, 0.0, 0.0, 0.0, 0.0, 0.0, 0.0, 0.0, 0.0, 1.67580959695135E9, 0.0, 2023-02-07 17:39:56.951
216.0, 8661.81506655396, 187500.0, 187500.0, 187500.0, -187500.02235174447, -187500.02235174447, -187500.02235174447, -187500.02235174447, 0.012, -0.024, -0.99, 192.0, 0.0, 0.0, 0.0, 0.0, 0.0, 0.0, 0.0, 0.0, 0.0, 1.675809596951362E9, 0.0, 2023-02-07 17:39:56.951
217.0, 8634.702400529672, 187500.0, 187500.0, 187500.0, -187500.02235174447, -187500.02235174447, -187500.02235174447, -187500.02235174447, 0.012, -0.024, -0.99, 192.0, 0.0, 0.0, 0.0, 0.0, 0.0, 0.0, 0.0, 0.0, 0.0, 1.67580959695846E9, 0.0, 2023-02-07 17:39:56.958
218.0, 8608.46145253914, 187500.0, 187500.0, 187500.0, -187500.02235174447, -187500.02235174447, -187500.02235174447, -187500.02235174447, 0.012, -0.024, -0.99, 192.0, 0.0, 0.0, 0.0, 0.0, 0.0, 0.0, 0.0, 0.0, 0.0, 1.675809596966418E9, 0.0, 2023-02-07 17:39:56.966
219.0, 8641.385572121808, 187500.0, 187500.0, 187500.0, -187500.02235174447, -187500.02235174447, -187500.02235174447, -187500.02235174447, 0.012, -0.024, -0.99, 192.0, 0.0, 0.0, 0.0, 0.0, 0.0, 0.0, 0.0, 0.0, 0.0, 1.675809596966436E9, 0.0, 2023-02-07 17:39:56.966
220.0, 8669.437011413218, 187500.0, 187500.0, 187500.0, -187500.02235174447, -187500.02235174447, -187500.02235174447, -187500.02235174447, 0.012, -0.024, -0.99, 192.0, 0.0, 0.0, 0.0, 0.0, 0.0, 0.0, 0.0, 0.0, 0.0, 1.675809596972926E9, 0.0, 2023-02-07 17:39:56.972
221.0, 8629.337981860397, 187500.0, 187500.0, 187500.0, -187500.02235174447, -187500.02235174447, -187500.02235174447, -187500.02235174447, 0.012, -0.024, -0.99, 192.0, 0.0, 0.0, 0.0, 0.0, 0.0, 0.0, 0.0, 0.0, 0.0, 1.675809596972944E9, 0.0, 2023-02-07 17:39:56.972
222.0, 8653.455514127674, 187500.0, 187500.0, 187500.0, -187500.02235174447, -187500.02235174447, -187500.02235174447, -187500.02235174447, 0.012, -0.024, -0.99, 192.0, 0.0, 0.0, 0.0, 0.0, 0.0, 0.0, 0.0, 0.0, 0.0, 1.675809596981048E9, 0.0, 2023-02-07 17:39:56.981
223.0, 8690.939389579224, 187500.0, 187500.0, 187500.0, -187500.02235174447, -187500.02235174447, -187500.02235174447, -187500.02235174447, 0.012, -0.024, -0.99, 192.0, 0.0, 0.0, 0.0, 0.0, 0.0, 0.0, 0.0, 0.0, 0.0, 1.67580959698106E9, 0.0, 2023-02-07 17:39:56.981
224.0, 8611.970676418625, 187500.0, 187500.0, 187500.0, -187500.02235174447, -187500.02235174447, -187500.02235174447, -187500.02235174447, 0.012, -0.026000000000000002, -0.994, 192.0, 0.0, 96.0, 255.0, 48.0, 224.0, 240.0, 0.0, 0.0, 0.0, 1.675809596988976E9, 0.0, 2023-02-07 17:39:56.988
225.0, 8587.853144151348, 187500.0, 187500.0, 187500.0, -187500.02235174447, -187500.02235174447, -187500.02235174447, -187500.02235174447, 0.012, -0.026000000000000002, -0.994, 192.0, 0.0, 0.0, 0.0, 0.0, 0.0, 0.0, 0.0, 0.0, 0.0, 1.675809596988993E9, 0.0, 2023-02-07 17:39:56.988
226.0, 8615.122272386823, 187500.0, 187500.0, 187500.0, -187500.02235174447, -187500.02235174447, -187500.02235174447, -187500.02235174447, 0.012, -0.026000000000000002, -0.994, 192.0, 0.0, 0.0, 0.0, 0.0, 0.0, 0.0, 0.0, 0.0, 0.0, 1.675809596995995E9, 0.0, 2023-02-07 17:39:56.995
227.0, 8691.431127957241, 187500.0, 187500.0, 187500.0, -187500.02235174447, -187500.02235174447, -187500.02235174447, -187500.02235174447, 0.012, -0.026000000000000002, -0.994, 192.0, 0.0, 0.0, 0.0, 0.0, 0.0, 0.0, 0.0, 0.0, 0.0, 1.675809596996018E9, 0.0, 2023-02-07 17:39:56.996
228.0, 8718.119110836877, 187500.0, 187500.0, 187500.0, -187500.02235174447, -187500.02235174447, -187500.02235174447, -187500.02235174447, 0.012, -0.026000000000000002, -0.994, 192.0, 0.0, 0.0, 0.0, 0.0, 0.0, 0.0, 0.0, 0.0, 0.0, 1.675809597003563E9, 0.0, 2023-02-07 17:39:57.003
229.0, 8585.03682434998, 187500.0, 187500.0, 187500.0, -187500.02235174447, -187500.02235174447, -187500.02235174447, -187500.02235174447, 0.012, -0.026000000000000002, -0.994, 192.0, 0.0, 0.0, 0.0, 0.0, 0.0, 0.0, 0.0, 0.0, 0.0, 1.675809597003583E9, 0.0, 2023-02-07 17:39:57.003
230.0, 8551.129228011278, 187500.0, 187500.0, 187500.0, -187500.02235174447, -187500.02235174447, -187500.02235174447, -187500.02235174447, 0.012, -0.026000000000000002, -0.994, 192.0, 0.0, 0.0, 0.0, 0.0, 0.0, 0.0, 0.0, 0.0, 0.0, 1.67580959701193E9, 0.0, 2023-02-07 17:39:57.011
231.0, 8592.70347269815, 187500.0, 187500.0, 187500.0, -187500.02235174447, -187500.02235174447, -187500.02235174447, -187500.02235174447, 0.012, -0.026000000000000002, -0.994, 192.0, 0.0, 0.0, 0.0, 0.0, 0.0, 0.0, 0.0, 0.0, 0.0, 1.675809597011948E9, 0.0, 2023-02-07 17:39:57.011
232.0, 8613.200022363666, 187500.0, 187500.0, 187500.0, -187500.02235174447, -187500.02235174447, -187500.02235174447, -187500.02235174447, 0.012, -0.026000000000000002, -0.994, 192.0, 0.0, 0.0, 0.0, 0.0, 0.0, 0.0, 0.0, 0.0, 0.0, 1.675809597018573E9, 0.0, 2023-02-07 17:39:57.018
233.0, 8643.017249467046, 187500.0, 187500.0, 187500.0, -187500.02235174447, -187500.02235174447, -187500.02235174447, -187500.02235174447, 0.012, -0.026000000000000002, -0.994, 192.0, 0.0, 0.0, 0.0, 0.0, 0.0, 0.0, 0.0, 0.0, 0.0, 1.675809597025657E9, 0.0, 2023-02-07 17:39:57.025
234.0, 8752.54079729805, 187500.0, 187500.0, 187500.0, -187500.02235174447, -187500.02235174447, -187500.02235174447, -187500.02235174447, 0.014, -0.022, -0.992, 192.0, 0.0, 112.0, 255.0, 80.0, 225.0, 0.0, 0.0, 0.0, 0.0, 1.67580959702567E9, 0.0, 2023-02-07 17:39:57.025
235.0, 8719.594325970927, 187500.0, 187500.0, 187500.0, -187500.02235174447, -187500.02235174447, -187500.02235174447, -187500.02235174447, 0.014, -0.022, -0.992, 192.0, 0.0, 0.0, 0.0, 0.0, 0.0, 0.0, 0.0, 0.0, 0.0, 1.675809597033194E9, 0.0, 2023-02-07 17:39:57.033
236.0, 8689.710043634183, 187500.0, 187500.0, 187500.0, -187500.02235174447, -187500.02235174447, -187500.02235174447, -187500.02235174447, 0.014, -0.022, -0.992, 192.0, 0.0, 0.0, 0.0, 0.0, 0.0, 0.0, 0.0, 0.0, 0.0, 1.67580959703324E9, 0.0, 2023-02-07 17:39:57.033
237.0, 8697.175526282255, 187500.0, 187500.0, 187500.0, -187500.02235174447, -187500.02235174447, -187500.02235174447, -187500.02235174447, 0.014, -0.022, -0.992, 192.0, 0.0, 0.0, 0.0, 0.0, 0.0, 0.0, 0.0, 0.0, 0.0, 1.67580959704136E9, 0.0, 2023-02-07 17:39:57.041
238.0, 8693.733357636138, 187500.0, 187500.0, 187500.0, -187500.02235174447, -187500.02235174447, -187500.02235174447, -187500.02235174447, 0.014, -0.022, -0.992, 192.0, 0.0, 0.0, 0.0, 0.0, 0.0, 0.0, 0.0, 0.0, 0.0, 1.675809597041384E9, 0.0, 2023-02-07 17:39:57.041
239.0, 8837.186853550298, 187500.0, 187500.0, 187500.0, -187500.02235174447, -187500.02235174447, -187500.02235174447, -187500.02235174447, 0.014, -0.022, -0.992, 192.0, 0.0, 0.0, 0.0, 0.0, 0.0, 0.0, 0.0, 0.0, 0.0, 1.675809597049219E9, 0.0, 2023-02-07 17:39:57.049
240.0, 8585.327397027899, 187500.0, 187500.0, 187500.0, -187500.02235174447, -187500.02235174447, -187500.02235174447, -187500.02235174447, 0.014, -0.022, -0.992, 192.0, 0.0, 0.0, 0.0, 0.0, 0.0, 0.0, 0.0, 0.0, 0.0, 1.675809597049236E9, 0.0, 2023-02-07 17:39:57.049
241.0, 8467.24313107051, 187500.0, 187500.0, 187500.0, -187500.02235174447, -187500.02235174447, -187500.02235174447, -187500.02235174447, 0.014, -0.022, -0.992, 192.0, 0.0, 0.0, 0.0, 0.0, 0.0, 0.0, 0.0, 0.0, 0.0, 1.675809597056092E9, 0.0, 2023-02-07 17:39:57.056
242.0, 8600.995969891068, 187500.0, 187500.0, 187500.0, -187500.02235174447, -187500.02235174447, -187500.02235174447, -187500.02235174447, 0.014, -0.022, -0.992, 192.0, 0.0, 0.0, 0.0, 0.0, 0.0, 0.0, 0.0, 0.0, 0.0, 1.675809597056106E9, 0.0, 2023-02-07 17:39:57.056
243.0, 8567.356594485831, 187500.0, 187500.0, 187500.0, -187500.02235174447, -187500.02235174447, -187500.02235174447, -187500.02235174447, 0.014, -0.022, -0.992, 192.0, 0.0, 0.0, 0.0, 0.0, 0.0, 0.0, 0.0, 0.0, 0.0, 1.675809597063892E9, 0.0, 2023-02-07 17:39:57.063
244.0, 8795.053815252044, 187500.0, 187500.0, 187500.0, -187500.02235174447, -187500.02235174447, -187500.02235174447, -187500.02235174447, 0.008, -0.022, -0.992, 192.0, 0.0, 64.0, 255.0, 80.0, 225.0, 0.0, 0.0, 0.0, 0.0, 1.675809597063909E9, 0.0, 2023-02-07 17:39:57.063
245.0, 8999.348759573551, 187500.0, 187500.0, 187500.0, -187500.02235174447, -187500.02235174447, -187500.02235174447, -187500.02235174447, 0.008, -0.022, -0.992, 192.0, 0.0, 0.0, 0.0, 0.0, 0.0, 0.0, 0.0, 0.0, 0.0, 1.675809597071916E9, 0.0, 2023-02-07 17:39:57.071
246.0, 8517.221631672577, 187500.0, 187500.0, 187500.0, -187500.02235174447, -187500.02235174447, -187500.02235174447, -187500.02235174447, 0.008, -0.022, -0.992, 192.0, 0.0, 0.0, 0.0, 0.0, 0.0, 0.0, 0.0, 0.0, 0.0, 1.675809597071935E9, 0.0, 2023-02-07 17:39:57.071
247.0, 8395.404624391154, 187500.0, 187500.0, 187500.0, -187500.02235174447, -187500.02235174447, -187500.02235174447, -187500.02235174447, 0.008, -0.022, -0.992, 192.0, 0.0, 0.0, 0.0, 0.0, 0.0, 0.0, 0.0, 0.0, 0.0, 1.675809597079089E9, 0.0, 2023-02-07 17:39:57.079
248.0, 8569.390603231264, 187500.0, 187500.0, 187500.0, -187500.02235174447, -187500.02235174447, -187500.02235174447, -187500.02235174447, 0.008, -0.022, -0.992, 192.0, 0.0, 0.0, 0.0, 0.0, 0.0, 0.0, 0.0, 0.0, 0.0, 1.675809597079111E9, 0.0, 2023-02-07 17:39:57.079
249.0, 8565.903731096236, 187500.0, 187500.0, 187500.0, -187500.02235174447, -187500.02235174447, -187500.02235174447, -187500.02235174447, 0.008, -0.022, -0.992, 192.0, 0.0, 0.0, 0.0, 0.0, 0.0, 0.0, 0.0, 0.0, 0.0, 1.675809597085435E9, 0.0, 2023-02-07 17:39:57.085
250.0, 8594.357501787843, 187500.0, 187500.0, 187500.0, -187500.02235174447, -187500.02235174447, -187500.02235174447, -187500.02235174447, 0.008, -0.022, -0.992, 192.0, 0.0, 0.0, 0.0, 0.0, 0.0, 0.0, 0.0, 0.0, 0.0, 1.675809597093423E9, 0.0, 2023-02-07 17:39:57.093
251.0, 8700.885915861836, 187500.0, 187500.0, 187500.0, -187500.02235174447, -187500.02235174447, -187500.02235174447, -187500.02235174447, 0.008, -0.022, -0.992, 192.0, 0.0, 0.0, 0.0, 0.0, 0.0, 0.0, 0.0, 0.0, 0.0, 1.675809597093469E9, 0.0, 2023-02-07 17:39:57.093
252.0, 8673.415621926264, 187500.0, 187500.0, 187500.0, -187500.02235174447, -187500.02235174447, -187500.02235174447, -187500.02235174447, 0.008, -0.022, -0.992, 192.0, 0.0, 0.0, 0.0, 0.0, 0.0, 0.0, 0.0, 0.0, 0.0, 1.675809597101616E9, 0.0, 2023-02-07 17:39:57.101
253.0, 8672.946235292702, 187500.0, 187500.0, 187500.0, -187500.02235174447, -187500.02235174447, -187500.02235174447, -187500.02235174447, 0.006, -0.024, -0.994, 192.0, 0.0, 48.0, 255.0, 64.0, 224.0, 240.0, 0.0, 0.0, 0.0, 1.675809597101659E9, 0.0, 2023-02-07 17:39:57.101
254.0, 8617.938592188191, 187500.0, 187500.0, 187500.0, -187500.02235174447, -187500.02235174447, -187500.02235174447, -187500.02235174447, 0.006, -0.024, -0.994, 192.0, 0.0, 0.0, 0.0, 0.0, 0.0, 0.0, 0.0, 0.0, 0.0, 1.675809597108813E9, 0.0, 2023-02-07 17:39:57.108
255.0, 8597.442042522674, 187500.0, 187500.0, 187500.0, -187500.02235174447, -187500.02235174447, -187500.02235174447, -187500.02235174447, 0.006, -0.024, -0.994, 192.0, 0.0, 0.0, 0.0, 0.0, 0.0, 0.0, 0.0, 0.0, 0.0, 1.675809597108827E9, 0.0, 2023-02-07 17:39:57.108
0.0, 8653.053182727479, 187500.0, 187500.0, 187500.0, -187500.02235174447, -187500.02235174447, -187500.02235174447, -187500.02235174447, 0.006, -0.024, -0.994, 192.0, 0.0, 0.0, 0.0, 0.0, 0.0, 0.0, 0.0, 0.0, 0.0, 1.675809597116141E9, 0.0, 2023-02-07 17:39:57.116
1.0, 8765.795381760046, 187500.0, 187500.0, 187500.0, -187500.02235174447, -187500.02235174447, -187500.02235174447, -187500.02235174447, 0.006, -0.024, -0.994, 192.0, 0.0, 0.0, 0.0, 0.0, 0.0, 0.0, 0.0, 0.0, 0.0, 1.675809597116155E9, 0.0, 2023-02-07 17:39:57.116
2.0, 8600.906562913247, 187500.0, 187500.0, 187500.0, -187500.02235174447, -187500.02235174447, -187500.02235174447, -187500.02235174447, 0.006, -0.024, -0.994, 192.0, 0.0, 0.0, 0.0, 0.0, 0.0, 0.0, 0.0, 0.0, 0.0, 1.675809597124097E9, 0.0, 2023-02-07 17:39:57.124
3.0, 8810.70003637076, 187500.0, 187500.0, 187500.0, -187500.02235174447, -187500.02235174447, -187500.02235174447, -187500.02235174447, 0.006, -0.024, -0.994, 192.0, 0.0, 0.0, 0.0, 0.0, 0.0, 0.0, 0.0, 0.0, 0.0, 1.675809597124119E9, 0.0, 2023-02-07 17:39:57.124
4.0, 9167.165656943997, 187500.0, 187500.0, 187500.0, -187500.02235174447, -187500.02235174447, -187500.02235174447, -187500.02235174447, 0.006, -0.024, -0.994, 192.0, 0.0, 0.0, 0.0, 0.0, 0.0, 0.0, 0.0, 0.0, 0.0, 1.675809597131133E9, 0.0, 2023-02-07 17:39:57.131
5.0, 8575.783202145481, 187500.0, 187500.0, 187500.0, -187500.02235174447, -187500.02235174447, -187500.02235174447, -187500.02235174447, 0.006, -0.024, -0.994, 192.0, 0.0, 0.0, 0.0, 0.0, 0.0, 0.0, 0.0, 0.0, 0.0, 1.67580959713115E9, 0.0, 2023-02-07 17:39:57.131
6.0, 8448.422962239143, 187500.0, 187500.0, 187500.0, -187500.02235174447, -187500.02235174447, -187500.02235174447, -187500.02235174447, 0.006, -0.024, -0.994, 192.0, 0.0, 0.0, 0.0, 0.0, 0.0, 0.0, 0.0, 0.0, 0.0, 1.675809597138691E9, 0.0, 2023-02-07 17:39:57.138
7.0, 8534.745399325539, 187500.0, 187500.0, 187500.0, -187500.02235174447, -187500.02235174447, -187500.02235174447, -187500.02235174447, 0.008, -0.026000000000000002, -0.994, 192.0, 0.0, 64.0, 255.0, 48.0, 224.0, 240.0, 0.0, 0.0, 0.0, 1.675809597138706E9, 0.0, 2023-02-07 17:39:57.138
8.0, 8574.375042244797, 187500.0, 187500.0, 187500.0, -187500.02235174447, -187500.02235174447, -187500.02235174447, -187500.02235174447, 0.008, -0.026000000000000002, -0.994, 192.0, 0.0, 0.0, 0.0, 0.0, 0.0, 0.0, 0.0, 0.0, 0.0, 1.675809597145841E9, 0.0, 2023-02-07 17:39:57.145
9.0, 8613.982333419603, 187500.0, 187500.0, 187500.0, -187500.02235174447, -187500.02235174447, -187500.02235174447, -187500.02235174447, 0.008, -0.026000000000000002, -0.994, 192.0, 0.0, 0.0, 0.0, 0.0, 0.0, 0.0, 0.0, 0.0, 0.0, 1.675809597153773E9, 0.0, 2023-02-07 17:39:57.153
10.0, 8636.691705786194, 187500.0, 187500.0, 187500.0, -187500.02235174447, -187500.02235174447, -187500.02235174447, -187500.02235174447, 0.008, -0.026000000000000002, -0.994, 192.0, 0.0, 0.0, 0.0, 0.0, 0.0, 0.0, 0.0, 0.0, 0.0, 1.675809597153819E9, 0.0, 2023-02-07 17:39:57.153
11.0, 8643.173711678233, 187500.0, 187500.0, 187500.0, -187500.02235174447, -187500.02235174447, -187500.02235174447, -187500.02235174447, 0.008, -0.026000000000000002, -0.994, 192.0, 0.0, 0.0, 0.0, 0.0, 0.0, 0.0, 0.0, 0.0, 0.0, 1.675809597160767E9, 0.0, 2023-02-07 17:39:57.160
12.0, 8723.639991717338, 187500.0, 187500.0, 187500.0, -187500.02235174447, -187500.02235174447, -187500.02235174447, -187500.02235174447, 0.008, -0.026000000000000002, -0.994, 192.0, 0.0, 0.0, 0.0, 0.0, 0.0, 0.0, 0.0, 0.0, 0.0, 1.675809597160782E9, 0.0, 2023-02-07 17:39:57.160
13.0, 8722.857680661402, 187500.0, 187500.0, 187500.0, -187500.02235174447, -187500.02235174447, -187500.02235174447, -187500.02235174447, 0.008, -0.026000000000000002, -0.994, 192.0, 0.0, 0.0, 0.0, 0.0, 0.0, 0.0, 0.0, 0.0, 0.0, 1.67580959716846E9, 0.0, 2023-02-07 17:39:57.168
14.0, 8608.193231605677, 187500.0, 187500.0, 187500.0, -187500.02235174447, -187500.02235174447, -187500.02235174447, -187500.02235174447, 0.008, -0.026000000000000002, -0.994, 192.0, 0.0, 0.0, 0.0, 0.0, 0.0, 0.0, 0.0, 0.0, 0.0, 1.675809597168484E9, 0.0, 2023-02-07 17:39:57.168
15.0, 8623.839452724393, 187500.0, 187500.0, 187500.0, -187500.02235174447, -187500.02235174447, -187500.02235174447, -187500.02235174447, 0.008, -0.026000000000000002, -0.994, 192.0, 0.0, 0.0, 0.0, 0.0, 0.0, 0.0, 0.0, 0.0, 0.0, 1.675809597176419E9, 0.0, 2023-02-07 17:39:57.176
16.0, 8743.465989049195, 187500.0, 187500.0, 187500.0, -187500.02235174447, -187500.02235174447, -187500.02235174447, -187500.02235174447, 0.008, -0.026000000000000002, -0.994, 192.0, 0.0, 0.0, 0.0, 0.0, 0.0, 0.0, 0.0, 0.0, 0.0, 1.675809597176431E9, 0.0, 2023-02-07 17:39:57.176
17.0, 8761.883826480369, 187500.0, 187500.0, 187500.0, -187500.02235174447, -187500.02235174447, -187500.02235174447, -187500.02235174447, 0.008, -0.022, -0.994, 192.0, 0.0, 64.0, 255.0, 80.0, 224.0, 240.0, 0.0, 0.0, 0.0, 1.675809597184336E9, 0.0, 2023-02-07 17:39:57.184
18.0, 8583.60631270484, 187500.0, 187500.0, 187500.0, -187500.02235174447, -187500.02235174447, -187500.02235174447, -187500.02235174447, 0.008, -0.022, -0.994, 192.0, 0.0, 0.0, 0.0, 0.0, 0.0, 0.0, 0.0, 0.0, 0.0, 1.675809597184358E9, 0.0, 2023-02-07 17:39:57.184
19.0, 8722.164776583288, 187500.0, 187500.0, 187500.0, -187500.02235174447, -187500.02235174447, -187500.02235174447, -187500.02235174447, 0.008, -0.022, -0.994, 192.0, 0.0, 0.0, 0.0, 0.0, 0.0, 0.0, 0.0, 0.0, 0.0, 1.675809597191064E9, 0.0, 2023-02-07 17:39:57.191
20.0, 9045.996850251777, 187500.0, 187500.0, 187500.0, -187500.02235174447, -187500.02235174447, -187500.02235174447, -187500.02235174447, 0.008, -0.022, -0.994, 192.0, 0.0, 0.0, 0.0, 0.0, 0.0, 0.0, 0.0, 0.0, 0.0, 1.675809597191077E9, 0.0, 2023-02-07 17:39:57.191
21.0, 9234.757332176845, 187500.0, 187500.0, 187500.0, -187500.02235174447, -187500.02235174447, -187500.02235174447, -187500.02235174447, 0.008, -0.022, -0.994, 192.0, 0.0, 0.0, 0.0, 0.0, 0.0, 0.0, 0.0, 0.0, 0.0, 1.675809597199066E9, 0.0, 2023-02-07 17:39:57.199
22.0, 8863.830132941024, 187500.0, 187500.0, 187500.0, -187500.02235174447, -187500.02235174447, -187500.02235174447, -187500.02235174447, 0.008, -0.022, -0.994, 192.0, 0.0, 0.0, 0.0, 0.0, 0.0, 0.0, 0.0, 0.0, 0.0, 1.675809597199081E9, 0.0, 2023-02-07 17:39:57.199
23.0, 8475.267407329966, 187500.0, 187500.0, 187500.0, -187500.02235174447, -187500.02235174447, -187500.02235174447, -187500.02235174447, 0.008, -0.022, -0.994, 192.0, 0.0, 0.0, 0.0, 0.0, 0.0, 0.0, 0.0, 0.0, 0.0, 1.675809597206062E9, 0.0, 2023-02-07 17:39:57.206
24.0, 8485.929189435148, 187500.0, 187500.0, 187500.0, -187500.02235174447, -187500.02235174447, -187500.02235174447, -187500.02235174447, 0.008, -0.022, -0.994, 192.0, 0.0, 0.0, 0.0, 0.0, 0.0, 0.0, 0.0, 0.0, 0.0, 1.675809597214526E9, 0.0, 2023-02-07 17:39:57.214
25.0, 8656.920034518247, 187500.0, 187500.0, 187500.0, -187500.02235174447, -187500.02235174447, -187500.02235174447, -187500.02235174447, 0.008, -0.022, -0.994, 192.0, 0.0, 0.0, 0.0, 0.0, 0.0, 0.0, 0.0, 0.0, 0.0, 1.675809597214567E9, 0.0, 2023-02-07 17:39:57.214
26.0, 8742.929547182268, 187500.0, 187500.0, 187500.0, -187500.02235174447, -187500.02235174447, -187500.02235174447, -187500.02235174447, 0.008, -0.022, -0.994, 192.0, 0.0, 0.0, 0.0, 0.0, 0.0, 0.0, 0.0, 0.0, 0.0, 1.675809597220601E9, 0.0, 2023-02-07 17:39:57.220
27.0, 8756.519407811094, 187500.0, 187500.0, 187500.0, -187500.02235174447, -187500.02235174447, -187500.02235174447, -187500.02235174447, 0.008, -0.022, -0.992, 192.0, 0.0, 64.0, 255.0, 80.0, 225.0, 0.0, 0.0, 0.0, 0.0, 1.675809597220617E9, 0.0, 2023-02-07 17:39:57.220
28.0, 8743.957727427212, 187500.0, 187500.0, 187500.0, -187500.02235174447, -187500.02235174447, -187500.02235174447, -187500.02235174447, 0.008, -0.022, -0.992, 192.0, 0.0, 0.0, 0.0, 0.0, 0.0, 0.0, 0.0, 0.0, 0.0, 1.675809597228741E9, 0.0, 2023-02-07 17:39:57.228
29.0, 8729.607907486905, 187500.0, 187500.0, 187500.0, -187500.02235174447, -187500.02235174447, -187500.02235174447, -187500.02235174447, 0.008, -0.022, -0.992, 192.0, 0.0, 0.0, 0.0, 0.0, 0.0, 0.0, 0.0, 0.0, 0.0, 1.675809597228755E9, 0.0, 2023-02-07 17:39:57.228
30.0, 8912.28871492013, 187500.0, 187500.0, 187500.0, -187500.02235174447, -187500.02235174447, -187500.02235174447, -187500.02235174447, 0.008, -0.022, -0.992, 192.0, 0.0, 0.0, 0.0, 0.0, 0.0, 0.0, 0.0, 0.0, 0.0, 1.675809597236708E9, 0.0, 2023-02-07 17:39:57.236
31.0, 9082.7431181363, 187500.0, 187500.0, 187500.0, -187500.02235174447, -187500.02235174447, -187500.02235174447, -187500.02235174447, 0.008, -0.022, -0.992, 192.0, 0.0, 0.0, 0.0, 0.0, 0.0, 0.0, 0.0, 0.0, 0.0, 1.67580959723672E9, 0.0, 2023-02-07 17:39:57.236
32.0, 8671.582778880927, 187500.0, 187500.0, 187500.0, -187500.02235174447, -187500.02235174447, -187500.02235174447, -187500.02235174447, 0.008, -0.022, -0.992, 192.0, 0.0, 0.0, 0.0, 0.0, 0.0, 0.0, 0.0, 0.0, 0.0, 1.675809597243888E9, 0.0, 2023-02-07 17:39:57.243
33.0, 8642.637269811305, 187500.0, 187500.0, 187500.0, -187500.02235174447, -187500.02235174447, -187500.02235174447, -187500.02235174447, 0.008, -0.022, -0.992, 192.0, 0.0, 0.0, 0.0, 0.0, 0.0, 0.0, 0.0, 0.0, 0.0, 1.675809597243901E9, 0.0, 2023-02-07 17:39:57.243
34.0, 9018.571259805114, 187500.0, 187500.0, 187500.0, -187500.02235174447, -187500.02235174447, -187500.02235174447, -187500.02235174447, 0.008, -0.022, -0.992, 192.0, 0.0, 0.0, 0.0, 0.0, 0.0, 0.0, 0.0, 0.0, 0.0, 1.675809597251406E9, 0.0, 2023-02-07 17:39:57.251
35.0, 8954.39940147393, 187500.0, 187500.0, 187500.0, -187500.02235174447, -187500.02235174447, -187500.02235174447, -187500.02235174447, 0.008, -0.022, -0.992, 192.0, 0.0, 0.0, 0.0, 0.0, 0.0, 0.0, 0.0, 0.0, 0.0, 1.675809597251424E9, 0.0, 2023-02-07 17:39:57.251
36.0, 8612.976504919114, 187500.0, 187500.0, 187500.0, -187500.02235174447, -187500.02235174447, -187500.02235174447, -187500.02235174447, 0.008, -0.022, -0.992, 192.0, 0.0, 0.0, 0.0, 0.0, 0.0, 0.0, 0.0, 0.0, 0.0, 1.675809597259323E9, 0.0, 2023-02-07 17:39:57.259
37.0, 8710.944200866723, 187500.0, 187500.0, 187500.0, -187500.02235174447, -187500.02235174447, -187500.02235174447, -187500.02235174447, 0.01, -0.02, -0.992, 192.0, 0.0, 80.0, 255.0, 96.0, 225.0, 0.0, 0.0, 0.0, 0.0, 1.675809597259341E9, 0.0, 2023-02-07 17:39:57.259
38.0, 8871.250912100186, 187500.0, 187500.0, 187500.0, -187500.02235174447, -187500.02235174447, -187500.02235174447, -187500.02235174447, 0.01, -0.02, -0.992, 192.0, 0.0, 0.0, 0.0, 0.0, 0.0, 0.0, 0.0, 0.0, 0.0, 1.675809597266374E9, 0.0, 2023-02-07 17:39:57.266
39.0, 8885.466621573762, 187500.0, 187500.0, 187500.0, -187500.02235174447, -187500.02235174447, -187500.02235174447, -187500.02235174447, 0.01, -0.02, -0.992, 192.0, 0.0, 0.0, 0.0, 0.0, 0.0, 0.0, 0.0, 0.0, 0.0, 1.67580959727366E9, 0.0, 2023-02-07 17:39:57.273
40.0, 8778.178248188287, 187500.0, 187500.0, 187500.0, -187500.02235174447, -187500.02235174447, -187500.02235174447, -187500.02235174447, 0.01, -0.02, -0.992, 192.0, 0.0, 0.0, 0.0, 0.0, 0.0, 0.0, 0.0, 0.0, 0.0, 1.675809597273696E9, 0.0, 2023-02-07 17:39:57.273
41.0, 9059.765524836246, 187500.0, 187500.0, 187500.0, -187500.02235174447, -187500.02235174447, -187500.02235174447, -187500.02235174447, 0.01, -0.02, -0.992, 192.0, 0.0, 0.0, 0.0, 0.0, 0.0, 0.0, 0.0, 0.0, 0.0, 1.675809597281E9, 0.0, 2023-02-07 17:39:57.281
42.0, 8870.13332487742, 187500.0, 187500.0, 187500.0, -187500.02235174447, -187500.02235174447, -187500.02235174447, -187500.02235174447, 0.01, -0.02, -0.992, 192.0, 0.0, 0.0, 0.0, 0.0, 0.0, 0.0, 0.0, 0.0, 0.0, 1.675809597281016E9, 0.0, 2023-02-07 17:39:57.281
43.0, 8674.197932982199, 187500.0, 187500.0, 187500.0, -187500.02235174447, -187500.02235174447, -187500.02235174447, -187500.02235174447, 0.01, -0.02, -0.992, 192.0, 0.0, 0.0, 0.0, 0.0, 0.0, 0.0, 0.0, 0.0, 0.0, 1.675809597289171E9, 0.0, 2023-02-07 17:39:57.289
44.0, 8870.178028366332, 187500.0, 187500.0, 187500.0, -187500.02235174447, -187500.02235174447, -187500.02235174447, -187500.02235174447, 0.01, -0.02, -0.992, 192.0, 0.0, 0.0, 0.0, 0.0, 0.0, 0.0, 0.0, 0.0, 0.0, 1.675809597289191E9, 0.0, 2023-02-07 17:39:57.289
45.0, 8860.23150208372, 187500.0, 187500.0, 187500.0, -187500.02235174447, -187500.02235174447, -187500.02235174447, -187500.02235174447, 0.01, -0.02, -0.992, 192.0, 0.0, 0.0, 0.0, 0.0, 0.0, 0.0, 0.0, 0.0, 0.0, 1.675809597296987E9, 0.0, 2023-02-07 17:39:57.296
46.0, 9015.397312092462, 187500.0, 187500.0, 187500.0, -187500.02235174447, -187500.02235174447, -187500.02235174447, -187500.02235174447, 0.01, -0.02, -0.992, 192.0, 0.0, 0.0, 0.0, 0.0, 0.0, 0.0, 0.0, 0.0, 0.0, 1.675809597297007E9, 0.0, 2023-02-07 17:39:57.297
47.0, 9109.833432416133, 187500.0, 187500.0, 187500.0, -187500.02235174447, -187500.02235174447, -187500.02235174447, -187500.02235174447, 0.016, -0.024, -0.996, 192.0, 0.0, 128.0, 255.0, 64.0, 224.0, 224.0, 0.0, 0.0, 0.0, 1.67580959730363E9, 0.0, 2023-02-07 17:39:57.303
48.0, 8728.91500340879, 187500.0, 187500.0, 187500.0, -187500.02235174447, -187500.02235174447, -187500.02235174447, -187500.02235174447, 0.016, -0.024, -0.996, 192.0, 0.0, 0.0, 0.0, 0.0, 0.0, 0.0, 0.0, 0.0, 0.0, 1.675809597303647E9, 0.0, 2023-02-07 17:39:57.303
49.0, 8760.92270146879, 187500.0, 187500.0, 187500.0, -187500.02235174447, -187500.02235174447, -187500.02235174447, -187500.02235174447, 0.016, -0.024, -0.996, 192.0, 0.0, 0.0, 0.0, 0.0, 0.0, 0.0, 0.0, 0.0, 0.0, 1.675809597311636E9, 0.0, 2023-02-07 17:39:57.311
50.0, 8963.9659481008, 187500.0, 187500.0, 187500.0, -187500.02235174447, -187500.02235174447, -187500.02235174447, -187500.02235174447, 0.016, -0.024, -0.996, 192.0, 0.0, 0.0, 0.0, 0.0, 0.0, 0.0, 0.0, 0.0, 0.0, 1.675809597311654E9, 0.0, 2023-02-07 17:39:57.311
51.0, 9085.760603637767, 187500.0, 187500.0, 187500.0, -187500.02235174447, -187500.02235174447, -187500.02235174447, -187500.02235174447, 0.016, -0.024, -0.996, 192.0, 0.0, 0.0, 0.0, 0.0, 0.0, 0.0, 0.0, 0.0, 0.0, 1.675809597319641E9, 0.0, 2023-02-07 17:39:57.319
52.0, 8912.892212020422, 187500.0, 187500.0, 187500.0, -187500.02235174447, -187500.02235174447, -187500.02235174447, -187500.02235174447, 0.016, -0.024, -0.996, 192.0, 0.0, 0.0, 0.0, 0.0, 0.0, 0.0, 0.0, 0.0, 0.0, 1.675809597319657E9, 0.0, 2023-02-07 17:39:57.319
53.0, 8769.841047506457, 187500.0, 187500.0, 187500.0, -187500.02235174447, -187500.02235174447, -187500.02235174447, -187500.02235174447, 0.016, -0.024, -0.996, 192.0, 0.0, 0.0, 0.0, 0.0, 0.0, 0.0, 0.0, 0.0, 0.0, 1.675809597325845E9, 0.0, 2023-02-07 17:39:57.325
54.0, 9017.319562115617, 187500.0, 187500.0, 187500.0, -187500.02235174447, -187500.02235174447, -187500.02235174447, -187500.02235174447, 0.016, -0.024, -0.996, 192.0, 0.0, 0.0, 0.0, 0.0, 0.0, 0.0, 0.0, 0.0, 0.0, 1.675809597325857E9, 0.0, 2023-02-07 17:39:57.325
55.0, 9278.566751309247, 187500.0, 187500.0, 187500.0, -187500.02235174447, -187500.02235174447, -187500.02235174447, -187500.02235174447, 0.016, -0.024, -0.996, 192.0, 0.0, 0.0, 0.0, 0.0, 0.0, 0.0, 0.0, 0.0, 0.0, 1.675809597333277E9, 0.0, 2023-02-07 17:39:57.333
56.0, 9153.687555037446, 187500.0, 187500.0, 187500.0, -187500.02235174447, -187500.02235174447, -187500.02235174447, -187500.02235174447, 0.012, -0.028, -0.988, 192.0, 0.0, 96.0, 255.0, 32.0, 225.0, 32.0, 0.0, 0.0, 0.0, 1.67580959734128E9, 0.0, 2023-02-07 17:39:57.341
57.0, 9046.98032700781, 187500.0, 187500.0, 187500.0, -187500.02235174447, -187500.02235174447, -187500.02235174447, -187500.02235174447, 0.012, -0.028, -0.988, 192.0, 0.0, 0.0, 0.0, 0.0, 0.0, 0.0, 0.0, 0.0, 0.0, 1.675809597341299E9, 0.0, 2023-02-07 17:39:57.341
58.0, 9165.601034832125, 187500.0, 187500.0, 187500.0, -187500.02235174447, -187500.02235174447, -187500.02235174447, -187500.02235174447, 0.012, -0.028, -0.988, 192.0, 0.0, 0.0, 0.0, 0.0, 0.0, 0.0, 0.0, 0.0, 0.0, 1.675809597349361E9, 0.0, 2023-02-07 17:39:57.349
59.0, 8894.004987955688, 187500.0, 187500.0, 187500.0, -187500.02235174447, -187500.02235174447, -187500.02235174447, -187500.02235174447, 0.012, -0.028, -0.988, 192.0, 0.0, 0.0, 0.0, 0.0, 0.0, 0.0, 0.0, 0.0, 0.0, 1.675809597349377E9, 0.0, 2023-02-07 17:39:57.349
60.0, 8684.233866242632, 187500.0, 187500.0, 187500.0, -187500.02235174447, -187500.02235174447, -187500.02235174447, -187500.02235174447, 0.012, -0.028, -0.988, 192.0, 0.0, 0.0, 0.0, 0.0, 0.0, 0.0, 0.0, 0.0, 0.0, 1.67580959735593E9, 0.0, 2023-02-07 17:39:57.355
61.0, 8864.523037019138, 187500.0, 187500.0, 187500.0, -187500.02235174447, -187500.02235174447, -187500.02235174447, -187500.02235174447, 0.012, -0.028, -0.988, 192.0, 0.0, 0.0, 0.0, 0.0, 0.0, 0.0, 0.0, 0.0, 0.0, 1.675809597355958E9, 0.0, 2023-02-07 17:39:57.355
62.0, 9069.80145809668, 187500.0, 187500.0, 187500.0, -187500.02235174447, -187500.02235174447, -187500.02235174447, -187500.02235174447, 0.012, -0.028, -0.988, 192.0, 0.0, 0.0, 0.0, 0.0, 0.0, 0.0, 0.0, 0.0, 0.0, 1.675809597363949E9, 0.0, 2023-02-07 17:39:57.363
63.0, 9077.579865167125, 187500.0, 187500.0, 187500.0, -187500.02235174447, -187500.02235174447, -187500.02235174447, -187500.02235174447, 0.012, -0.028, -0.988, 192.0, 0.0, 0.0, 0.0, 0.0, 0.0, 0.0, 0.0, 0.0, 0.0, 1.675809597363963E9, 0.0, 2023-02-07 17:39:57.363
64.0, 8721.673038205272, 187500.0, 187500.0, 187500.0, -187500.02235174447, -187500.02235174447, -187500.02235174447, -187500.02235174447, 0.012, -0.028, -0.988, 192.0, 0.0, 0.0, 0.0, 0.0, 0.0, 0.0, 0.0, 0.0, 0.0, 1.675809597371967E9, 0.0, 2023-02-07 17:39:57.371
65.0, 8898.85531650249, 187500.0, 187500.0, 187500.0, -187500.02235174447, -187500.02235174447, -187500.02235174447, -187500.02235174447, 0.012, -0.028, -0.988, 192.0, 0.0, 0.0, 0.0, 0.0, 0.0, 0.0, 0.0, 0.0, 0.0, 1.675809597371982E9, 0.0, 2023-02-07 17:39:57.371
66.0, 9052.970594521832, 187500.0, 187500.0, 187500.0, -187500.02235174447, -187500.02235174447, -187500.02235174447, -187500.02235174447, 0.008, -0.026000000000000002, -0.992, 192.0, 0.0, 64.0, 255.0, 48.0, 225.0, 0.0, 0.0, 0.0, 0.0, 1.675809597379224E9, 0.0, 2023-02-07 17:39:57.379
67.0, 8982.719061698803, 187500.0, 187500.0, 187500.0, -187500.02235174447, -187500.02235174447, -187500.02235174447, -187500.02235174447, 0.008, -0.026000000000000002, -0.992, 192.0, 0.0, 0.0, 0.0, 0.0, 0.0, 0.0, 0.0, 0.0, 0.0, 1.675809597379244E9, 0.0, 2023-02-07 17:39:57.379
68.0, 8853.168350835842, 187500.0, 187500.0, 187500.0, -187500.02235174447, -187500.02235174447, -187500.02235174447, -187500.02235174447, 0.008, -0.026000000000000002, -0.992, 192.0, 0.0, 0.0, 0.0, 0.0, 0.0, 0.0, 0.0, 0.0, 0.0, 1.675809597386513E9, 0.0, 2023-02-07 17:39:57.386
69.0, 8831.17423429182, 187500.0, 187500.0, 187500.0, -187500.02235174447, -187500.02235174447, -187500.02235174447, -187500.02235174447, 0.008, -0.026000000000000002, -0.992, 192.0, 0.0, 0.0, 0.0, 0.0, 0.0, 0.0, 0.0, 0.0, 0.0, 1.675809597386527E9, 0.0, 2023-02-07 17:39:57.386
70.0, 8847.356897277463, 187500.0, 187500.0, 187500.0, -187500.02235174447, -187500.02235174447, -187500.02235174447, -187500.02235174447, 0.008, -0.026000000000000002, -0.992, 192.0, 0.0, 0.0, 0.0, 0.0, 0.0, 0.0, 0.0, 0.0, 0.0, 1.675809597393497E9, 0.0, 2023-02-07 17:39:57.393
71.0, 8931.131235495954, 187500.0, 187500.0, 187500.0, -187500.02235174447, -187500.02235174447, -187500.02235174447, -187500.02235174447, 0.008, -0.026000000000000002, -0.992, 192.0, 0.0, 0.0, 0.0, 0.0, 0.0, 0.0, 0.0, 0.0, 0.0, 1.675809597401641E9, 0.0, 2023-02-07 17:39:57.401
72.0, 9131.112293137587, 187500.0, 187500.0, 187500.0, -187500.02235174447, -187500.02235174447, -187500.02235174447, -187500.02235174447, 0.008, -0.026000000000000002, -0.992, 192.0, 0.0, 0.0, 0.0, 0.0, 0.0, 0.0, 0.0, 0.0, 0.0, 1.675809597401655E9, 0.0, 2023-02-07 17:39:57.401
73.0, 9206.48237544088, 187500.0, 187500.0, 187500.0, -187500.02235174447, -187500.02235174447, -187500.02235174447, -187500.02235174447, 0.008, -0.026000000000000002, -0.992, 192.0, 0.0, 0.0, 0.0, 0.0, 0.0, 0.0, 0.0, 0.0, 0.0, 1.675809597408838E9, 0.0, 2023-02-07 17:39:57.408
74.0, 9055.876321301022, 187500.0, 187500.0, 187500.0, -187500.02235174447, -187500.02235174447, -187500.02235174447, -187500.02235174447, 0.008, -0.026000000000000002, -0.992, 192.0, 0.0, 0.0, 0.0, 0.0, 0.0, 0.0, 0.0, 0.0, 0.0, 1.675809597408851E9, 0.0, 2023-02-07 17:39:57.408
75.0, 9010.97166669031, 187500.0, 187500.0, 187500.0, -187500.02235174447, -187500.02235174447, -187500.02235174447, -187500.02235174447, 0.008, -0.026000000000000002, -0.992, 192.0, 0.0, 0.0, 0.0, 0.0, 0.0, 0.0, 0.0, 0.0, 0.0, 1.675809597416182E9, 0.0, 2023-02-07 17:39:57.416
76.0, 8866.065307386554, 187500.0, 187500.0, 187500.0, -187500.02235174447, -187500.02235174447, -187500.02235174447, -187500.02235174447, 0.014, -0.02, -0.994, 192.0, 0.0, 112.0, 255.0, 96.0, 224.0, 240.0, 0.0, 0.0, 0.0, 1.675809597416199E9, 0.0, 2023-02-07 17:39:57.416
77.0, 9046.108608974053, 187500.0, 187500.0, 187500.0, -187500.02235174447, -187500.02235174447, -187500.02235174447, -187500.02235174447, 0.014, -0.02, -0.994, 192.0, 0.0, 0.0, 0.0, 0.0, 0.0, 0.0, 0.0, 0.0, 0.0, 1.675809597424228E9, 0.0, 2023-02-07 17:39:57.424
78.0, 9270.050736671774, 187500.0, 187500.0, 187500.0, -187500.02235174447, -187500.02235174447, -187500.02235174447, -187500.02235174447, 0.014, -0.02, -0.994, 192.0, 0.0, 0.0, 0.0, 0.0, 0.0, 0.0, 0.0, 0.0, 0.0, 1.675809597424247E9, 0.0, 2023-02-07 17:39:57.424
79.0, 9342.828016618254, 187500.0, 187500.0, 187500.0, -187500.02235174447, -187500.02235174447, -187500.02235174447, -187500.02235174447, 0.014, -0.02, -0.994, 192.0, 0.0, 0.0, 0.0, 0.0, 0.0, 0.0, 0.0, 0.0, 0.0, 1.675809597432231E9, 0.0, 2023-02-07 17:39:57.432
80.0, 9152.592319559137, 187500.0, 187500.0, 187500.0, -187500.02235174447, -187500.02235174447, -187500.02235174447, -187500.02235174447, 0.014, -0.02, -0.994, 192.0, 0.0, 0.0, 0.0, 0.0, 0.0, 0.0, 0.0, 0.0, 0.0, 1.675809597432242E9, 0.0, 2023-02-07 17:39:57.432
81.0, 9242.088704358186, 187500.0, 187500.0, 187500.0, -187500.02235174447, -187500.02235174447, -187500.02235174447, -187500.02235174447, 0.014, -0.02, -0.994, 192.0, 0.0, 0.0, 0.0, 0.0, 0.0, 0.0, 0.0, 0.0, 0.0, 1.675809597438882E9, 0.0, 2023-02-07 17:39:57.438
82.0, 9224.408474494037, 187500.0, 187500.0, 187500.0, -187500.02235174447, -187500.02235174447, -187500.02235174447, -187500.02235174447, 0.014, -0.02, -0.994, 192.0, 0.0, 0.0, 0.0, 0.0, 0.0, 0.0, 0.0, 0.0, 0.0, 1.675809597438908E9, 0.0, 2023-02-07 17:39:57.438
83.0, 9064.392335938493, 187500.0, 187500.0, 187500.0, -187500.02235174447, -187500.02235174447, -187500.02235174447, -187500.02235174447, 0.014, -0.02, -0.994, 192.0, 0.0, 0.0, 0.0, 0.0, 0.0, 0.0, 0.0, 0.0, 0.0, 1.675809597446801E9, 0.0, 2023-02-07 17:39:57.446
84.0, 8793.891524540368, 187500.0, 187500.0, 187500.0, -187500.02235174447, -187500.02235174447, -187500.02235174447, -187500.02235174447, 0.014, -0.02, -0.994, 192.0, 0.0, 0.0, 0.0, 0.0, 0.0, 0.0, 0.0, 0.0, 0.0, 1.675809597446822E9, 0.0, 2023-02-07 17:39:57.446
85.0, 8909.38298814094, 187500.0, 187500.0, 187500.0, -187500.02235174447, -187500.02235174447, -187500.02235174447, -187500.02235174447, 0.014, -0.02, -0.994, 192.0, 0.0, 0.0, 0.0, 0.0, 0.0, 0.0, 0.0, 0.0, 0.0, 1.675809597453942E9, 0.0, 2023-02-07 17:39:57.453
86.0, 9139.427142074961, 187500.0, 187500.0, 187500.0, -187500.02235174447, -187500.02235174447, -187500.02235174447, -187500.02235174447, 0.016, -0.022, -0.994, 192.0, 0.0, 128.0, 255.0, 80.0, 224.0, 240.0, 0.0, 0.0, 0.0, 1.675809597461977E9, 0.0, 2023-02-07 17:39:57.461
87.0, 9311.51322263637, 187500.0, 187500.0, 187500.0, -187500.02235174447, -187500.02235174447, -187500.02235174447, -187500.02235174447, 0.016, -0.022, -0.994, 192.0, 0.0, 0.0, 0.0, 0.0, 0.0, 0.0, 0.0, 0.0, 0.0, 1.675809597462001E9, 0.0, 2023-02-07 17:39:57.462
88.0, 9226.084855328185, 187500.0, 187500.0, 187500.0, -187500.02235174447, -187500.02235174447, -187500.02235174447, -187500.02235174447, 0.016, -0.022, -0.994, 192.0, 0.0, 0.0, 0.0, 0.0, 0.0, 0.0, 0.0, 0.0, 0.0, 1.675809597468454E9, 0.0, 2023-02-07 17:39:57.468
89.0, 8910.679389319348, 187500.0, 187500.0, 187500.0, -187500.02235174447, -187500.02235174447, -187500.02235174447, -187500.02235174447, 0.016, -0.022, -0.994, 192.0, 0.0, 0.0, 0.0, 0.0, 0.0, 0.0, 0.0, 0.0, 0.0, 1.675809597468471E9, 0.0, 2023-02-07 17:39:57.468
90.0, 9004.199088120353, 187500.0, 187500.0, 187500.0, -187500.02235174447, -187500.02235174447, -187500.02235174447, -187500.02235174447, 0.016, -0.022, -0.994, 192.0, 0.0, 0.0, 0.0, 0.0, 0.0, 0.0, 0.0, 0.0, 0.0, 1.675809597476388E9, 0.0, 2023-02-07 17:39:57.476
91.0, 9063.431210926916, 187500.0, 187500.0, 187500.0, -187500.02235174447, -187500.02235174447, -187500.02235174447, -187500.02235174447, 0.016, -0.022, -0.994, 192.0, 0.0, 0.0, 0.0, 0.0, 0.0, 0.0, 0.0, 0.0, 0.0, 1.675809597476407E9, 0.0, 2023-02-07 17:39:57.476
92.0, 9184.10827924112, 187500.0, 187500.0, 187500.0, -187500.02235174447, -187500.02235174447, -187500.02235174447, -187500.02235174447, 0.016, -0.022, -0.994, 192.0, 0.0, 0.0, 0.0, 0.0, 0.0, 0.0, 0.0, 0.0, 0.0, 1.67580959748441E9, 0.0, 2023-02-07 17:39:57.484
93.0, 9165.377517387571, 187500.0, 187500.0, 187500.0, -187500.02235174447, -187500.02235174447, -187500.02235174447, -187500.02235174447, 0.016, -0.022, -0.994, 192.0, 0.0, 0.0, 0.0, 0.0, 0.0, 0.0, 0.0, 0.0, 0.0, 1.675809597484425E9, 0.0, 2023-02-07 17:39:57.484
94.0, 9151.161807913997, 187500.0, 187500.0, 187500.0, -187500.02235174447, -187500.02235174447, -187500.02235174447, -187500.02235174447, 0.016, -0.022, -0.994, 192.0, 0.0, 0.0, 0.0, 0.0, 0.0, 0.0, 0.0, 0.0, 0.0, 1.67580959749158E9, 0.0, 2023-02-07 17:39:57.491
95.0, 9325.192490243016, 187500.0, 187500.0, 187500.0, -187500.02235174447, -187500.02235174447, -187500.02235174447, -187500.02235174447, 0.016, -0.022, -0.994, 192.0, 0.0, 0.0, 0.0, 0.0, 0.0, 0.0, 0.0, 0.0, 0.0, 1.675809597491592E9, 0.0, 2023-02-07 17:39:57.491
96.0, 9385.698662483534, 187500.0, 187500.0, 187500.0, -187500.02235174447, -187500.02235174447, -187500.02235174447, -187500.02235174447, 0.018000000000000002, -0.018000000000000002, -0.994, 192.0, 0.0, 144.0, 255.0, 112.0, 224.0, 240.0, 0.0, 0.0, 0.0, 1.675809597499019E9, 0.0, 2023-02-07 17:39:57.499
97.0, 9020.02412319471, 187500.0, 187500.0, 187500.0, -187500.02235174447, -187500.02235174447, -187500.02235174447, -187500.02235174447, 0.018000000000000002, -0.018000000000000002, -0.994, 192.0, 0.0, 0.0, 0.0, 0.0, 0.0, 0.0, 0.0, 0.0, 0.0, 1.675809597499033E9, 0.0, 2023-02-07 17:39:57.499
98.0, 9179.660282094514, 187500.0, 187500.0, 187500.0, -187500.02235174447, -187500.02235174447, -187500.02235174447, -187500.02235174447, 0.018000000000000002, -0.018000000000000002, -0.994, 192.0, 0.0, 0.0, 0.0, 0.0, 0.0, 0.0, 0.0, 0.0, 0.0, 1.675809597507262E9, 0.0, 2023-02-07 17:39:57.507
99.0, 9369.42659252007, 187500.0, 187500.0, 187500.0, -187500.02235174447, -187500.02235174447, -187500.02235174447, -187500.02235174447, 0.018000000000000002, -0.018000000000000002, -0.994, 192.0, 0.0, 0.0, 0.0, 0.0, 0.0, 0.0, 0.0, 0.0, 0.0, 1.675809597507283E9, 0.0, 2023-02-07 17:39:57.507
100.0, 9445.936613790585, 187500.0, 187500.0, 187500.0, -187500.02235174447, -187500.02235174447, -187500.02235174447, -187500.02235174447, 0.018000000000000002, -0.018000000000000002, -0.994, 192.0, 0.0, 0.0, 0.0, 0.0, 0.0, 0.0, 0.0, 0.0, 0.0, 1.675809597514147E9, 0.0, 2023-02-07 17:39:57.514
101.0, 9341.218691017471, 187500.0, 187500.0, 187500.0, -187500.02235174447, -187500.02235174447, -187500.02235174447, -187500.02235174447, 0.018000000000000002, -0.018000000000000002, -0.994, 192.0, 0.0, 0.0, 0.0, 0.0, 0.0, 0.0, 0.0, 0.0, 0.0, 1.675809597521093E9, 0.0, 2023-02-07 17:39:57.521
102.0, 9110.861612661078, 187500.0, 187500.0, 187500.0, -187500.02235174447, -187500.02235174447, -187500.02235174447, -187500.02235174447, 0.018000000000000002, -0.018000000000000002, -0.994, 192.0, 0.0, 0.0, 0.0, 0.0, 0.0, 0.0, 0.0, 0.0, 0.0, 1.675809597521108E9, 0.0, 2023-02-07 17:39:57.521
103.0, 8872.301444089586, 187500.0, 187500.0, 187500.0, -187500.02235174447, -187500.02235174447, -187500.02235174447, -187500.02235174447, 0.018000000000000002, -0.018000000000000002, -0.994, 192.0, 0.0, 0.0, 0.0, 0.0, 0.0, 0.0, 0.0, 0.0, 0.0, 1.675809597528691E9, 0.0, 2023-02-07 17:39:57.528
104.0, 9040.699486815869, 187500.0, 187500.0, 187500.0, -187500.02235174447, -187500.02235174447, -187500.02235174447, -187500.02235174447, 0.018000000000000002, -0.018000000000000002, -0.994, 192.0, 0.0, 0.0, 0.0, 0.0, 0.0, 0.0, 0.0, 0.0, 0.0, 1.675809597528702E9, 0.0, 2023-02-07 17:39:57.528
105.0, 9263.434620313004, 187500.0, 187500.0, 187500.0, -187500.02235174447, -187500.02235174447, -187500.02235174447, -187500.02235174447, 0.018000000000000002, -0.018000000000000002, -0.994, 192.0, 0.0, 0.0, 0.0, 0.0, 0.0, 0.0, 0.0, 0.0, 0.0, 1.675809597536784E9, 0.0, 2023-02-07 17:39:57.536
106.0, 9148.457246834903, 187500.0, 187500.0, 187500.0, -187500.02235174447, -187500.02235174447, -187500.02235174447, -187500.02235174447, 0.018000000000000002, -0.014, -0.994, 192.0, 0.0, 144.0, 255.0, 144.0, 224.0, 240.0, 0.0, 0.0, 0.0, 1.675809597536798E9, 0.0, 2023-02-07 17:39:57.536
107.0, 9391.219543363994, 187500.0, 187500.0, 187500.0, -187500.02235174447, -187500.02235174447, -187500.02235174447, -187500.02235174447, 0.018000000000000002, -0.014, -0.994, 192.0, 0.0, 0.0, 0.0, 0.0, 0.0, 0.0, 0.0, 0.0, 0.0, 1.67580959754386E9, 0.0, 2023-02-07 17:39:57.543
108.0, 9475.530323449413, 187500.0, 187500.0, 187500.0, -187500.02235174447, -187500.02235174447, -187500.02235174447, -187500.02235174447, 0.018000000000000002, -0.014, -0.994, 192.0, 0.0, 0.0, 0.0, 0.0, 0.0, 0.0, 0.0, 0.0, 0.0, 1.675809597543877E9, 0.0, 2023-02-07 17:39:57.543
109.0, 8869.395717310395, 187500.0, 187500.0, 187500.0, -187500.02235174447, -187500.02235174447, -187500.02235174447, -187500.02235174447, 0.018000000000000002, -0.014, -0.994, 192.0, 0.0, 0.0, 0.0, 0.0, 0.0, 0.0, 0.0, 0.0, 0.0, 1.67580959755133E9, 0.0, 2023-02-07 17:39:57.551
110.0, 9000.667512496413, 187500.0, 187500.0, 187500.0, -187500.02235174447, -187500.02235174447, -187500.02235174447, -187500.02235174447, 0.018000000000000002, -0.014, -0.994, 192.0, 0.0, 0.0, 0.0, 0.0, 0.0, 0.0, 0.0, 0.0, 0.0, 1.675809597551348E9, 0.0, 2023-02-07 17:39:57.551
111.0, 9225.39195125007, 187500.0, 187500.0, 187500.0, -187500.02235174447, -187500.02235174447, -187500.02235174447, -187500.02235174447, 0.018000000000000002, -0.014, -0.994, 192.0, 0.0, 0.0, 0.0, 0.0, 0.0, 0.0, 0.0, 0.0, 0.0, 1.67580959755933E9, 0.0, 2023-02-07 17:39:57.559
112.0, 9308.473385390447, 187500.0, 187500.0, 187500.0, -187500.02235174447, -187500.02235174447, -187500.02235174447, -187500.02235174447, 0.018000000000000002, -0.014, -0.994, 192.0, 0.0, 0.0, 0.0, 0.0, 0.0, 0.0, 0.0, 0.0, 0.0, 1.675809597559341E9, 0.0, 2023-02-07 17:39:57.559
113.0, 9301.186716698017, 187500.0, 187500.0, 187500.0, -187500.02235174447, -187500.02235174447, -187500.02235174447, -187500.02235174447, 0.018000000000000002, -0.014, -0.994, 192.0, 0.0, 0.0, 0.0, 0.0, 0.0, 0.0, 0.0, 0.0, 0.0, 1.675809597567392E9, 0.0, 2023-02-07 17:39:57.567
114.0, 9599.828374365376, 187500.0, 187500.0, 187500.0, -187500.02235174447, -187500.02235174447, -187500.02235174447, -187500.02235174447, 0.018000000000000002, -0.014, -0.994, 192.0, 0.0, 0.0, 0.0, 0.0, 0.0, 0.0, 0.0, 0.0, 0.0, 1.675809597567404E9, 0.0, 2023-02-07 17:39:57.567
115.0, 9032.451693111861, 187500.0, 187500.0, 187500.0, -187500.02235174447, -187500.02235174447, -187500.02235174447, -187500.02235174447, 0.012, -0.016, -0.992, 192.0, 0.0, 96.0, 255.0, 128.0, 225.0, 0.0, 0.0, 0.0, 0.0, 1.675809597573522E9, 0.0, 2023-02-07 17:39:57.573
116.0, 8839.55613846256, 187500.0, 187500.0, 187500.0, -187500.02235174447, -187500.02235174447, -187500.02235174447, -187500.02235174447, 0.012, -0.016, -0.992, 192.0, 0.0, 0.0, 0.0, 0.0, 0.0, 0.0, 0.0, 0.0, 0.0, 1.675809597573573E9, 0.0, 2023-02-07 17:39:57.573
117.0, 9162.695308052935, 187500.0, 187500.0, 187500.0, -187500.02235174447, -187500.02235174447, -187500.02235174447, -187500.02235174447, 0.012, -0.016, -0.992, 192.0, 0.0, 0.0, 0.0, 0.0, 0.0, 0.0, 0.0, 0.0, 0.0, 1.675809597581045E9, 0.0, 2023-02-07 17:39:57.581
118.0, 9338.804702616299, 187500.0, 187500.0, 187500.0, -187500.02235174447, -187500.02235174447, -187500.02235174447, -187500.02235174447, 0.012, -0.016, -0.992, 192.0, 0.0, 0.0, 0.0, 0.0, 0.0, 0.0, 0.0, 0.0, 0.0, 1.675809597589081E9, 0.0, 2023-02-07 17:39:57.589
119.0, 9282.768879266845, 187500.0, 187500.0, 187500.0, -187500.02235174447, -187500.02235174447, -187500.02235174447, -187500.02235174447, 0.012, -0.016, -0.992, 192.0, 0.0, 0.0, 0.0, 0.0, 0.0, 0.0, 0.0, 0.0, 0.0, 1.675809597589109E9, 0.0, 2023-02-07 17:39:57.589
120.0, 9174.921712269988, 187500.0, 187500.0, 187500.0, -187500.02235174447, -187500.02235174447, -187500.02235174447, -187500.02235174447, 0.012, -0.016, -0.992, 192.0, 0.0, 0.0, 0.0, 0.0, 0.0, 0.0, 0.0, 0.0, 0.0, 1.675809597597061E9, 0.0, 2023-02-07 17:39:57.597
121.0, 9091.70616766288, 187500.0, 187500.0, 187500.0, -187500.02235174447, -187500.02235174447, -187500.02235174447, -187500.02235174447, 0.012, -0.016, -0.992, 192.0, 0.0, 0.0, 0.0, 0.0, 0.0, 0.0, 0.0, 0.0, 0.0, 1.675809597597079E9, 0.0, 2023-02-07 17:39:57.597
122.0, 9194.85946832412, 187500.0, 187500.0, 187500.0, -187500.02235174447, -187500.02235174447, -187500.02235174447, -187500.02235174447, 0.012, -0.016, -0.992, 192.0, 0.0, 0.0, 0.0, 0.0, 0.0, 0.0, 0.0, 0.0, 0.0, 1.675809597603752E9, 0.0, 2023-02-07 17:39:57.603
123.0, 9490.818916656843, 187500.0, 187500.0, 187500.0, -187500.02235174447, -187500.02235174447, -187500.02235174447, -187500.02235174447, 0.012, -0.016, -0.992, 192.0, 0.0, 0.0, 0.0, 0.0, 0.0, 0.0, 0.0, 0.0, 0.0, 1.675809597603764E9, 0.0, 2023-02-07 17:39:57.603
124.0, 9222.419169237515, 187500.0, 187500.0, 187500.0, -187500.02235174447, -187500.02235174447, -187500.02235174447, -187500.02235174447, 0.012, -0.016, -0.992, 192.0, 0.0, 0.0, 0.0, 0.0, 0.0, 0.0, 0.0, 0.0, 0.0, 1.675809597611648E9, 0.0, 2023-02-07 17:39:57.611
125.0, 8847.535711233106, 187500.0, 187500.0, 187500.0, -187500.02235174447, -187500.02235174447, -187500.02235174447, -187500.02235174447, 0.012, -0.026000000000000002, -0.988, 192.0, 0.0, 96.0, 255.0, 48.0, 225.0, 32.0, 0.0, 0.0, 0.0, 1.675809597611671E9, 0.0, 2023-02-07 17:39:57.611
126.0, 9153.464037592894, 187500.0, 187500.0, 187500.0, -187500.02235174447, -187500.02235174447, -187500.02235174447, -187500.02235174447, 0.012, -0.026000000000000002, -0.988, 192.0, 0.0, 0.0, 0.0, 0.0, 0.0, 0.0, 0.0, 0.0, 0.0, 1.675809597619715E9, 0.0, 2023-02-07 17:39:57.619
127.0, 9684.765003295543, 187500.0, 187500.0, 187500.0, -187500.02235174447, -187500.02235174447, -187500.02235174447, -187500.02235174447, 0.012, -0.026000000000000002, -0.988, 192.0, 0.0, 0.0, 0.0, 0.0, 0.0, 0.0, 0.0, 0.0, 0.0, 1.675809597619727E9, 0.0, 2023-02-07 17:39:57.619
128.0, 9246.313184060238, 187500.0, 187500.0, 187500.0, -187500.02235174447, -187500.02235174447, -187500.02235174447, -187500.02235174447, 0.012, -0.026000000000000002, -0.988, 192.0, 0.0, 0.0, 0.0, 0.0, 0.0, 0.0, 0.0, 0.0, 0.0, 1.675809597626847E9, 0.0, 2023-02-07 17:39:57.626
129.0, 8771.942111485258, 187500.0, 187500.0, 187500.0, -187500.02235174447, -187500.02235174447, -187500.02235174447, -187500.02235174447, 0.012, -0.026000000000000002, -0.988, 192.0, 0.0, 0.0, 0.0, 0.0, 0.0, 0.0, 0.0, 0.0, 0.0, 1.67580959762686E9, 0.0, 2023-02-07 17:39:57.626
130.0, 9073.757716865268, 187500.0, 187500.0, 187500.0, -187500.02235174447, -187500.02235174447, -187500.02235174447, -187500.02235174447, 0.012, -0.026000000000000002, -0.988, 192.0, 0.0, 0.0, 0.0, 0.0, 0.0, 0.0, 0.0, 0.0, 0.0, 1.675809597634279E9, 0.0, 2023-02-07 17:39:57.634
131.0, 9119.37762729855, 187500.0, 187500.0, 187500.0, -187500.02235174447, -187500.02235174447, -187500.02235174447, -187500.02235174447, 0.012, -0.026000000000000002, -0.988, 192.0, 0.0, 0.0, 0.0, 0.0, 0.0, 0.0, 0.0, 0.0, 0.0, 1.675809597634302E9, 0.0, 2023-02-07 17:39:57.634
132.0, 9283.841763000699, 187500.0, 187500.0, 187500.0, -187500.02235174447, -187500.02235174447, -187500.02235174447, -187500.02235174447, 0.012, -0.026000000000000002, -0.988, 192.0, 0.0, 0.0, 0.0, 0.0, 0.0, 0.0, 0.0, 0.0, 0.0, 1.675809597641374E9, 0.0, 2023-02-07 17:39:57.641
133.0, 9611.495984971045, 187500.0, 187500.0, 187500.0, -187500.02235174447, -187500.02235174447, -187500.02235174447, -187500.02235174447, 0.012, -0.026000000000000002, -0.988, 192.0, 0.0, 0.0, 0.0, 0.0, 0.0, 0.0, 0.0, 0.0, 0.0, 1.675809597649348E9, 0.0, 2023-02-07 17:39:57.649
134.0, 9327.919403066564, 187500.0, 187500.0, 187500.0, -187500.02235174447, -187500.02235174447, -187500.02235174447, -187500.02235174447, 0.012, -0.026000000000000002, -0.988, 192.0, 0.0, 0.0, 0.0, 0.0, 0.0, 0.0, 0.0, 0.0, 0.0, 1.675809597649366E9, 0.0, 2023-02-07 17:39:57.649
135.0, 8959.406192231918, 187500.0, 187500.0, 187500.0, -187500.02235174447, -187500.02235174447, -187500.02235174447, -187500.02235174447, 0.008, -0.032, -0.988, 192.0, 0.0, 64.0, 255.0, 0.0, 225.0, 32.0, 0.0, 0.0, 0.0, 1.675809597656507E9, 0.0, 2023-02-07 17:39:57.656
136.0, 9162.650604564024, 187500.0, 187500.0, 187500.0, -187500.02235174447, -187500.02235174447, -187500.02235174447, -187500.02235174447, 0.008, -0.032, -0.988, 192.0, 0.0, 0.0, 0.0, 0.0, 0.0, 0.0, 0.0, 0.0, 0.0, 1.675809597656519E9, 0.0, 2023-02-07 17:39:57.656
137.0, 9179.816744305701, 187500.0, 187500.0, 187500.0, -187500.02235174447, -187500.02235174447, -187500.02235174447, -187500.02235174447, 0.008, -0.032, -0.988, 192.0, 0.0, 0.0, 0.0, 0.0, 0.0, 0.0, 0.0, 0.0, 0.0, 1.675809597663876E9, 0.0, 2023-02-07 17:39:57.663
138.0, 8923.53164238115, 187500.0, 187500.0, 187500.0, -187500.02235174447, -187500.02235174447, -187500.02235174447, -187500.02235174447, 0.008, -0.032, -0.988, 192.0, 0.0, 0.0, 0.0, 0.0, 0.0, 0.0, 0.0, 0.0, 0.0, 1.675809597663888E9, 0.0, 2023-02-07 17:39:57.663
139.0, 9149.306613124207, 187500.0, 187500.0, 187500.0, -187500.02235174447, -187500.02235174447, -187500.02235174447, -187500.02235174447, 0.008, -0.032, -0.988, 192.0, 0.0, 0.0, 0.0, 0.0, 0.0, 0.0, 0.0, 0.0, 0.0, 1.675809597671942E9, 0.0, 2023-02-07 17:39:57.671
140.0, 9392.359482331214, 187500.0, 187500.0, 187500.0, -187500.02235174447, -187500.02235174447, -187500.02235174447, -187500.02235174447, 0.008, -0.032, -0.988, 192.0, 0.0, 0.0, 0.0, 0.0, 0.0, 0.0, 0.0, 0.0, 0.0, 1.675809597671961E9, 0.0, 2023-02-07 17:39:57.671
141.0, 9435.76657006342, 187500.0, 187500.0, 187500.0, -187500.02235174447, -187500.02235174447, -187500.02235174447, -187500.02235174447, 0.008, -0.032, -0.988, 192.0, 0.0, 0.0, 0.0, 0.0, 0.0, 0.0, 0.0, 0.0, 0.0, 1.67580959767994E9, 0.0, 2023-02-07 17:39:57.679
142.0, 9037.480835614304, 187500.0, 187500.0, 187500.0, -187500.02235174447, -187500.02235174447, -187500.02235174447, -187500.02235174447, 0.008, -0.032, -0.988, 192.0, 0.0, 0.0, 0.0, 0.0, 0.0, 0.0, 0.0, 0.0, 0.0, 1.675809597679963E9, 0.0, 2023-02-07 17:39:57.679
143.0, 9397.925066700587, 187500.0, 187500.0, 187500.0, -187500.02235174447, -187500.02235174447, -187500.02235174447, -187500.02235174447, 0.008, -0.032, -0.988, 192.0, 0.0, 0.0, 0.0, 0.0, 0.0, 0.0, 0.0, 0.0, 0.0, 1.675809597686494E9, 0.0, 2023-02-07 17:39:57.686
144.0, 9410.777319762388, 187500.0, 187500.0, 187500.0, -187500.02235174447, -187500.02235174447, -187500.02235174447, -187500.02235174447, 0.008, -0.032, -0.988, 192.0, 0.0, 0.0, 0.0, 0.0, 0.0, 0.0, 0.0, 0.0, 0.0, 1.675809597686509E9, 0.0, 2023-02-07 17:39:57.686
145.0, 9067.678042373425, 187500.0, 187500.0, 187500.0, -187500.02235174447, -187500.02235174447, -187500.02235174447, -187500.02235174447, 0.01, -0.028, -0.99, 192.0, 0.0, 80.0, 255.0, 32.0, 225.0, 16.0, 0.0, 0.0, 0.0, 1.675809597694672E9, 0.0, 2023-02-07 17:39:57.694
146.0, 9092.46612697436, 187500.0, 187500.0, 187500.0, -187500.02235174447, -187500.02235174447, -187500.02235174447, -187500.02235174447, 0.01, -0.028, -0.99, 192.0, 0.0, 0.0, 0.0, 0.0, 0.0, 0.0, 0.0, 0.0, 0.0, 1.6758095976947E9, 0.0, 2023-02-07 17:39:57.694
147.0, 9009.16117538943, 187500.0, 187500.0, 187500.0, -187500.02235174447, -187500.02235174447, -187500.02235174447, -187500.02235174447, 0.01, -0.028, -0.99, 192.0, 0.0, 0.0, 0.0, 0.0, 0.0, 0.0, 0.0, 0.0, 0.0, 1.675809597701587E9, 0.0, 2023-02-07 17:39:57.701
148.0, 9114.214374329375, 187500.0, 187500.0, 187500.0, -187500.02235174447, -187500.02235174447, -187500.02235174447, -187500.02235174447, 0.01, -0.028, -0.99, 192.0, 0.0, 0.0, 0.0, 0.0, 0.0, 0.0, 0.0, 0.0, 0.0, 1.675809597709587E9, 0.0, 2023-02-07 17:39:57.709
149.0, 9214.10432030014, 187500.0, 187500.0, 187500.0, -187500.02235174447, -187500.02235174447, -187500.02235174447, -187500.02235174447, 0.01, -0.028, -0.99, 192.0, 0.0, 0.0, 0.0, 0.0, 0.0, 0.0, 0.0, 0.0, 0.0, 1.6758095977096E9, 0.0, 2023-02-07 17:39:57.709
150.0, 9284.087632189707, 187500.0, 187500.0, 187500.0, -187500.02235174447, -187500.02235174447, -187500.02235174447, -187500.02235174447, 0.01, -0.028, -0.99, 192.0, 0.0, 0.0, 0.0, 0.0, 0.0, 0.0, 0.0, 0.0, 0.0, 1.675809597719995E9, 0.0, 2023-02-07 17:39:57.719
151.0, 9638.988630651073, 187500.0, 187500.0, 187500.0, -187500.02235174447, -187500.02235174447, -187500.02235174447, -187500.02235174447, 0.01, -0.028, -0.99, 192.0, 0.0, 0.0, 0.0, 0.0, 0.0, 0.0, 0.0, 0.0, 0.0, 1.675809597720015E9, 0.0, 2023-02-07 17:39:57.720
152.0, 9527.78870198592, 187500.0, 187500.0, 187500.0, -187500.02235174447, -187500.02235174447, -187500.02235174447, -187500.02235174447, 0.01, -0.028, -0.99, 192.0, 0.0, 0.0, 0.0, 0.0, 0.0, 0.0, 0.0, 0.0, 0.0, 1.675809597724216E9, 0.0, 2023-02-07 17:39:57.724
153.0, 8908.019531729165, 187500.0, 187500.0, 187500.0, -187500.02235174447, -187500.02235174447, -187500.02235174447, -187500.02235174447, 0.01, -0.028, -0.99, 192.0, 0.0, 0.0, 0.0, 0.0, 0.0, 0.0, 0.0, 0.0, 0.0, 1.675809597724235E9, 0.0, 2023-02-07 17:39:57.724
154.0, 9056.323356190129, 187500.0, 187500.0, 187500.0, -187500.02235174447, -187500.02235174447, -187500.02235174447, -187500.02235174447, 0.01, -0.028, -0.99, 192.0, 0.0, 0.0, 0.0, 0.0, 0.0, 0.0, 0.0, 0.0, 0.0, 1.675809597732252E9, 0.0, 2023-02-07 17:39:57.732
155.0, 9207.53290743028, 187500.0, 187500.0, 187500.0, -187500.02235174447, -187500.02235174447, -187500.02235174447, -187500.02235174447, 0.012, -0.028, -0.992, 192.0, 0.0, 96.0, 255.0, 32.0, 225.0, 0.0, 0.0, 0.0, 0.0, 1.675809597732271E9, 0.0, 2023-02-07 17:39:57.732
156.0, 9234.44440775447, 187500.0, 187500.0, 187500.0, -187500.02235174447, -187500.02235174447, -187500.02235174447, -187500.02235174447, 0.012, -0.028, -0.992, 192.0, 0.0, 0.0, 0.0, 0.0, 0.0, 0.0, 0.0, 0.0, 0.0, 1.675809597738831E9, 0.0, 2023-02-07 17:39:57.738
157.0, 9174.00529074732, 187500.0, 187500.0, 187500.0, -187500.02235174447, -187500.02235174447, -187500.02235174447, -187500.02235174447, 0.012, -0.028, -0.992, 192.0, 0.0, 0.0, 0.0, 0.0, 0.0, 0.0, 0.0, 0.0, 0.0, 1.675809597738848E9, 0.0, 2023-02-07 17:39:57.738
158.0, 9209.812785364722, 187500.0, 187500.0, 187500.0, -187500.02235174447, -187500.02235174447, -187500.02235174447, -187500.02235174447, 0.012, -0.028, -0.992, 192.0, 0.0, 0.0, 0.0, 0.0, 0.0, 0.0, 0.0, 0.0, 0.0, 1.675809597746868E9, 0.0, 2023-02-07 17:39:57.746
159.0, 9355.166179557584, 187500.0, 187500.0, 187500.0, -187500.02235174447, -187500.02235174447, -187500.02235174447, -187500.02235174447, 0.012, -0.028, -0.992, 192.0, 0.0, 0.0, 0.0, 0.0, 0.0, 0.0, 0.0, 0.0, 0.0, 1.675809597746891E9, 0.0, 2023-02-07 17:39:57.746
160.0, 9172.23950293535, 187500.0, 187500.0, 187500.0, -187500.02235174447, -187500.02235174447, -187500.02235174447, -187500.02235174447, 0.012, -0.028, -0.992, 192.0, 0.0, 0.0, 0.0, 0.0, 0.0, 0.0, 0.0, 0.0, 0.0, 1.675809597754817E9, 0.0, 2023-02-07 17:39:57.754
161.0, 9210.30452374274, 187500.0, 187500.0, 187500.0, -187500.02235174447, -187500.02235174447, -187500.02235174447, -187500.02235174447, 0.012, -0.028, -0.992, 192.0, 0.0, 0.0, 0.0, 0.0, 0.0, 0.0, 0.0, 0.0, 0.0, 1.67580959775484E9, 0.0, 2023-02-07 17:39:57.754
162.0, 9137.907223451999, 187500.0, 187500.0, 187500.0, -187500.02235174447, -187500.02235174447, -187500.02235174447, -187500.02235174447, 0.012, -0.028, -0.992, 192.0, 0.0, 0.0, 0.0, 0.0, 0.0, 0.0, 0.0, 0.0, 0.0, 1.675809597762034E9, 0.0, 2023-02-07 17:39:57.762
163.0, 9248.727172461411, 187500.0, 187500.0, 187500.0, -187500.02235174447, -187500.02235174447, -187500.02235174447, -187500.02235174447, 0.012, -0.028, -0.992, 192.0, 0.0, 0.0, 0.0, 0.0, 0.0, 0.0, 0.0, 0.0, 0.0, 1.675809597768705E9, 0.0, 2023-02-07 17:39:57.768
164.0, 9389.319645085294, 187500.0, 187500.0, 187500.0, -187500.02235174447, -187500.02235174447, -187500.02235174447, -187500.02235174447, 0.012, -0.028, -0.992, 192.0, 0.0, 0.0, 0.0, 0.0, 0.0, 0.0, 0.0, 0.0, 0.0, 1.675809597768727E9, 0.0, 2023-02-07 17:39:57.768
165.0, 9081.022033813242, 187500.0, 187500.0, 187500.0, -187500.02235174447, -187500.02235174447, -187500.02235174447, -187500.02235174447, 0.012, -0.028, -0.992, 192.0, 0.0, 96.0, 255.0, 32.0, 225.0, 0.0, 0.0, 0.0, 0.0, 1.675809597776611E9, 0.0, 2023-02-07 17:39:57.776
166.0, 9266.83208547021, 187500.0, 187500.0, 187500.0, -187500.02235174447, -187500.02235174447, -187500.02235174447, -187500.02235174447, 0.012, -0.028, -0.992, 192.0, 0.0, 0.0, 0.0, 0.0, 0.0, 0.0, 0.0, 0.0, 0.0, 1.675809597776625E9, 0.0, 2023-02-07 17:39:57.776
167.0, 9369.247778564428, 187500.0, 187500.0, 187500.0, -187500.02235174447, -187500.02235174447, -187500.02235174447, -187500.02235174447, 0.012, -0.028, -0.992, 192.0, 0.0, 0.0, 0.0, 0.0, 0.0, 0.0, 0.0, 0.0, 0.0, 1.67580959778452E9, 0.0, 2023-02-07 17:39:57.784
168.0, 9165.556331343214, 187500.0, 187500.0, 187500.0, -187500.02235174447, -187500.02235174447, -187500.02235174447, -187500.02235174447, 0.012, -0.028, -0.992, 192.0, 0.0, 0.0, 0.0, 0.0, 0.0, 0.0, 0.0, 0.0, 0.0, 1.675809597784535E9, 0.0, 2023-02-07 17:39:57.784
169.0, 9058.424420168927, 187500.0, 187500.0, 187500.0, -187500.02235174447, -187500.02235174447, -187500.02235174447, -187500.02235174447, 0.012, -0.028, -0.992, 192.0, 0.0, 0.0, 0.0, 0.0, 0.0, 0.0, 0.0, 0.0, 0.0, 1.675809597791673E9, 0.0, 2023-02-07 17:39:57.791
170.0, 9255.49975103137, 187500.0, 187500.0, 187500.0, -187500.02235174447, -187500.02235174447, -187500.02235174447, -187500.02235174447, 0.012, -0.028, -0.992, 192.0, 0.0, 0.0, 0.0, 0.0, 0.0, 0.0, 0.0, 0.0, 0.0, 1.675809597791689E9, 0.0, 2023-02-07 17:39:57.791
171.0, 9477.676090917123, 187500.0, 187500.0, 187500.0, -187500.02235174447, -187500.02235174447, -187500.02235174447, -187500.02235174447, 0.012, -0.028, -0.992, 192.0, 0.0, 0.0, 0.0, 0.0, 0.0, 0.0, 0.0, 0.0, 0.0, 1.675809597799132E9, 0.0, 2023-02-07 17:39:57.799
172.0, 9441.466264899524, 187500.0, 187500.0, 187500.0, -187500.02235174447, -187500.02235174447, -187500.02235174447, -187500.02235174447, 0.012, -0.028, -0.992, 192.0, 0.0, 0.0, 0.0, 0.0, 0.0, 0.0, 0.0, 0.0, 0.0, 1.675809597799144E9, 0.0, 2023-02-07 17:39:57.799
173.0, 9096.064757831664, 187500.0, 187500.0, 187500.0, -187500.02235174447, -187500.02235174447, -187500.02235174447, -187500.02235174447, 0.012, -0.028, -0.992, 192.0, 0.0, 0.0, 0.0, 0.0, 0.0, 0.0, 0.0, 0.0, 0.0, 1.675809597807175E9, 0.0, 2023-02-07 17:39:57.807
174.0, 8965.687032423859, 187500.0, 187500.0, 187500.0, -187500.02235174447, -187500.02235174447, -187500.02235174447, -187500.02235174447, 0.01, -0.026000000000000002, -0.988, 192.0, 0.0, 80.0, 255.0, 48.0, 225.0, 32.0, 0.0, 0.0, 0.0, 1.675809597807198E9, 0.0, 2023-02-07 17:39:57.807
175.0, 9354.965013857487, 187500.0, 187500.0, 187500.0, -187500.02235174447, -187500.02235174447, -187500.02235174447, -187500.02235174447, 0.01, -0.026000000000000002, -0.988, 192.0, 0.0, 0.0, 0.0, 0.0, 0.0, 0.0, 0.0, 0.0, 0.0, 1.675809597815176E9, 0.0, 2023-02-07 17:39:57.815
176.0, 9431.564442105824, 187500.0, 187500.0, 187500.0, -187500.02235174447, -187500.02235174447, -187500.02235174447, -187500.02235174447, 0.01, -0.026000000000000002, -0.988, 192.0, 0.0, 0.0, 0.0, 0.0, 0.0, 0.0, 0.0, 0.0, 0.0, 1.675809597815197E9, 0.0, 2023-02-07 17:39:57.815
177.0, 9019.666495283425, 187500.0, 187500.0, 187500.0, -187500.02235174447, -187500.02235174447, -187500.02235174447, -187500.02235174447, 0.01, -0.026000000000000002, -0.988, 192.0, 0.0, 0.0, 0.0, 0.0, 0.0, 0.0, 0.0, 0.0, 0.0, 1.675809597821276E9, 0.0, 2023-02-07 17:39:57.821
178.0, 9099.015188099766, 187500.0, 187500.0, 187500.0, -187500.02235174447, -187500.02235174447, -187500.02235174447, -187500.02235174447, 0.01, -0.026000000000000002, -0.988, 192.0, 0.0, 0.0, 0.0, 0.0, 0.0, 0.0, 0.0, 0.0, 0.0, 1.675809597821296E9, 0.0, 2023-02-07 17:39:57.821
179.0, 9313.122548237152, 187500.0, 187500.0, 187500.0, -187500.02235174447, -187500.02235174447, -187500.02235174447, -187500.02235174447, 0.01, -0.026000000000000002, -0.988, 192.0, 0.0, 0.0, 0.0, 0.0, 0.0, 0.0, 0.0, 0.0, 0.0, 1.675809597828744E9, 0.0, 2023-02-07 17:39:57.828
180.0, 9632.506624759035, 187500.0, 187500.0, 187500.0, -187500.02235174447, -187500.02235174447, -187500.02235174447, -187500.02235174447, 0.01, -0.026000000000000002, -0.988, 192.0, 0.0, 0.0, 0.0, 0.0, 0.0, 0.0, 0.0, 0.0, 0.0, 1.675809597836801E9, 0.0, 2023-02-07 17:39:57.836
181.0, 9149.261909635296, 187500.0, 187500.0, 187500.0, -187500.02235174447, -187500.02235174447, -187500.02235174447, -187500.02235174447, 0.01, -0.026000000000000002, -0.988, 192.0, 0.0, 0.0, 0.0, 0.0, 0.0, 0.0, 0.0, 0.0, 0.0, 1.675809597836813E9, 0.0, 2023-02-07 17:39:57.836
182.0, 9135.493235050826, 187500.0, 187500.0, 187500.0, -187500.02235174447, -187500.02235174447, -187500.02235174447, -187500.02235174447, 0.01, -0.026000000000000002, -0.988, 192.0, 0.0, 0.0, 0.0, 0.0, 0.0, 0.0, 0.0, 0.0, 0.0, 1.67580959784471E9, 0.0, 2023-02-07 17:39:57.844
183.0, 9609.28316226997, 187500.0, 187500.0, 187500.0, -187500.02235174447, -187500.02235174447, -187500.02235174447, -187500.02235174447, 0.01, -0.026000000000000002, -0.988, 192.0, 0.0, 0.0, 0.0, 0.0, 0.0, 0.0, 0.0, 0.0, 0.0, 1.675809597844724E9, 0.0, 2023-02-07 17:39:57.844
184.0, 9362.676365694568, 187500.0, 187500.0, 187500.0, -187500.02235174447, -187500.02235174447, -187500.02235174447, -187500.02235174447, 0.012, -0.026000000000000002, -0.992, 192.0, 0.0, 96.0, 255.0, 48.0, 225.0, 0.0, 0.0, 0.0, 0.0, 1.675809597851401E9, 0.0, 2023-02-07 17:39:57.851
185.0, 9048.03085899721, 187500.0, 187500.0, 187500.0, -187500.02235174447, -187500.02235174447, -187500.02235174447, -187500.02235174447, 0.012, -0.026000000000000002, -0.992, 192.0, 0.0, 0.0, 0.0, 0.0, 0.0, 0.0, 0.0, 0.0, 0.0, 1.675809597851421E9, 0.0, 2023-02-07 17:39:57.851
