%OpenBCI Raw EEG Data
%Number of channels = 8
%Sample Rate = 250 Hz
%Board = OpenBCI_GUI$BoardCytonSerial
Sample Index, EXG Channel 0, EXG Channel 1, EXG Channel 2, EXG Channel 3, EXG Channel 4, EXG Channel 5, EXG Channel 6, EXG Channel 7, Accel Channel 0, Accel Channel 1, Accel Channel 2, Other, Other, Other, Other, Other, Other, Other, Analog Channel 0, Analog Channel 1, Analog Channel 2, Timestamp, Other, Timestamp (Formatted)
115.0, 6098.5840676527105, -187500.02235174447, -187500.02235174447, -187500.02235174447, -187500.02235174447, -187500.02235174447, -187500.02235174447, -187500.02235174447, 0.0, 0.0, 0.0, 192.0, 0.0, 0.0, 0.0, 0.0, 0.0, 0.0, 0.0, 0.0, 0.0, 1.677527013391561E9, 0.0, 2023-02-27 14:43:33.391
116.0, 5832.754770845744, -187500.02235174447, -187500.02235174447, -187500.02235174447, -187500.02235174447, -187500.02235174447, -187500.02235174447, -187500.02235174447, 0.26, -0.006, 0.978, 192.0, 8.0, 32.0, 255.0, 208.0, 30.0, 144.0, 0.0, 0.0, 0.0, 1.67752701339158E9, 0.0, 2023-02-27 14:43:33.391
117.0, 6442.018621208504, -187500.02235174447, -187500.02235174447, -187500.02235174447, -187500.02235174447, -187500.02235174447, -187500.02235174447, -187500.02235174447, 0.26, -0.006, 0.978, 192.0, 0.0, 0.0, 0.0, 0.0, 0.0, 0.0, 0.0, 0.0, 0.0, 1.677527013391592E9, 0.0, 2023-02-27 14:43:33.391
118.0, 6956.645185547493, -187500.02235174447, -187500.02235174447, -187500.02235174447, -187500.02235174447, -187500.02235174447, -187500.02235174447, -187500.02235174447, 0.26, -0.006, 0.978, 192.0, 0.0, 0.0, 0.0, 0.0, 0.0, 0.0, 0.0, 0.0, 0.0, 1.677527013391601E9, 0.0, 2023-02-27 14:43:33.391
119.0, 6444.790237520962, -187500.02235174447, -187500.02235174447, -187500.02235174447, -187500.02235174447, -187500.02235174447, -187500.02235174447, -187500.02235174447, 0.26, -0.006, 0.978, 192.0, 0.0, 0.0, 0.0, 0.0, 0.0, 0.0, 0.0, 0.0, 0.0, 1.677527013391611E9, 0.0, 2023-02-27 14:43:33.391
120.0, 5835.280517969193, -187500.02235174447, -187500.02235174447, -187500.02235174447, -187500.02235174447, -187500.02235174447, -187500.02235174447, -187500.02235174447, 0.26, -0.006, 0.978, 192.0, 0.0, 0.0, 0.0, 0.0, 0.0, 0.0, 0.0, 0.0, 0.0, 1.67752701339162E9, 0.0, 2023-02-27 14:43:33.391
0.0, 0.0, 0.0, 0.0, 0.0, 0.0, 0.0, 0.0, 0.0, 0.26, -0.006, 0.978, 192.0, 0.0, 0.0, 0.0, 0.0, 0.0, 0.0, 0.0, 0.0, 0.0, 1.677527013472155E9, 0.0, 2023-02-27 14:43:33.472
1.0, 6756.485313950219, -187500.02235174447, -187500.02235174447, -187500.02235174447, -187500.02235174447, -187500.02235174447, -187500.02235174447, -187500.02235174447, 0.262, -0.002, 0.978, 192.0, 8.0, 48.0, 255.0, 240.0, 30.0, 144.0, 0.0, 0.0, 0.0, 1.67752701348815E9, 0.0, 2023-02-27 14:43:33.488
2.0, 6805.122709884967, -187500.02235174447, -187500.02235174447, -187500.02235174447, -187500.02235174447, -187500.02235174447, -187500.02235174447, -187500.02235174447, 0.262, -0.002, 0.978, 192.0, 0.0, 0.0, 0.0, 0.0, 0.0, 0.0, 0.0, 0.0, 0.0, 1.677527013494113E9, 0.0, 2023-02-27 14:43:33.494
3.0, 7183.649502235592, -187500.02235174447, -187500.02235174447, -187500.02235174447, -187500.02235174447, -187500.02235174447, -187500.02235174447, -187500.02235174447, 0.262, -0.002, 0.978, 192.0, 0.0, 0.0, 0.0, 0.0, 0.0, 0.0, 0.0, 0.0, 0.0, 1.67752701349413E9, 0.0, 2023-02-27 14:43:33.494
4.0, 7337.317745365828, -187500.02235174447, -187500.02235174447, -187500.02235174447, -187500.02235174447, -187500.02235174447, -187500.02235174447, -187500.02235174447, 0.262, -0.002, 0.978, 192.0, 0.0, 0.0, 0.0, 0.0, 0.0, 0.0, 0.0, 0.0, 0.0, 1.677527013502089E9, 0.0, 2023-02-27 14:43:33.502
5.0, 6878.570542165106, -187500.02235174447, -187500.02235174447, -187500.02235174447, -187500.02235174447, -187500.02235174447, -187500.02235174447, -187500.02235174447, 0.262, -0.002, 0.978, 192.0, 0.0, 0.0, 0.0, 0.0, 0.0, 0.0, 0.0, 0.0, 0.0, 1.677527013502106E9, 0.0, 2023-02-27 14:43:33.502
6.0, 6797.076081881057, -187500.02235174447, -187500.02235174447, -187500.02235174447, -187500.02235174447, -187500.02235174447, -187500.02235174447, -187500.02235174447, 0.262, -0.002, 0.978, 192.0, 0.0, 0.0, 0.0, 0.0, 0.0, 0.0, 0.0, 0.0, 0.0, 1.677527013509944E9, 0.0, 2023-02-27 14:43:33.509
7.0, 7237.830130795256, -187500.02235174447, -187500.02235174447, -187500.02235174447, -187500.02235174447, -187500.02235174447, -187500.02235174447, -187500.02235174447, 0.262, -0.002, 0.978, 192.0, 0.0, 0.0, 0.0, 0.0, 0.0, 0.0, 0.0, 0.0, 0.0, 1.67752701350996E9, 0.0, 2023-02-27 14:43:33.509
8.0, 7342.50335007946, -187500.02235174447, -187500.02235174447, -187500.02235174447, -187500.02235174447, -187500.02235174447, -187500.02235174447, -187500.02235174447, 0.26, 0.004, 0.984, 192.0, 8.0, 32.0, 0.0, 32.0, 30.0, 192.0, 0.0, 0.0, 0.0, 1.677527013516666E9, 0.0, 2023-02-27 14:43:33.516
9.0, 7114.582611868694, -187500.02235174447, -187500.02235174447, -187500.02235174447, -187500.02235174447, -187500.02235174447, -187500.02235174447, -187500.02235174447, 0.26, 0.004, 0.984, 192.0, 0.0, 0.0, 0.0, 0.0, 0.0, 0.0, 0.0, 0.0, 0.0, 1.677527013516689E9, 0.0, 2023-02-27 14:43:33.516
10.0, 7022.404017735007, -187500.02235174447, -187500.02235174447, -187500.02235174447, -187500.02235174447, -187500.02235174447, -187500.02235174447, -187500.02235174447, 0.26, 0.004, 0.984, 192.0, 0.0, 0.0, 0.0, 0.0, 0.0, 0.0, 0.0, 0.0, 0.0, 1.677527013523671E9, 0.0, 2023-02-27 14:43:33.523
11.0, 7256.4714856709825, -187500.02235174447, -187500.02235174447, -187500.02235174447, -187500.02235174447, -187500.02235174447, -187500.02235174447, -187500.02235174447, 0.26, 0.004, 0.984, 192.0, 0.0, 0.0, 0.0, 0.0, 0.0, 0.0, 0.0, 0.0, 0.0, 1.677527013523696E9, 0.0, 2023-02-27 14:43:33.523
12.0, 7547.737067668089, -187500.02235174447, -187500.02235174447, -187500.02235174447, -187500.02235174447, -187500.02235174447, -187500.02235174447, -187500.02235174447, 0.26, 0.004, 0.984, 192.0, 0.0, 0.0, 0.0, 0.0, 0.0, 0.0, 0.0, 0.0, 0.0, 1.677527013531852E9, 0.0, 2023-02-27 14:43:33.531
13.0, 7128.954783553456, -187500.02235174447, -187500.02235174447, -187500.02235174447, -187500.02235174447, -187500.02235174447, -187500.02235174447, -187500.02235174447, 0.26, 0.004, 0.984, 192.0, 0.0, 0.0, 0.0, 0.0, 0.0, 0.0, 0.0, 0.0, 0.0, 1.677527013538816E9, 0.0, 2023-02-27 14:43:33.538
14.0, 6615.266992481589, -187500.02235174447, -187500.02235174447, -187500.02235174447, -187500.02235174447, -187500.02235174447, -187500.02235174447, -187500.02235174447, 0.26, 0.004, 0.984, 192.0, 0.0, 0.0, 0.0, 0.0, 0.0, 0.0, 0.0, 0.0, 0.0, 1.677527013538831E9, 0.0, 2023-02-27 14:43:33.538
15.0, 7147.886711107101, -187500.02235174447, -187500.02235174447, -187500.02235174447, -187500.02235174447, -187500.02235174447, -187500.02235174447, -187500.02235174447, 0.26, 0.004, 0.984, 192.0, 0.0, 0.0, 0.0, 0.0, 0.0, 0.0, 0.0, 0.0, 0.0, 1.677527013546347E9, 0.0, 2023-02-27 14:43:33.546
16.0, 7147.1714552845315, -187500.02235174447, -187500.02235174447, -187500.02235174447, -187500.02235174447, -187500.02235174447, -187500.02235174447, -187500.02235174447, 0.26, 0.004, 0.984, 192.0, 0.0, 0.0, 0.0, 0.0, 0.0, 0.0, 0.0, 0.0, 0.0, 1.677527013546359E9, 0.0, 2023-02-27 14:43:33.546
17.0, 6995.067834266167, -187500.02235174447, -187500.02235174447, -187500.02235174447, -187500.02235174447, -187500.02235174447, -187500.02235174447, -187500.02235174447, 0.256, 0.002, 0.984, 192.0, 8.0, 0.0, 0.0, 16.0, 30.0, 192.0, 0.0, 0.0, 0.0, 1.677527013554378E9, 0.0, 2023-02-27 14:43:33.554
18.0, 6749.556273169073, -187500.02235174447, -187500.02235174447, -187500.02235174447, -187500.02235174447, -187500.02235174447, -187500.02235174447, -187500.02235174447, 0.256, 0.002, 0.984, 192.0, 0.0, 0.0, 0.0, 0.0, 0.0, 0.0, 0.0, 0.0, 0.0, 1.677527013554401E9, 0.0, 2023-02-27 14:43:33.554
19.0, 6995.3807586885405, -187500.02235174447, -187500.02235174447, -187500.02235174447, -187500.02235174447, -187500.02235174447, -187500.02235174447, -187500.02235174447, 0.256, 0.002, 0.984, 192.0, 0.0, 0.0, 0.0, 0.0, 0.0, 0.0, 0.0, 0.0, 0.0, 1.677527013562244E9, 0.0, 2023-02-27 14:43:33.562
20.0, 7274.911674846611, -187500.02235174447, -187500.02235174447, -187500.02235174447, -187500.02235174447, -187500.02235174447, -187500.02235174447, -187500.02235174447, 0.256, 0.002, 0.984, 192.0, 0.0, 0.0, 0.0, 0.0, 0.0, 0.0, 0.0, 0.0, 0.0, 1.677527013562268E9, 0.0, 2023-02-27 14:43:33.562
21.0, 7190.533839527827, -187500.02235174447, -187500.02235174447, -187500.02235174447, -187500.02235174447, -187500.02235174447, -187500.02235174447, -187500.02235174447, 0.256, 0.002, 0.984, 192.0, 0.0, 0.0, 0.0, 0.0, 0.0, 0.0, 0.0, 0.0, 0.0, 1.677527013568878E9, 0.0, 2023-02-27 14:43:33.568
22.0, 6922.245850830776, -187500.02235174447, -187500.02235174447, -187500.02235174447, -187500.02235174447, -187500.02235174447, -187500.02235174447, -187500.02235174447, 0.256, 0.002, 0.984, 192.0, 0.0, 0.0, 0.0, 0.0, 0.0, 0.0, 0.0, 0.0, 0.0, 1.67752701356889E9, 0.0, 2023-02-27 14:43:33.568
23.0, 6917.149653094966, -187500.02235174447, -187500.02235174447, -187500.02235174447, -187500.02235174447, -187500.02235174447, -187500.02235174447, -187500.02235174447, 0.256, 0.002, 0.984, 192.0, 0.0, 0.0, 0.0, 0.0, 0.0, 0.0, 0.0, 0.0, 0.0, 1.67752701357711E9, 0.0, 2023-02-27 14:43:33.577
24.0, 7387.787984345911, -187500.02235174447, -187500.02235174447, -187500.02235174447, -187500.02235174447, -187500.02235174447, -187500.02235174447, -187500.02235174447, 0.256, 0.002, 0.984, 192.0, 0.0, 0.0, 0.0, 0.0, 0.0, 0.0, 0.0, 0.0, 0.0, 1.677527013577128E9, 0.0, 2023-02-27 14:43:33.577
25.0, 7214.606668306193, -187500.02235174447, -187500.02235174447, -187500.02235174447, -187500.02235174447, -187500.02235174447, -187500.02235174447, -187500.02235174447, 0.256, 0.002, 0.984, 192.0, 0.0, 0.0, 0.0, 0.0, 0.0, 0.0, 0.0, 0.0, 0.0, 1.677527013584898E9, 0.0, 2023-02-27 14:43:33.584
26.0, 6782.43568926283, -187500.02235174447, -187500.02235174447, -187500.02235174447, -187500.02235174447, -187500.02235174447, -187500.02235174447, -187500.02235174447, 0.256, 0.002, 0.984, 192.0, 0.0, 0.0, 0.0, 0.0, 0.0, 0.0, 0.0, 0.0, 0.0, 1.677527013584914E9, 0.0, 2023-02-27 14:43:33.584
27.0, 6810.978866932258, -187500.02235174447, -187500.02235174447, -187500.02235174447, -187500.02235174447, -187500.02235174447, -187500.02235174447, -187500.02235174447, 0.262, -0.002, 0.978, 192.0, 8.0, 48.0, 255.0, 240.0, 30.0, 144.0, 0.0, 0.0, 0.0, 1.677527013591963E9, 0.0, 2023-02-27 14:43:33.591
28.0, 7228.397694635117, -187500.02235174447, -187500.02235174447, -187500.02235174447, -187500.02235174447, -187500.02235174447, -187500.02235174447, -187500.02235174447, 0.262, -0.002, 0.978, 192.0, 0.0, 0.0, 0.0, 0.0, 0.0, 0.0, 0.0, 0.0, 0.0, 1.677527013598583E9, 0.0, 2023-02-27 14:43:33.598
29.0, 7350.348812383272, -187500.02235174447, -187500.02235174447, -187500.02235174447, -187500.02235174447, -187500.02235174447, -187500.02235174447, -187500.02235174447, 0.262, -0.002, 0.978, 192.0, 0.0, 0.0, 0.0, 0.0, 0.0, 0.0, 0.0, 0.0, 0.0, 1.677527013598607E9, 0.0, 2023-02-27 14:43:33.598
30.0, 6986.328302184142, -187500.02235174447, -187500.02235174447, -187500.02235174447, -187500.02235174447, -187500.02235174447, -187500.02235174447, -187500.02235174447, 0.262, -0.002, 0.978, 192.0, 0.0, 0.0, 0.0, 0.0, 0.0, 0.0, 0.0, 0.0, 0.0, 1.677527013606664E9, 0.0, 2023-02-27 14:43:33.606
31.0, 7033.244613795831, -187500.02235174447, -187500.02235174447, -187500.02235174447, -187500.02235174447, -187500.02235174447, -187500.02235174447, -187500.02235174447, 0.262, -0.002, 0.978, 192.0, 0.0, 0.0, 0.0, 0.0, 0.0, 0.0, 0.0, 0.0, 0.0, 1.677527013606681E9, 0.0, 2023-02-27 14:43:33.606
32.0, 7287.96509360851, -187500.02235174447, -187500.02235174447, -187500.02235174447, -187500.02235174447, -187500.02235174447, -187500.02235174447, -187500.02235174447, 0.262, -0.002, 0.978, 192.0, 0.0, 0.0, 0.0, 0.0, 0.0, 0.0, 0.0, 0.0, 0.0, 1.677527013614666E9, 0.0, 2023-02-27 14:43:33.614
33.0, 7694.163345594806, -187500.02235174447, -187500.02235174447, -187500.02235174447, -187500.02235174447, -187500.02235174447, -187500.02235174447, -187500.02235174447, 0.262, -0.002, 0.978, 192.0, 0.0, 0.0, 0.0, 0.0, 0.0, 0.0, 0.0, 0.0, 0.0, 1.677527013614691E9, 0.0, 2023-02-27 14:43:33.614
34.0, 6911.069978603123, -187500.02235174447, -187500.02235174447, -187500.02235174447, -187500.02235174447, -187500.02235174447, -187500.02235174447, -187500.02235174447, 0.262, -0.002, 0.978, 192.0, 0.0, 0.0, 0.0, 0.0, 0.0, 0.0, 0.0, 0.0, 0.0, 1.677527013621914E9, 0.0, 2023-02-27 14:43:33.621
35.0, 6411.039103393448, -187500.02235174447, -187500.02235174447, -187500.02235174447, -187500.02235174447, -187500.02235174447, -187500.02235174447, -187500.02235174447, 0.262, -0.002, 0.978, 192.0, 0.0, 0.0, 0.0, 0.0, 0.0, 0.0, 0.0, 0.0, 0.0, 1.67752701362194E9, 0.0, 2023-02-27 14:43:33.621
36.0, 6970.771488043248, -187500.02235174447, -187500.02235174447, -187500.02235174447, -187500.02235174447, -187500.02235174447, -187500.02235174447, -187500.02235174447, 0.262, -0.002, 0.978, 192.0, 0.0, 0.0, 0.0, 0.0, 0.0, 0.0, 0.0, 0.0, 0.0, 1.677527013629267E9, 0.0, 2023-02-27 14:43:33.629
37.0, 7335.149626153663, -187500.02235174447, -187500.02235174447, -187500.02235174447, -187500.02235174447, -187500.02235174447, -187500.02235174447, -187500.02235174447, 0.264, -0.006, 0.982, 192.0, 8.0, 64.0, 255.0, 208.0, 30.0, 176.0, 0.0, 0.0, 0.0, 1.677527013629284E9, 0.0, 2023-02-27 14:43:33.629
38.0, 7070.147343891543, -187500.02235174447, -187500.02235174447, -187500.02235174447, -187500.02235174447, -187500.02235174447, -187500.02235174447, -187500.02235174447, 0.264, -0.006, 0.982, 192.0, 0.0, 0.0, 0.0, 0.0, 0.0, 0.0, 0.0, 0.0, 0.0, 1.677527013637296E9, 0.0, 2023-02-27 14:43:33.637
39.0, 6753.937215082314, -187500.02235174447, -187500.02235174447, -187500.02235174447, -187500.02235174447, -187500.02235174447, -187500.02235174447, -187500.02235174447, 0.264, -0.006, 0.982, 192.0, 0.0, 0.0, 0.0, 0.0, 0.0, 0.0, 0.0, 0.0, 0.0, 1.677527013637377E9, 0.0, 2023-02-27 14:43:33.637
40.0, 7015.072645553666, -187500.02235174447, -187500.02235174447, -187500.02235174447, -187500.02235174447, -187500.02235174447, -187500.02235174447, -187500.02235174447, 0.264, -0.006, 0.982, 192.0, 0.0, 0.0, 0.0, 0.0, 0.0, 0.0, 0.0, 0.0, 0.0, 1.677527013644168E9, 0.0, 2023-02-27 14:43:33.644
41.0, 7527.06170404693, -187500.02235174447, -187500.02235174447, -187500.02235174447, -187500.02235174447, -187500.02235174447, -187500.02235174447, -187500.02235174447, 0.264, -0.006, 0.982, 192.0, 0.0, 0.0, 0.0, 0.0, 0.0, 0.0, 0.0, 0.0, 0.0, 1.677527013644189E9, 0.0, 2023-02-27 14:43:33.644
42.0, 7412.240792780018, -187500.02235174447, -187500.02235174447, -187500.02235174447, -187500.02235174447, -187500.02235174447, -187500.02235174447, -187500.02235174447, 0.264, -0.006, 0.982, 192.0, 0.0, 0.0, 0.0, 0.0, 0.0, 0.0, 0.0, 0.0, 0.0, 1.677527013650861E9, 0.0, 2023-02-27 14:43:33.650
43.0, 7006.266058238275, -187500.02235174447, -187500.02235174447, -187500.02235174447, -187500.02235174447, -187500.02235174447, -187500.02235174447, -187500.02235174447, 0.264, -0.006, 0.982, 192.0, 0.0, 0.0, 0.0, 0.0, 0.0, 0.0, 0.0, 0.0, 0.0, 1.677527013659067E9, 0.0, 2023-02-27 14:43:33.659
44.0, 6890.394614981964, -187500.02235174447, -187500.02235174447, -187500.02235174447, -187500.02235174447, -187500.02235174447, -187500.02235174447, -187500.02235174447, 0.264, -0.006, 0.982, 192.0, 0.0, 0.0, 0.0, 0.0, 0.0, 0.0, 0.0, 0.0, 0.0, 1.677527013659086E9, 0.0, 2023-02-27 14:43:33.659
45.0, 7195.607685519181, -187500.02235174447, -187500.02235174447, -187500.02235174447, -187500.02235174447, -187500.02235174447, -187500.02235174447, -187500.02235174447, 0.264, -0.006, 0.982, 192.0, 0.0, 0.0, 0.0, 0.0, 0.0, 0.0, 0.0, 0.0, 0.0, 1.677527013666837E9, 0.0, 2023-02-27 14:43:33.666
46.0, 7319.190480612574, -187500.02235174447, -187500.02235174447, -187500.02235174447, -187500.02235174447, -187500.02235174447, -187500.02235174447, -187500.02235174447, 0.264, -0.006, 0.982, 192.0, 0.0, 0.0, 0.0, 0.0, 0.0, 0.0, 0.0, 0.0, 0.0, 1.677527013666852E9, 0.0, 2023-02-27 14:43:33.666
47.0, 6717.503871620163, -187500.02235174447, -187500.02235174447, -187500.02235174447, -187500.02235174447, -187500.02235174447, -187500.02235174447, -187500.02235174447, 0.264, -0.01, 0.982, 192.0, 8.0, 64.0, 255.0, 176.0, 30.0, 176.0, 0.0, 0.0, 0.0, 1.677527013674008E9, 0.0, 2023-02-27 14:43:33.674
48.0, 7024.594488691627, -187500.02235174447, -187500.02235174447, -187500.02235174447, -187500.02235174447, -187500.02235174447, -187500.02235174447, -187500.02235174447, 0.264, -0.01, 0.982, 192.0, 0.0, 0.0, 0.0, 0.0, 0.0, 0.0, 0.0, 0.0, 0.0, 1.677527013674028E9, 0.0, 2023-02-27 14:43:33.674
49.0, 7617.6980278132, -187500.02235174447, -187500.02235174447, -187500.02235174447, -187500.02235174447, -187500.02235174447, -187500.02235174447, -187500.02235174447, 0.264, -0.01, 0.982, 192.0, 0.0, 0.0, 0.0, 0.0, 0.0, 0.0, 0.0, 0.0, 0.0, 1.677527013681496E9, 0.0, 2023-02-27 14:43:33.681
50.0, 7006.444872193918, -187500.02235174447, -187500.02235174447, -187500.02235174447, -187500.02235174447, -187500.02235174447, -187500.02235174447, -187500.02235174447, 0.264, -0.01, 0.982, 192.0, 0.0, 0.0, 0.0, 0.0, 0.0, 0.0, 0.0, 0.0, 0.0, 1.677527013681519E9, 0.0, 2023-02-27 14:43:33.681
51.0, 6740.682630620317, -187500.02235174447, -187500.02235174447, -187500.02235174447, -187500.02235174447, -187500.02235174447, -187500.02235174447, -187500.02235174447, 0.264, -0.01, 0.982, 192.0, 0.0, 0.0, 0.0, 0.0, 0.0, 0.0, 0.0, 0.0, 0.0, 1.67752701368946E9, 0.0, 2023-02-27 14:43:33.689
52.0, 6805.5473930296175, -187500.02235174447, -187500.02235174447, -187500.02235174447, -187500.02235174447, -187500.02235174447, -187500.02235174447, -187500.02235174447, 0.264, -0.01, 0.982, 192.0, 0.0, 0.0, 0.0, 0.0, 0.0, 0.0, 0.0, 0.0, 0.0, 1.677527013689471E9, 0.0, 2023-02-27 14:43:33.689
53.0, 7215.7913107623235, -187500.02235174447, -187500.02235174447, -187500.02235174447, -187500.02235174447, -187500.02235174447, -187500.02235174447, -187500.02235174447, 0.264, -0.01, 0.982, 192.0, 0.0, 0.0, 0.0, 0.0, 0.0, 0.0, 0.0, 0.0, 0.0, 1.677527013697556E9, 0.0, 2023-02-27 14:43:33.697
54.0, 7334.747294753468, -187500.02235174447, -187500.02235174447, -187500.02235174447, -187500.02235174447, -187500.02235174447, -187500.02235174447, -187500.02235174447, 0.264, -0.01, 0.982, 192.0, 0.0, 0.0, 0.0, 0.0, 0.0, 0.0, 0.0, 0.0, 0.0, 1.677527013697611E9, 0.0, 2023-02-27 14:43:33.697
55.0, 6938.942603938891, -187500.02235174447, -187500.02235174447, -187500.02235174447, -187500.02235174447, -187500.02235174447, -187500.02235174447, -187500.02235174447, 0.264, -0.01, 0.982, 192.0, 0.0, 0.0, 0.0, 0.0, 0.0, 0.0, 0.0, 0.0, 0.0, 1.677527013704115E9, 0.0, 2023-02-27 14:43:33.704
56.0, 6804.563916273584, -187500.02235174447, -187500.02235174447, -187500.02235174447, -187500.02235174447, -187500.02235174447, -187500.02235174447, -187500.02235174447, 0.264, -0.01, 0.982, 192.0, 0.0, 0.0, 0.0, 0.0, 0.0, 0.0, 0.0, 0.0, 0.0, 1.677527013704129E9, 0.0, 2023-02-27 14:43:33.704
57.0, 7129.60298414266, -187500.02235174447, -187500.02235174447, -187500.02235174447, -187500.02235174447, -187500.02235174447, -187500.02235174447, -187500.02235174447, 0.262, -0.004, 0.982, 192.0, 8.0, 48.0, 255.0, 224.0, 30.0, 176.0, 0.0, 0.0, 0.0, 1.677527013711112E9, 0.0, 2023-02-27 14:43:33.711
58.0, 7393.688844882113, -187500.02235174447, -187500.02235174447, -187500.02235174447, -187500.02235174447, -187500.02235174447, -187500.02235174447, -187500.02235174447, 0.262, -0.004, 0.982, 192.0, 0.0, 0.0, 0.0, 0.0, 0.0, 0.0, 0.0, 0.0, 0.0, 1.677527013719145E9, 0.0, 2023-02-27 14:43:33.719
59.0, 7053.562349505705, -187500.02235174447, -187500.02235174447, -187500.02235174447, -187500.02235174447, -187500.02235174447, -187500.02235174447, -187500.02235174447, 0.262, -0.004, 0.982, 192.0, 0.0, 0.0, 0.0, 0.0, 0.0, 0.0, 0.0, 0.0, 0.0, 1.677527013719166E9, 0.0, 2023-02-27 14:43:33.719
60.0, 6819.919564714381, -187500.02235174447, -187500.02235174447, -187500.02235174447, -187500.02235174447, -187500.02235174447, -187500.02235174447, -187500.02235174447, 0.262, -0.004, 0.982, 192.0, 0.0, 0.0, 0.0, 0.0, 0.0, 0.0, 0.0, 0.0, 0.0, 1.677527013727216E9, 0.0, 2023-02-27 14:43:33.727
61.0, 7142.254071504363, -187500.02235174447, -187500.02235174447, -187500.02235174447, -187500.02235174447, -187500.02235174447, -187500.02235174447, -187500.02235174447, 0.262, -0.004, 0.982, 192.0, 0.0, 0.0, 0.0, 0.0, 0.0, 0.0, 0.0, 0.0, 0.0, 1.677527013727233E9, 0.0, 2023-02-27 14:43:33.727
62.0, 7318.385817812183, -187500.02235174447, -187500.02235174447, -187500.02235174447, -187500.02235174447, -187500.02235174447, -187500.02235174447, -187500.02235174447, 0.262, -0.004, 0.982, 192.0, 0.0, 0.0, 0.0, 0.0, 0.0, 0.0, 0.0, 0.0, 0.0, 1.677527013733775E9, 0.0, 2023-02-27 14:43:33.733
63.0, 7237.025467994866, -187500.02235174447, -187500.02235174447, -187500.02235174447, -187500.02235174447, -187500.02235174447, -187500.02235174447, -187500.02235174447, 0.262, -0.004, 0.982, 192.0, 0.0, 0.0, 0.0, 0.0, 0.0, 0.0, 0.0, 0.0, 0.0, 1.677527013733789E9, 0.0, 2023-02-27 14:43:33.733
64.0, 6888.517068447718, -187500.02235174447, -187500.02235174447, -187500.02235174447, -187500.02235174447, -187500.02235174447, -187500.02235174447, -187500.02235174447, 0.262, -0.004, 0.982, 192.0, 0.0, 0.0, 0.0, 0.0, 0.0, 0.0, 0.0, 0.0, 0.0, 1.677527013741825E9, 0.0, 2023-02-27 14:43:33.741
65.0, 7057.518608274295, -187500.02235174447, -187500.02235174447, -187500.02235174447, -187500.02235174447, -187500.02235174447, -187500.02235174447, -187500.02235174447, 0.262, -0.004, 0.982, 192.0, 0.0, 0.0, 0.0, 0.0, 0.0, 0.0, 0.0, 0.0, 0.0, 1.677527013741853E9, 0.0, 2023-02-27 14:43:33.741
66.0, 7622.1013214708955, -187500.02235174447, -187500.02235174447, -187500.02235174447, -187500.02235174447, -187500.02235174447, -187500.02235174447, -187500.02235174447, 0.262, -0.004, 0.982, 192.0, 0.0, 0.0, 0.0, 0.0, 0.0, 0.0, 0.0, 0.0, 0.0, 1.677527013749783E9, 0.0, 2023-02-27 14:43:33.749
67.0, 7219.389941619628, -187500.02235174447, -187500.02235174447, -187500.02235174447, -187500.02235174447, -187500.02235174447, -187500.02235174447, -187500.02235174447, 0.262, -0.004, 0.986, 192.0, 8.0, 48.0, 255.0, 224.0, 30.0, 208.0, 0.0, 0.0, 0.0, 1.677527013749799E9, 0.0, 2023-02-27 14:43:33.749
68.0, 6774.411413003375, -187500.02235174447, -187500.02235174447, -187500.02235174447, -187500.02235174447, -187500.02235174447, -187500.02235174447, -187500.02235174447, 0.262, -0.004, 0.986, 192.0, 0.0, 0.0, 0.0, 0.0, 0.0, 0.0, 0.0, 0.0, 0.0, 1.677527013756858E9, 0.0, 2023-02-27 14:43:33.756
69.0, 6978.7063573248815, -187500.02235174447, -187500.02235174447, -187500.02235174447, -187500.02235174447, -187500.02235174447, -187500.02235174447, -187500.02235174447, 0.262, -0.004, 0.986, 192.0, 0.0, 0.0, 0.0, 0.0, 0.0, 0.0, 0.0, 0.0, 0.0, 1.677527013756948E9, 0.0, 2023-02-27 14:43:33.756
70.0, 7303.857183916233, -187500.02235174447, -187500.02235174447, -187500.02235174447, -187500.02235174447, -187500.02235174447, -187500.02235174447, -187500.02235174447, 0.262, -0.004, 0.986, 192.0, 0.0, 0.0, 0.0, 0.0, 0.0, 0.0, 0.0, 0.0, 0.0, 1.677527013764363E9, 0.0, 2023-02-27 14:43:33.764
71.0, 7182.9789499019325, -187500.02235174447, -187500.02235174447, -187500.02235174447, -187500.02235174447, -187500.02235174447, -187500.02235174447, -187500.02235174447, 0.262, -0.004, 0.986, 192.0, 0.0, 0.0, 0.0, 0.0, 0.0, 0.0, 0.0, 0.0, 0.0, 1.677527013764388E9, 0.0, 2023-02-27 14:43:33.764
72.0, 6857.604605866028, -187500.02235174447, -187500.02235174447, -187500.02235174447, -187500.02235174447, -187500.02235174447, -187500.02235174447, -187500.02235174447, 0.262, -0.004, 0.986, 192.0, 0.0, 0.0, 0.0, 0.0, 0.0, 0.0, 0.0, 0.0, 0.0, 1.677527013771427E9, 0.0, 2023-02-27 14:43:33.771
73.0, 6888.204144025343, -187500.02235174447, -187500.02235174447, -187500.02235174447, -187500.02235174447, -187500.02235174447, -187500.02235174447, -187500.02235174447, 0.262, -0.004, 0.986, 192.0, 0.0, 0.0, 0.0, 0.0, 0.0, 0.0, 0.0, 0.0, 0.0, 1.677527013771446E9, 0.0, 2023-02-27 14:43:33.771
74.0, 7304.214811827518, -187500.02235174447, -187500.02235174447, -187500.02235174447, -187500.02235174447, -187500.02235174447, -187500.02235174447, -187500.02235174447, 0.262, -0.004, 0.986, 192.0, 0.0, 0.0, 0.0, 0.0, 0.0, 0.0, 0.0, 0.0, 0.0, 1.677527013779411E9, 0.0, 2023-02-27 14:43:33.779
75.0, 7408.463347967071, -187500.02235174447, -187500.02235174447, -187500.02235174447, -187500.02235174447, -187500.02235174447, -187500.02235174447, -187500.02235174447, 0.262, -0.004, 0.986, 192.0, 0.0, 0.0, 0.0, 0.0, 0.0, 0.0, 0.0, 0.0, 0.0, 1.677527013786481E9, 0.0, 2023-02-27 14:43:33.786
76.0, 7179.894409167101, -187500.02235174447, -187500.02235174447, -187500.02235174447, -187500.02235174447, -187500.02235174447, -187500.02235174447, -187500.02235174447, 0.256, -0.008, 0.984, 192.0, 8.0, 0.0, 255.0, 192.0, 30.0, 192.0, 0.0, 0.0, 0.0, 1.677527013786496E9, 0.0, 2023-02-27 14:43:33.786
77.0, 6913.148690837466, -187500.02235174447, -187500.02235174447, -187500.02235174447, -187500.02235174447, -187500.02235174447, -187500.02235174447, -187500.02235174447, 0.256, -0.008, 0.984, 192.0, 0.0, 0.0, 0.0, 0.0, 0.0, 0.0, 0.0, 0.0, 0.0, 1.677527013794063E9, 0.0, 2023-02-27 14:43:33.794
78.0, 7165.969272371444, -187500.02235174447, -187500.02235174447, -187500.02235174447, -187500.02235174447, -187500.02235174447, -187500.02235174447, -187500.02235174447, 0.256, -0.008, 0.984, 192.0, 0.0, 0.0, 0.0, 0.0, 0.0, 0.0, 0.0, 0.0, 0.0, 1.677527013794078E9, 0.0, 2023-02-27 14:43:33.794
79.0, 7370.331271926317, -187500.02235174447, -187500.02235174447, -187500.02235174447, -187500.02235174447, -187500.02235174447, -187500.02235174447, -187500.02235174447, 0.256, -0.008, 0.984, 192.0, 0.0, 0.0, 0.0, 0.0, 0.0, 0.0, 0.0, 0.0, 0.0, 1.677527013802045E9, 0.0, 2023-02-27 14:43:33.802
80.0, 7082.329044619685, -187500.02235174447, -187500.02235174447, -187500.02235174447, -187500.02235174447, -187500.02235174447, -187500.02235174447, -187500.02235174447, 0.256, -0.008, 0.984, 192.0, 0.0, 0.0, 0.0, 0.0, 0.0, 0.0, 0.0, 0.0, 0.0, 1.677527013802086E9, 0.0, 2023-02-27 14:43:33.802
81.0, 6966.94933974139, -187500.02235174447, -187500.02235174447, -187500.02235174447, -187500.02235174447, -187500.02235174447, -187500.02235174447, -187500.02235174447, 0.256, -0.008, 0.984, 192.0, 0.0, 0.0, 0.0, 0.0, 0.0, 0.0, 0.0, 0.0, 0.0, 1.677527013809069E9, 0.0, 2023-02-27 14:43:33.809
82.0, 7228.464749868483, -187500.02235174447, -187500.02235174447, -187500.02235174447, -187500.02235174447, -187500.02235174447, -187500.02235174447, -187500.02235174447, 0.256, -0.008, 0.984, 192.0, 0.0, 0.0, 0.0, 0.0, 0.0, 0.0, 0.0, 0.0, 0.0, 1.677527013809089E9, 0.0, 2023-02-27 14:43:33.809
83.0, 7332.243899374474, -187500.02235174447, -187500.02235174447, -187500.02235174447, -187500.02235174447, -187500.02235174447, -187500.02235174447, -187500.02235174447, 0.256, -0.008, 0.984, 192.0, 0.0, 0.0, 0.0, 0.0, 0.0, 0.0, 0.0, 0.0, 0.0, 1.677527013816664E9, 0.0, 2023-02-27 14:43:33.816
84.0, 7110.715760077926, -187500.02235174447, -187500.02235174447, -187500.02235174447, -187500.02235174447, -187500.02235174447, -187500.02235174447, -187500.02235174447, 0.256, -0.008, 0.984, 192.0, 0.0, 0.0, 0.0, 0.0, 0.0, 0.0, 0.0, 0.0, 0.0, 1.677527013816729E9, 0.0, 2023-02-27 14:43:33.816
85.0, 6872.557922906629, -187500.02235174447, -187500.02235174447, -187500.02235174447, -187500.02235174447, -187500.02235174447, -187500.02235174447, -187500.02235174447, 0.256, -0.008, 0.984, 192.0, 0.0, 0.0, 0.0, 0.0, 0.0, 0.0, 0.0, 0.0, 0.0, 1.677527013824654E9, 0.0, 2023-02-27 14:43:33.824
86.0, 7198.3569500871845, -187500.02235174447, -187500.02235174447, -187500.02235174447, -187500.02235174447, -187500.02235174447, -187500.02235174447, -187500.02235174447, 0.26, -0.006, 0.972, 192.0, 8.0, 32.0, 255.0, 208.0, 30.0, 96.0, 0.0, 0.0, 0.0, 1.67752701382467E9, 0.0, 2023-02-27 14:43:33.824
87.0, 7607.393873619303, -187500.02235174447, -187500.02235174447, -187500.02235174447, -187500.02235174447, -187500.02235174447, -187500.02235174447, -187500.02235174447, 0.26, -0.006, 0.972, 192.0, 0.0, 0.0, 0.0, 0.0, 0.0, 0.0, 0.0, 0.0, 0.0, 1.677527013832542E9, 0.0, 2023-02-27 14:43:33.832
88.0, 7337.40715234365, -187500.02235174447, -187500.02235174447, -187500.02235174447, -187500.02235174447, -187500.02235174447, -187500.02235174447, -187500.02235174447, 0.26, -0.006, 0.972, 192.0, 0.0, 0.0, 0.0, 0.0, 0.0, 0.0, 0.0, 0.0, 0.0, 1.677527013832558E9, 0.0, 2023-02-27 14:43:33.832
89.0, 6922.737589208793, -187500.02235174447, -187500.02235174447, -187500.02235174447, -187500.02235174447, -187500.02235174447, -187500.02235174447, -187500.02235174447, 0.26, -0.006, 0.972, 192.0, 0.0, 0.0, 0.0, 0.0, 0.0, 0.0, 0.0, 0.0, 0.0, 1.677527013838752E9, 0.0, 2023-02-27 14:43:33.838
90.0, 6955.70641228037, -187500.02235174447, -187500.02235174447, -187500.02235174447, -187500.02235174447, -187500.02235174447, -187500.02235174447, -187500.02235174447, 0.26, -0.006, 0.972, 192.0, 0.0, 0.0, 0.0, 0.0, 0.0, 0.0, 0.0, 0.0, 0.0, 1.677527013846354E9, 0.0, 2023-02-27 14:43:33.846
91.0, 7364.855094534767, -187500.02235174447, -187500.02235174447, -187500.02235174447, -187500.02235174447, -187500.02235174447, -187500.02235174447, -187500.02235174447, 0.26, -0.006, 0.972, 192.0, 0.0, 0.0, 0.0, 0.0, 0.0, 0.0, 0.0, 0.0, 0.0, 1.677527013846374E9, 0.0, 2023-02-27 14:43:33.846
92.0, 7316.709436978035, -187500.02235174447, -187500.02235174447, -187500.02235174447, -187500.02235174447, -187500.02235174447, -187500.02235174447, -187500.02235174447, 0.26, -0.006, 0.972, 192.0, 0.0, 0.0, 0.0, 0.0, 0.0, 0.0, 0.0, 0.0, 0.0, 1.677527013854282E9, 0.0, 2023-02-27 14:43:33.854
93.0, 6951.012545944756, -187500.02235174447, -187500.02235174447, -187500.02235174447, -187500.02235174447, -187500.02235174447, -187500.02235174447, -187500.02235174447, 0.26, -0.006, 0.972, 192.0, 0.0, 0.0, 0.0, 0.0, 0.0, 0.0, 0.0, 0.0, 0.0, 1.677527013854297E9, 0.0, 2023-02-27 14:43:33.854
94.0, 6979.063985236166, -187500.02235174447, -187500.02235174447, -187500.02235174447, -187500.02235174447, -187500.02235174447, -187500.02235174447, -187500.02235174447, 0.26, -0.006, 0.972, 192.0, 0.0, 0.0, 0.0, 0.0, 0.0, 0.0, 0.0, 0.0, 0.0, 1.677527013862292E9, 0.0, 2023-02-27 14:43:33.862
95.0, 7390.581952402825, -187500.02235174447, -187500.02235174447, -187500.02235174447, -187500.02235174447, -187500.02235174447, -187500.02235174447, -187500.02235174447, 0.26, -0.006, 0.972, 192.0, 0.0, 0.0, 0.0, 0.0, 0.0, 0.0, 0.0, 0.0, 0.0, 1.677527013862309E9, 0.0, 2023-02-27 14:43:33.862
96.0, 7370.957120771065, -187500.02235174447, -187500.02235174447, -187500.02235174447, -187500.02235174447, -187500.02235174447, -187500.02235174447, -187500.02235174447, 0.254, -0.008, 0.972, 192.0, 7.0, 240.0, 255.0, 192.0, 30.0, 96.0, 0.0, 0.0, 0.0, 1.677527013868992E9, 0.0, 2023-02-27 14:43:33.868
97.0, 7046.923881402479, -187500.02235174447, -187500.02235174447, -187500.02235174447, -187500.02235174447, -187500.02235174447, -187500.02235174447, -187500.02235174447, 0.254, -0.008, 0.972, 192.0, 0.0, 0.0, 0.0, 0.0, 0.0, 0.0, 0.0, 0.0, 0.0, 1.677527013869007E9, 0.0, 2023-02-27 14:43:33.869
98.0, 6941.870682462536, -187500.02235174447, -187500.02235174447, -187500.02235174447, -187500.02235174447, -187500.02235174447, -187500.02235174447, -187500.02235174447, 0.254, -0.008, 0.972, 192.0, 0.0, 0.0, 0.0, 0.0, 0.0, 0.0, 0.0, 0.0, 0.0, 1.67752701387678E9, 0.0, 2023-02-27 14:43:33.876
99.0, 7449.52350253147, -187500.02235174447, -187500.02235174447, -187500.02235174447, -187500.02235174447, -187500.02235174447, -187500.02235174447, -187500.02235174447, 0.254, -0.008, 0.972, 192.0, 0.0, 0.0, 0.0, 0.0, 0.0, 0.0, 0.0, 0.0, 0.0, 1.67752701387683E9, 0.0, 2023-02-27 14:43:33.876
100.0, 7680.260560543605, -187500.02235174447, -187500.02235174447, -187500.02235174447, -187500.02235174447, -187500.02235174447, -187500.02235174447, -187500.02235174447, 0.254, -0.008, 0.972, 192.0, 0.0, 0.0, 0.0, 0.0, 0.0, 0.0, 0.0, 0.0, 0.0, 1.677527013884944E9, 0.0, 2023-02-27 14:43:33.884
101.0, 7323.9737539260095, -187500.02235174447, -187500.02235174447, -187500.02235174447, -187500.02235174447, -187500.02235174447, -187500.02235174447, -187500.02235174447, 0.254, -0.008, 0.972, 192.0, 0.0, 0.0, 0.0, 0.0, 0.0, 0.0, 0.0, 0.0, 0.0, 1.677527013884965E9, 0.0, 2023-02-27 14:43:33.884
102.0, 6777.67476769385, -187500.02235174447, -187500.02235174447, -187500.02235174447, -187500.02235174447, -187500.02235174447, -187500.02235174447, -187500.02235174447, 0.254, -0.008, 0.972, 192.0, 0.0, 0.0, 0.0, 0.0, 0.0, 0.0, 0.0, 0.0, 0.0, 1.677527013892138E9, 0.0, 2023-02-27 14:43:33.892
103.0, 7283.159468550619, -187500.02235174447, -187500.02235174447, -187500.02235174447, -187500.02235174447, -187500.02235174447, -187500.02235174447, -187500.02235174447, 0.254, -0.008, 0.972, 192.0, 0.0, 0.0, 0.0, 0.0, 0.0, 0.0, 0.0, 0.0, 0.0, 1.677527013892158E9, 0.0, 2023-02-27 14:43:33.892
104.0, 7594.251047879583, -187500.02235174447, -187500.02235174447, -187500.02235174447, -187500.02235174447, -187500.02235174447, -187500.02235174447, -187500.02235174447, 0.254, -0.008, 0.972, 192.0, 0.0, 0.0, 0.0, 0.0, 0.0, 0.0, 0.0, 0.0, 0.0, 1.677527013898492E9, 0.0, 2023-02-27 14:43:33.898
105.0, 7157.207388544964, -187500.02235174447, -187500.02235174447, -187500.02235174447, -187500.02235174447, -187500.02235174447, -187500.02235174447, -187500.02235174447, 0.254, -0.008, 0.972, 192.0, 0.0, 0.0, 0.0, 0.0, 0.0, 0.0, 0.0, 0.0, 0.0, 1.677527013906646E9, 0.0, 2023-02-27 14:43:33.906
106.0, 6852.843684297048, -187500.02235174447, -187500.02235174447, -187500.02235174447, -187500.02235174447, -187500.02235174447, -187500.02235174447, -187500.02235174447, 0.256, -0.008, 0.972, 192.0, 8.0, 0.0, 255.0, 192.0, 30.0, 96.0, 0.0, 0.0, 0.0, 1.677527013906669E9, 0.0, 2023-02-27 14:43:33.906
107.0, 7289.127384320186, -187500.02235174447, -187500.02235174447, -187500.02235174447, -187500.02235174447, -187500.02235174447, -187500.02235174447, -187500.02235174447, 0.256, -0.008, 0.972, 192.0, 0.0, 0.0, 0.0, 0.0, 0.0, 0.0, 0.0, 0.0, 0.0, 1.677527013914631E9, 0.0, 2023-02-27 14:43:33.914
108.0, 7544.026678088508, -187500.02235174447, -187500.02235174447, -187500.02235174447, -187500.02235174447, -187500.02235174447, -187500.02235174447, -187500.02235174447, 0.256, -0.008, 0.972, 192.0, 0.0, 0.0, 0.0, 0.0, 0.0, 0.0, 0.0, 0.0, 0.0, 1.677527013914648E9, 0.0, 2023-02-27 14:43:33.914
109.0, 7276.453945214027, -187500.02235174447, -187500.02235174447, -187500.02235174447, -187500.02235174447, -187500.02235174447, -187500.02235174447, -187500.02235174447, 0.256, -0.008, 0.972, 192.0, 0.0, 0.0, 0.0, 0.0, 0.0, 0.0, 0.0, 0.0, 0.0, 1.67752701392183E9, 0.0, 2023-02-27 14:43:33.921
110.0, 7043.168788333987, -187500.02235174447, -187500.02235174447, -187500.02235174447, -187500.02235174447, -187500.02235174447, -187500.02235174447, -187500.02235174447, 0.256, -0.008, 0.972, 192.0, 0.0, 0.0, 0.0, 0.0, 0.0, 0.0, 0.0, 0.0, 0.0, 1.677527013921888E9, 0.0, 2023-02-27 14:43:33.921
111.0, 7522.658410389235, -187500.02235174447, -187500.02235174447, -187500.02235174447, -187500.02235174447, -187500.02235174447, -187500.02235174447, -187500.02235174447, 0.256, -0.008, 0.972, 192.0, 0.0, 0.0, 0.0, 0.0, 0.0, 0.0, 0.0, 0.0, 0.0, 1.677527013929635E9, 0.0, 2023-02-27 14:43:33.929
112.0, 7711.821223714498, -187500.02235174447, -187500.02235174447, -187500.02235174447, -187500.02235174447, -187500.02235174447, -187500.02235174447, -187500.02235174447, 0.256, -0.008, 0.972, 192.0, 0.0, 0.0, 0.0, 0.0, 0.0, 0.0, 0.0, 0.0, 0.0, 1.677527013929656E9, 0.0, 2023-02-27 14:43:33.929
113.0, 7176.139316098609, -187500.02235174447, -187500.02235174447, -187500.02235174447, -187500.02235174447, -187500.02235174447, -187500.02235174447, -187500.02235174447, 0.256, -0.008, 0.972, 192.0, 0.0, 0.0, 0.0, 0.0, 0.0, 0.0, 0.0, 0.0, 0.0, 1.677527013937323E9, 0.0, 2023-02-27 14:43:33.937
114.0, 6872.535571162173, -187500.02235174447, -187500.02235174447, -187500.02235174447, -187500.02235174447, -187500.02235174447, -187500.02235174447, -187500.02235174447, 0.256, -0.008, 0.972, 192.0, 0.0, 0.0, 0.0, 0.0, 0.0, 0.0, 0.0, 0.0, 0.0, 1.677527013937368E9, 0.0, 2023-02-27 14:43:33.937
115.0, 7275.626930669181, -187500.02235174447, -187500.02235174447, -187500.02235174447, -187500.02235174447, -187500.02235174447, -187500.02235174447, -187500.02235174447, 0.256, -0.008, 0.972, 192.0, 0.0, 0.0, 0.0, 0.0, 0.0, 0.0, 0.0, 0.0, 0.0, 1.677527013945324E9, 0.0, 2023-02-27 14:43:33.945
116.0, 7526.078227290896, -187500.02235174447, -187500.02235174447, -187500.02235174447, -187500.02235174447, -187500.02235174447, -187500.02235174447, -187500.02235174447, 0.254, -0.01, 0.964, 192.0, 7.0, 240.0, 255.0, 176.0, 30.0, 32.0, 0.0, 0.0, 0.0, 1.677527013945343E9, 0.0, 2023-02-27 14:43:33.945
117.0, 7409.625638678746, -187500.02235174447, -187500.02235174447, -187500.02235174447, -187500.02235174447, -187500.02235174447, -187500.02235174447, -187500.02235174447, 0.254, -0.01, 0.964, 192.0, 0.0, 0.0, 0.0, 0.0, 0.0, 0.0, 0.0, 0.0, 0.0, 1.677527013951873E9, 0.0, 2023-02-27 14:43:33.951
118.0, 7013.15039553051, -187500.02235174447, -187500.02235174447, -187500.02235174447, -187500.02235174447, -187500.02235174447, -187500.02235174447, -187500.02235174447, 0.254, -0.01, 0.964, 192.0, 0.0, 0.0, 0.0, 0.0, 0.0, 0.0, 0.0, 0.0, 0.0, 1.677527013951891E9, 0.0, 2023-02-27 14:43:33.951
119.0, 7195.741795985913, -187500.02235174447, -187500.02235174447, -187500.02235174447, -187500.02235174447, -187500.02235174447, -187500.02235174447, -187500.02235174447, 0.254, -0.01, 0.964, 192.0, 0.0, 0.0, 0.0, 0.0, 0.0, 0.0, 0.0, 0.0, 0.0, 1.677527013958937E9, 0.0, 2023-02-27 14:43:33.958
120.0, 7529.989782570575, -187500.02235174447, -187500.02235174447, -187500.02235174447, -187500.02235174447, -187500.02235174447, -187500.02235174447, -187500.02235174447, 0.254, -0.01, 0.964, 192.0, 0.0, 0.0, 0.0, 0.0, 0.0, 0.0, 0.0, 0.0, 0.0, 1.677527013967023E9, 0.0, 2023-02-27 14:43:33.967
121.0, 7501.848936301343, -187500.02235174447, -187500.02235174447, -187500.02235174447, -187500.02235174447, -187500.02235174447, -187500.02235174447, -187500.02235174447, 0.254, -0.01, 0.964, 192.0, 0.0, 0.0, 0.0, 0.0, 0.0, 0.0, 0.0, 0.0, 0.0, 1.677527013967043E9, 0.0, 2023-02-27 14:43:33.967
122.0, 7113.129748479098, -187500.02235174447, -187500.02235174447, -187500.02235174447, -187500.02235174447, -187500.02235174447, -187500.02235174447, -187500.02235174447, 0.254, -0.01, 0.964, 192.0, 0.0, 0.0, 0.0, 0.0, 0.0, 0.0, 0.0, 0.0, 0.0, 1.677527013974176E9, 0.0, 2023-02-27 14:43:33.974
123.0, 7280.7678318939015, -187500.02235174447, -187500.02235174447, -187500.02235174447, -187500.02235174447, -187500.02235174447, -187500.02235174447, -187500.02235174447, 0.254, -0.01, 0.964, 192.0, 0.0, 0.0, 0.0, 0.0, 0.0, 0.0, 0.0, 0.0, 0.0, 1.677527013974196E9, 0.0, 2023-02-27 14:43:33.974
124.0, 7719.398465084847, -187500.02235174447, -187500.02235174447, -187500.02235174447, -187500.02235174447, -187500.02235174447, -187500.02235174447, -187500.02235174447, 0.254, -0.01, 0.964, 192.0, 0.0, 0.0, 0.0, 0.0, 0.0, 0.0, 0.0, 0.0, 0.0, 1.677527013981515E9, 0.0, 2023-02-27 14:43:33.981
125.0, 7719.487872062668, -187500.02235174447, -187500.02235174447, -187500.02235174447, -187500.02235174447, -187500.02235174447, -187500.02235174447, -187500.02235174447, 0.26, -0.004, 0.976, 192.0, 8.0, 32.0, 255.0, 224.0, 30.0, 128.0, 0.0, 0.0, 0.0, 1.677527013981527E9, 0.0, 2023-02-27 14:43:33.981
126.0, 7127.166643997031, -187500.02235174447, -187500.02235174447, -187500.02235174447, -187500.02235174447, -187500.02235174447, -187500.02235174447, -187500.02235174447, 0.26, -0.004, 0.976, 192.0, 0.0, 0.0, 0.0, 0.0, 0.0, 0.0, 0.0, 0.0, 0.0, 1.677527013989615E9, 0.0, 2023-02-27 14:43:33.989
127.0, 7249.922424545578, -187500.02235174447, -187500.02235174447, -187500.02235174447, -187500.02235174447, -187500.02235174447, -187500.02235174447, -187500.02235174447, 0.26, -0.004, 0.976, 192.0, 0.0, 0.0, 0.0, 0.0, 0.0, 0.0, 0.0, 0.0, 0.0, 1.677527013989629E9, 0.0, 2023-02-27 14:43:33.989
128.0, 7369.504257381471, -187500.02235174447, -187500.02235174447, -187500.02235174447, -187500.02235174447, -187500.02235174447, -187500.02235174447, -187500.02235174447, 0.26, -0.004, 0.976, 192.0, 0.0, 0.0, 0.0, 0.0, 0.0, 0.0, 0.0, 0.0, 0.0, 1.677527013997668E9, 0.0, 2023-02-27 14:43:33.997
129.0, 7560.991652130086, -187500.02235174447, -187500.02235174447, -187500.02235174447, -187500.02235174447, -187500.02235174447, -187500.02235174447, -187500.02235174447, 0.26, -0.004, 0.976, 192.0, 0.0, 0.0, 0.0, 0.0, 0.0, 0.0, 0.0, 0.0, 0.0, 1.677527013997727E9, 0.0, 2023-02-27 14:43:33.997
130.0, 7298.984503624976, -187500.02235174447, -187500.02235174447, -187500.02235174447, -187500.02235174447, -187500.02235174447, -187500.02235174447, -187500.02235174447, 0.26, -0.004, 0.976, 192.0, 0.0, 0.0, 0.0, 0.0, 0.0, 0.0, 0.0, 0.0, 0.0, 1.677527014004232E9, 0.0, 2023-02-27 14:43:34.004
131.0, 7229.537633602337, -187500.02235174447, -187500.02235174447, -187500.02235174447, -187500.02235174447, -187500.02235174447, -187500.02235174447, -187500.02235174447, 0.26, -0.004, 0.976, 192.0, 0.0, 0.0, 0.0, 0.0, 0.0, 0.0, 0.0, 0.0, 0.0, 1.677527014004276E9, 0.0, 2023-02-27 14:43:34.004
132.0, 7467.248435884529, -187500.02235174447, -187500.02235174447, -187500.02235174447, -187500.02235174447, -187500.02235174447, -187500.02235174447, -187500.02235174447, 0.26, -0.004, 0.976, 192.0, 0.0, 0.0, 0.0, 0.0, 0.0, 0.0, 0.0, 0.0, 0.0, 1.677527014012204E9, 0.0, 2023-02-27 14:43:34.012
133.0, 7687.346063535937, -187500.02235174447, -187500.02235174447, -187500.02235174447, -187500.02235174447, -187500.02235174447, -187500.02235174447, -187500.02235174447, 0.26, -0.004, 0.976, 192.0, 0.0, 0.0, 0.0, 0.0, 0.0, 0.0, 0.0, 0.0, 0.0, 1.677527014012235E9, 0.0, 2023-02-27 14:43:34.012
134.0, 7300.392663525661, -187500.02235174447, -187500.02235174447, -187500.02235174447, -187500.02235174447, -187500.02235174447, -187500.02235174447, -187500.02235174447, 0.26, -0.004, 0.976, 192.0, 0.0, 0.0, 0.0, 0.0, 0.0, 0.0, 0.0, 0.0, 0.0, 1.677527014019267E9, 0.0, 2023-02-27 14:43:34.019
135.0, 7044.889872657046, -187500.02235174447, -187500.02235174447, -187500.02235174447, -187500.02235174447, -187500.02235174447, -187500.02235174447, -187500.02235174447, 0.264, -0.002, 0.976, 192.0, 8.0, 64.0, 255.0, 240.0, 30.0, 128.0, 0.0, 0.0, 0.0, 1.67752701401929E9, 0.0, 2023-02-27 14:43:34.019
136.0, 7377.372071429739, -187500.02235174447, -187500.02235174447, -187500.02235174447, -187500.02235174447, -187500.02235174447, -187500.02235174447, -187500.02235174447, 0.264, -0.002, 0.976, 192.0, 0.0, 0.0, 0.0, 0.0, 0.0, 0.0, 0.0, 0.0, 0.0, 1.677527014027296E9, 0.0, 2023-02-27 14:43:34.027
137.0, 7818.327286044037, -187500.02235174447, -187500.02235174447, -187500.02235174447, -187500.02235174447, -187500.02235174447, -187500.02235174447, -187500.02235174447, 0.264, -0.002, 0.976, 192.0, 0.0, 0.0, 0.0, 0.0, 0.0, 0.0, 0.0, 0.0, 0.0, 1.67752701403427E9, 0.0, 2023-02-27 14:43:34.034
138.0, 7425.271859797462, -187500.02235174447, -187500.02235174447, -187500.02235174447, -187500.02235174447, -187500.02235174447, -187500.02235174447, -187500.02235174447, 0.264, -0.002, 0.976, 192.0, 0.0, 0.0, 0.0, 0.0, 0.0, 0.0, 0.0, 0.0, 0.0, 1.677527014034283E9, 0.0, 2023-02-27 14:43:34.034
139.0, 7075.779983494281, -187500.02235174447, -187500.02235174447, -187500.02235174447, -187500.02235174447, -187500.02235174447, -187500.02235174447, -187500.02235174447, 0.264, -0.002, 0.976, 192.0, 0.0, 0.0, 0.0, 0.0, 0.0, 0.0, 0.0, 0.0, 0.0, 1.677527014041794E9, 0.0, 2023-02-27 14:43:34.041
140.0, 7307.701683962547, -187500.02235174447, -187500.02235174447, -187500.02235174447, -187500.02235174447, -187500.02235174447, -187500.02235174447, -187500.02235174447, 0.264, -0.002, 0.976, 192.0, 0.0, 0.0, 0.0, 0.0, 0.0, 0.0, 0.0, 0.0, 0.0, 1.677527014041808E9, 0.0, 2023-02-27 14:43:34.041
141.0, 7736.497549593157, -187500.02235174447, -187500.02235174447, -187500.02235174447, -187500.02235174447, -187500.02235174447, -187500.02235174447, -187500.02235174447, 0.264, -0.002, 0.976, 192.0, 0.0, 0.0, 0.0, 0.0, 0.0, 0.0, 0.0, 0.0, 0.0, 1.677527014049854E9, 0.0, 2023-02-27 14:43:34.049
142.0, 7594.966303702153, -187500.02235174447, -187500.02235174447, -187500.02235174447, -187500.02235174447, -187500.02235174447, -187500.02235174447, -187500.02235174447, 0.264, -0.002, 0.976, 192.0, 0.0, 0.0, 0.0, 0.0, 0.0, 0.0, 0.0, 0.0, 0.0, 1.677527014049872E9, 0.0, 2023-02-27 14:43:34.049
143.0, 7171.5348567408155, -187500.02235174447, -187500.02235174447, -187500.02235174447, -187500.02235174447, -187500.02235174447, -187500.02235174447, -187500.02235174447, 0.264, -0.002, 0.976, 192.0, 0.0, 0.0, 0.0, 0.0, 0.0, 0.0, 0.0, 0.0, 0.0, 1.677527014057045E9, 0.0, 2023-02-27 14:43:34.057
144.0, 7255.510360659405, -187500.02235174447, -187500.02235174447, -187500.02235174447, -187500.02235174447, -187500.02235174447, -187500.02235174447, -187500.02235174447, 0.264, -0.002, 0.976, 192.0, 0.0, 0.0, 0.0, 0.0, 0.0, 0.0, 0.0, 0.0, 0.0, 1.677527014057102E9, 0.0, 2023-02-27 14:43:34.057
145.0, 7688.977740881174, -187500.02235174447, -187500.02235174447, -187500.02235174447, -187500.02235174447, -187500.02235174447, -187500.02235174447, -187500.02235174447, 0.266, -0.004, 0.976, 192.0, 8.0, 80.0, 255.0, 224.0, 30.0, 128.0, 0.0, 0.0, 0.0, 1.677527014064774E9, 0.0, 2023-02-27 14:43:34.064
146.0, 7821.456530267779, -187500.02235174447, -187500.02235174447, -187500.02235174447, -187500.02235174447, -187500.02235174447, -187500.02235174447, -187500.02235174447, 0.266, -0.004, 0.976, 192.0, 0.0, 0.0, 0.0, 0.0, 0.0, 0.0, 0.0, 0.0, 0.0, 1.677527014064789E9, 0.0, 2023-02-27 14:43:34.064
147.0, 7429.451636010604, -187500.02235174447, -187500.02235174447, -187500.02235174447, -187500.02235174447, -187500.02235174447, -187500.02235174447, -187500.02235174447, 0.266, -0.004, 0.976, 192.0, 0.0, 0.0, 0.0, 0.0, 0.0, 0.0, 0.0, 0.0, 0.0, 1.677527014072641E9, 0.0, 2023-02-27 14:43:34.072
148.0, 7600.733053771622, -187500.02235174447, -187500.02235174447, -187500.02235174447, -187500.02235174447, -187500.02235174447, -187500.02235174447, -187500.02235174447, 0.266, -0.004, 0.976, 192.0, 0.0, 0.0, 0.0, 0.0, 0.0, 0.0, 0.0, 0.0, 0.0, 1.677527014072662E9, 0.0, 2023-02-27 14:43:34.072
149.0, 7644.27425197056, -187500.02235174447, -187500.02235174447, -187500.02235174447, -187500.02235174447, -187500.02235174447, -187500.02235174447, -187500.02235174447, 0.266, -0.004, 0.976, 192.0, 0.0, 0.0, 0.0, 0.0, 0.0, 0.0, 0.0, 0.0, 0.0, 1.677527014080411E9, 0.0, 2023-02-27 14:43:34.080
150.0, 7507.705093348634, -187500.02235174447, -187500.02235174447, -187500.02235174447, -187500.02235174447, -187500.02235174447, -187500.02235174447, -187500.02235174447, 0.266, -0.004, 0.976, 192.0, 0.0, 0.0, 0.0, 0.0, 0.0, 0.0, 0.0, 0.0, 0.0, 1.67752701408043E9, 0.0, 2023-02-27 14:43:34.080
151.0, 7240.311174429796, -187500.02235174447, -187500.02235174447, -187500.02235174447, -187500.02235174447, -187500.02235174447, -187500.02235174447, -187500.02235174447, 0.266, -0.004, 0.976, 192.0, 0.0, 0.0, 0.0, 0.0, 0.0, 0.0, 0.0, 0.0, 0.0, 1.677527014086539E9, 0.0, 2023-02-27 14:43:34.086
152.0, 7089.92863773449, -187500.02235174447, -187500.02235174447, -187500.02235174447, -187500.02235174447, -187500.02235174447, -187500.02235174447, -187500.02235174447, 0.266, -0.004, 0.976, 192.0, 0.0, 0.0, 0.0, 0.0, 0.0, 0.0, 0.0, 0.0, 0.0, 1.677527014094139E9, 0.0, 2023-02-27 14:43:34.094
153.0, 7432.826749423355, -187500.02235174447, -187500.02235174447, -187500.02235174447, -187500.02235174447, -187500.02235174447, -187500.02235174447, -187500.02235174447, 0.266, -0.004, 0.976, 192.0, 0.0, 0.0, 0.0, 0.0, 0.0, 0.0, 0.0, 0.0, 0.0, 1.677527014094161E9, 0.0, 2023-02-27 14:43:34.094
154.0, 8113.102091920626, -187500.02235174447, -187500.02235174447, -187500.02235174447, -187500.02235174447, -187500.02235174447, -187500.02235174447, -187500.02235174447, 0.266, -0.004, 0.976, 192.0, 0.0, 0.0, 0.0, 0.0, 0.0, 0.0, 0.0, 0.0, 0.0, 1.677527014102219E9, 0.0, 2023-02-27 14:43:34.102
155.0, 7675.432583741258, -187500.02235174447, -187500.02235174447, -187500.02235174447, -187500.02235174447, -187500.02235174447, -187500.02235174447, -187500.02235174447, 0.258, -0.004, 0.974, 192.0, 8.0, 16.0, 255.0, 224.0, 30.0, 112.0, 0.0, 0.0, 0.0, 1.677527014102242E9, 0.0, 2023-02-27 14:43:34.102
156.0, 7182.621321990648, -187500.02235174447, -187500.02235174447, -187500.02235174447, -187500.02235174447, -187500.02235174447, -187500.02235174447, -187500.02235174447, 0.258, -0.004, 0.974, 192.0, 0.0, 0.0, 0.0, 0.0, 0.0, 0.0, 0.0, 0.0, 0.0, 1.677527014110249E9, 0.0, 2023-02-27 14:43:34.110
157.0, 7374.086364994809, -187500.02235174447, -187500.02235174447, -187500.02235174447, -187500.02235174447, -187500.02235174447, -187500.02235174447, -187500.02235174447, 0.258, -0.004, 0.974, 192.0, 0.0, 0.0, 0.0, 0.0, 0.0, 0.0, 0.0, 0.0, 0.0, 1.677527014110263E9, 0.0, 2023-02-27 14:43:34.110
158.0, 7699.1701363527945, -187500.02235174447, -187500.02235174447, -187500.02235174447, -187500.02235174447, -187500.02235174447, -187500.02235174447, -187500.02235174447, 0.258, -0.004, 0.974, 192.0, 0.0, 0.0, 0.0, 0.0, 0.0, 0.0, 0.0, 0.0, 0.0, 1.677527014116749E9, 0.0, 2023-02-27 14:43:34.116
159.0, 7517.830433586888, -187500.02235174447, -187500.02235174447, -187500.02235174447, -187500.02235174447, -187500.02235174447, -187500.02235174447, -187500.02235174447, 0.258, -0.004, 0.974, 192.0, 0.0, 0.0, 0.0, 0.0, 0.0, 0.0, 0.0, 0.0, 0.0, 1.677527014116766E9, 0.0, 2023-02-27 14:43:34.116
160.0, 7385.284588966917, -187500.02235174447, -187500.02235174447, -187500.02235174447, -187500.02235174447, -187500.02235174447, -187500.02235174447, -187500.02235174447, 0.258, -0.004, 0.974, 192.0, 0.0, 0.0, 0.0, 0.0, 0.0, 0.0, 0.0, 0.0, 0.0, 1.677527014124749E9, 0.0, 2023-02-27 14:43:34.124
161.0, 7787.057195551061, -187500.02235174447, -187500.02235174447, -187500.02235174447, -187500.02235174447, -187500.02235174447, -187500.02235174447, -187500.02235174447, 0.258, -0.004, 0.974, 192.0, 0.0, 0.0, 0.0, 0.0, 0.0, 0.0, 0.0, 0.0, 0.0, 1.677527014124769E9, 0.0, 2023-02-27 14:43:34.124
162.0, 7680.707595432711, -187500.02235174447, -187500.02235174447, -187500.02235174447, -187500.02235174447, -187500.02235174447, -187500.02235174447, -187500.02235174447, 0.258, -0.004, 0.974, 192.0, 0.0, 0.0, 0.0, 0.0, 0.0, 0.0, 0.0, 0.0, 0.0, 1.677527014132823E9, 0.0, 2023-02-27 14:43:34.132
163.0, 7548.519378724025, -187500.02235174447, -187500.02235174447, -187500.02235174447, -187500.02235174447, -187500.02235174447, -187500.02235174447, -187500.02235174447, 0.258, -0.004, 0.974, 192.0, 0.0, 0.0, 0.0, 0.0, 0.0, 0.0, 0.0, 0.0, 0.0, 1.67752701413284E9, 0.0, 2023-02-27 14:43:34.132
164.0, 7236.779598805857, -187500.02235174447, -187500.02235174447, -187500.02235174447, -187500.02235174447, -187500.02235174447, -187500.02235174447, -187500.02235174447, 0.258, -0.004, 0.974, 192.0, 0.0, 0.0, 0.0, 0.0, 0.0, 0.0, 0.0, 0.0, 0.0, 1.677527014139751E9, 0.0, 2023-02-27 14:43:34.139
165.0, 7681.445202999736, -187500.02235174447, -187500.02235174447, -187500.02235174447, -187500.02235174447, -187500.02235174447, -187500.02235174447, -187500.02235174447, 0.26, -0.006, 0.974, 192.0, 8.0, 32.0, 255.0, 208.0, 30.0, 112.0, 0.0, 0.0, 0.0, 1.677527014139777E9, 0.0, 2023-02-27 14:43:34.139
166.0, 7919.401874470935, -187500.02235174447, -187500.02235174447, -187500.02235174447, -187500.02235174447, -187500.02235174447, -187500.02235174447, -187500.02235174447, 0.26, -0.006, 0.974, 192.0, 0.0, 0.0, 0.0, 0.0, 0.0, 0.0, 0.0, 0.0, 0.0, 1.677527014146455E9, 0.0, 2023-02-27 14:43:34.146
167.0, 7668.794115638032, -187500.02235174447, -187500.02235174447, -187500.02235174447, -187500.02235174447, -187500.02235174447, -187500.02235174447, -187500.02235174447, 0.26, -0.006, 0.974, 192.0, 0.0, 0.0, 0.0, 0.0, 0.0, 0.0, 0.0, 0.0, 0.0, 1.677527014154389E9, 0.0, 2023-02-27 14:43:34.154
168.0, 7295.430576256583, -187500.02235174447, -187500.02235174447, -187500.02235174447, -187500.02235174447, -187500.02235174447, -187500.02235174447, -187500.02235174447, 0.26, -0.006, 0.974, 192.0, 0.0, 0.0, 0.0, 0.0, 0.0, 0.0, 0.0, 0.0, 0.0, 1.677527014154406E9, 0.0, 2023-02-27 14:43:34.154
169.0, 7366.55382711337, -187500.02235174447, -187500.02235174447, -187500.02235174447, -187500.02235174447, -187500.02235174447, -187500.02235174447, -187500.02235174447, 0.26, -0.006, 0.974, 192.0, 0.0, 0.0, 0.0, 0.0, 0.0, 0.0, 0.0, 0.0, 0.0, 1.677527014162253E9, 0.0, 2023-02-27 14:43:34.162
170.0, 7849.619728281466, -187500.02235174447, -187500.02235174447, -187500.02235174447, -187500.02235174447, -187500.02235174447, -187500.02235174447, -187500.02235174447, 0.26, -0.006, 0.974, 192.0, 0.0, 0.0, 0.0, 0.0, 0.0, 0.0, 0.0, 0.0, 0.0, 1.677527014162269E9, 0.0, 2023-02-27 14:43:34.162
171.0, 7883.437917642345, -187500.02235174447, -187500.02235174447, -187500.02235174447, -187500.02235174447, -187500.02235174447, -187500.02235174447, -187500.02235174447, 0.26, -0.006, 0.974, 192.0, 0.0, 0.0, 0.0, 0.0, 0.0, 0.0, 0.0, 0.0, 0.0, 1.677527014168937E9, 0.0, 2023-02-27 14:43:34.168
172.0, 7558.979995129108, -187500.02235174447, -187500.02235174447, -187500.02235174447, -187500.02235174447, -187500.02235174447, -187500.02235174447, -187500.02235174447, 0.26, -0.006, 0.974, 192.0, 0.0, 0.0, 0.0, 0.0, 0.0, 0.0, 0.0, 0.0, 0.0, 1.677527014168953E9, 0.0, 2023-02-27 14:43:34.168
173.0, 7449.724668231567, -187500.02235174447, -187500.02235174447, -187500.02235174447, -187500.02235174447, -187500.02235174447, -187500.02235174447, -187500.02235174447, 0.26, -0.006, 0.974, 192.0, 0.0, 0.0, 0.0, 0.0, 0.0, 0.0, 0.0, 0.0, 0.0, 1.677527014176967E9, 0.0, 2023-02-27 14:43:34.176
174.0, 7868.4622488572895, -187500.02235174447, -187500.02235174447, -187500.02235174447, -187500.02235174447, -187500.02235174447, -187500.02235174447, -187500.02235174447, 0.26, -0.006, 0.974, 192.0, 0.0, 0.0, 0.0, 0.0, 0.0, 0.0, 0.0, 0.0, 0.0, 1.67752701417698E9, 0.0, 2023-02-27 14:43:34.176
175.0, 8095.93595217895, -187500.02235174447, -187500.02235174447, -187500.02235174447, -187500.02235174447, -187500.02235174447, -187500.02235174447, -187500.02235174447, 0.26, -0.012, 0.974, 192.0, 8.0, 32.0, 255.0, 160.0, 30.0, 112.0, 0.0, 0.0, 0.0, 1.677527014184976E9, 0.0, 2023-02-27 14:43:34.184
176.0, 7684.172115823283, -187500.02235174447, -187500.02235174447, -187500.02235174447, -187500.02235174447, -187500.02235174447, -187500.02235174447, -187500.02235174447, 0.26, -0.012, 0.974, 192.0, 0.0, 0.0, 0.0, 0.0, 0.0, 0.0, 0.0, 0.0, 0.0, 1.677527014185011E9, 0.0, 2023-02-27 14:43:34.185
177.0, 7266.842695098245, -187500.02235174447, -187500.02235174447, -187500.02235174447, -187500.02235174447, -187500.02235174447, -187500.02235174447, -187500.02235174447, 0.26, -0.012, 0.974, 192.0, 0.0, 0.0, 0.0, 0.0, 0.0, 0.0, 0.0, 0.0, 0.0, 1.67752701419207E9, 0.0, 2023-02-27 14:43:34.192
178.0, 7976.801154232163, -187500.02235174447, -187500.02235174447, -187500.02235174447, -187500.02235174447, -187500.02235174447, -187500.02235174447, -187500.02235174447, 0.26, -0.012, 0.974, 192.0, 0.0, 0.0, 0.0, 0.0, 0.0, 0.0, 0.0, 0.0, 0.0, 1.677527014192085E9, 0.0, 2023-02-27 14:43:34.192
179.0, 8197.345816772679, -187500.02235174447, -187500.02235174447, -187500.02235174447, -187500.02235174447, -187500.02235174447, -187500.02235174447, -187500.02235174447, 0.26, -0.012, 0.974, 192.0, 0.0, 0.0, 0.0, 0.0, 0.0, 0.0, 0.0, 0.0, 0.0, 1.677527014199575E9, 0.0, 2023-02-27 14:43:34.199
180.0, 7748.254567176648, -187500.02235174447, -187500.02235174447, -187500.02235174447, -187500.02235174447, -187500.02235174447, -187500.02235174447, -187500.02235174447, 0.26, -0.012, 0.974, 192.0, 0.0, 0.0, 0.0, 0.0, 0.0, 0.0, 0.0, 0.0, 0.0, 1.677527014199591E9, 0.0, 2023-02-27 14:43:34.199
181.0, 7491.05304372943, -187500.02235174447, -187500.02235174447, -187500.02235174447, -187500.02235174447, -187500.02235174447, -187500.02235174447, -187500.02235174447, 0.26, -0.012, 0.974, 192.0, 0.0, 0.0, 0.0, 0.0, 0.0, 0.0, 0.0, 0.0, 0.0, 1.677527014206718E9, 0.0, 2023-02-27 14:43:34.206
182.0, 7857.88987372993, -187500.02235174447, -187500.02235174447, -187500.02235174447, -187500.02235174447, -187500.02235174447, -187500.02235174447, -187500.02235174447, 0.26, -0.012, 0.974, 192.0, 0.0, 0.0, 0.0, 0.0, 0.0, 0.0, 0.0, 0.0, 0.0, 1.677527014214633E9, 0.0, 2023-02-27 14:43:34.214
183.0, 8296.274637731867, -187500.02235174447, -187500.02235174447, -187500.02235174447, -187500.02235174447, -187500.02235174447, -187500.02235174447, -187500.02235174447, 0.26, -0.012, 0.974, 192.0, 0.0, 0.0, 0.0, 0.0, 0.0, 0.0, 0.0, 0.0, 0.0, 1.677527014214649E9, 0.0, 2023-02-27 14:43:34.214
184.0, 7861.220283653771, -187500.02235174447, -187500.02235174447, -187500.02235174447, -187500.02235174447, -187500.02235174447, -187500.02235174447, -187500.02235174447, 0.254, -0.016, 0.976, 192.0, 7.0, 240.0, 255.0, 128.0, 30.0, 128.0, 0.0, 0.0, 0.0, 1.677527014221821E9, 0.0, 2023-02-27 14:43:34.221
185.0, 7344.291489635884, -187500.02235174447, -187500.02235174447, -187500.02235174447, -187500.02235174447, -187500.02235174447, -187500.02235174447, -187500.02235174447, 0.254, -0.016, 0.976, 192.0, 0.0, 0.0, 0.0, 0.0, 0.0, 0.0, 0.0, 0.0, 0.0, 1.67752701422184E9, 0.0, 2023-02-27 14:43:34.221
186.0, 7735.447017603758, -187500.02235174447, -187500.02235174447, -187500.02235174447, -187500.02235174447, -187500.02235174447, -187500.02235174447, -187500.02235174447, 0.254, -0.016, 0.976, 192.0, 0.0, 0.0, 0.0, 0.0, 0.0, 0.0, 0.0, 0.0, 0.0, 1.677527014229143E9, 0.0, 2023-02-27 14:43:34.229
187.0, 8146.070914992204, -187500.02235174447, -187500.02235174447, -187500.02235174447, -187500.02235174447, -187500.02235174447, -187500.02235174447, -187500.02235174447, 0.254, -0.016, 0.976, 192.0, 0.0, 0.0, 0.0, 0.0, 0.0, 0.0, 0.0, 0.0, 0.0, 1.677527014229162E9, 0.0, 2023-02-27 14:43:34.229
188.0, 7925.5709559406, -187500.02235174447, -187500.02235174447, -187500.02235174447, -187500.02235174447, -187500.02235174447, -187500.02235174447, -187500.02235174447, 0.254, -0.016, 0.976, 192.0, 0.0, 0.0, 0.0, 0.0, 0.0, 0.0, 0.0, 0.0, 0.0, 1.677527014237254E9, 0.0, 2023-02-27 14:43:34.237
189.0, 7473.015185953997, -187500.02235174447, -187500.02235174447, -187500.02235174447, -187500.02235174447, -187500.02235174447, -187500.02235174447, -187500.02235174447, 0.254, -0.016, 0.976, 192.0, 0.0, 0.0, 0.0, 0.0, 0.0, 0.0, 0.0, 0.0, 0.0, 1.677527014237272E9, 0.0, 2023-02-27 14:43:34.237
190.0, 7604.734016029122, -187500.02235174447, -187500.02235174447, -187500.02235174447, -187500.02235174447, -187500.02235174447, -187500.02235174447, -187500.02235174447, 0.254, -0.016, 0.976, 192.0, 0.0, 0.0, 0.0, 0.0, 0.0, 0.0, 0.0, 0.0, 0.0, 1.677527014245184E9, 0.0, 2023-02-27 14:43:34.245
191.0, 8025.907936800473, -187500.02235174447, -187500.02235174447, -187500.02235174447, -187500.02235174447, -187500.02235174447, -187500.02235174447, -187500.02235174447, 0.254, -0.016, 0.976, 192.0, 0.0, 0.0, 0.0, 0.0, 0.0, 0.0, 0.0, 0.0, 0.0, 1.677527014245199E9, 0.0, 2023-02-27 14:43:34.245
192.0, 7983.551381057666, -187500.02235174447, -187500.02235174447, -187500.02235174447, -187500.02235174447, -187500.02235174447, -187500.02235174447, -187500.02235174447, 0.254, -0.016, 0.976, 192.0, 0.0, 0.0, 0.0, 0.0, 0.0, 0.0, 0.0, 0.0, 0.0, 1.677527014251817E9, 0.0, 2023-02-27 14:43:34.251
193.0, 7595.435690335714, -187500.02235174447, -187500.02235174447, -187500.02235174447, -187500.02235174447, -187500.02235174447, -187500.02235174447, -187500.02235174447, 0.254, -0.016, 0.976, 192.0, 0.0, 0.0, 0.0, 0.0, 0.0, 0.0, 0.0, 0.0, 0.0, 1.677527014251832E9, 0.0, 2023-02-27 14:43:34.251
194.0, 7842.4001148224015, -187500.02235174447, -187500.02235174447, -187500.02235174447, -187500.02235174447, -187500.02235174447, -187500.02235174447, -187500.02235174447, 0.252, -0.016, 0.974, 192.0, 7.0, 224.0, 255.0, 128.0, 30.0, 112.0, 0.0, 0.0, 0.0, 1.677527014259837E9, 0.0, 2023-02-27 14:43:34.259
195.0, 8085.140059607037, -187500.02235174447, -187500.02235174447, -187500.02235174447, -187500.02235174447, -187500.02235174447, -187500.02235174447, -187500.02235174447, 0.252, -0.016, 0.974, 192.0, 0.0, 0.0, 0.0, 0.0, 0.0, 0.0, 0.0, 0.0, 0.0, 1.677527014259851E9, 0.0, 2023-02-27 14:43:34.259
196.0, 8009.546459859188, -187500.02235174447, -187500.02235174447, -187500.02235174447, -187500.02235174447, -187500.02235174447, -187500.02235174447, -187500.02235174447, 0.252, -0.016, 0.974, 192.0, 0.0, 0.0, 0.0, 0.0, 0.0, 0.0, 0.0, 0.0, 0.0, 1.677527014266783E9, 0.0, 2023-02-27 14:43:34.266
197.0, 7674.918493618786, -187500.02235174447, -187500.02235174447, -187500.02235174447, -187500.02235174447, -187500.02235174447, -187500.02235174447, -187500.02235174447, 0.252, -0.016, 0.974, 192.0, 0.0, 0.0, 0.0, 0.0, 0.0, 0.0, 0.0, 0.0, 0.0, 1.677527014266804E9, 0.0, 2023-02-27 14:43:34.266
198.0, 7583.164582629751, -187500.02235174447, -187500.02235174447, -187500.02235174447, -187500.02235174447, -187500.02235174447, -187500.02235174447, -187500.02235174447, 0.252, -0.016, 0.974, 192.0, 0.0, 0.0, 0.0, 0.0, 0.0, 0.0, 0.0, 0.0, 0.0, 1.677527014275021E9, 0.0, 2023-02-27 14:43:34.275
199.0, 7963.524218025711, -187500.02235174447, -187500.02235174447, -187500.02235174447, -187500.02235174447, -187500.02235174447, -187500.02235174447, -187500.02235174447, 0.252, -0.016, 0.974, 192.0, 0.0, 0.0, 0.0, 0.0, 0.0, 0.0, 0.0, 0.0, 0.0, 1.677527014281506E9, 0.0, 2023-02-27 14:43:34.281
200.0, 8151.703554594941, -187500.02235174447, -187500.02235174447, -187500.02235174447, -187500.02235174447, -187500.02235174447, -187500.02235174447, -187500.02235174447, 0.252, -0.016, 0.974, 192.0, 0.0, 0.0, 0.0, 0.0, 0.0, 0.0, 0.0, 0.0, 0.0, 1.677527014281517E9, 0.0, 2023-02-27 14:43:34.281
201.0, 7813.700474941787, -187500.02235174447, -187500.02235174447, -187500.02235174447, -187500.02235174447, -187500.02235174447, -187500.02235174447, -187500.02235174447, 0.252, -0.016, 0.974, 192.0, 0.0, 0.0, 0.0, 0.0, 0.0, 0.0, 0.0, 0.0, 0.0, 1.677527014289535E9, 0.0, 2023-02-27 14:43:34.289
202.0, 7908.628333643477, -187500.02235174447, -187500.02235174447, -187500.02235174447, -187500.02235174447, -187500.02235174447, -187500.02235174447, -187500.02235174447, 0.252, -0.016, 0.974, 192.0, 0.0, 0.0, 0.0, 0.0, 0.0, 0.0, 0.0, 0.0, 0.0, 1.677527014289549E9, 0.0, 2023-02-27 14:43:34.289
203.0, 8048.997288822805, -187500.02235174447, -187500.02235174447, -187500.02235174447, -187500.02235174447, -187500.02235174447, -187500.02235174447, -187500.02235174447, 0.252, -0.016, 0.974, 192.0, 0.0, 0.0, 0.0, 0.0, 0.0, 0.0, 0.0, 0.0, 0.0, 1.677527014297481E9, 0.0, 2023-02-27 14:43:34.297
204.0, 8192.09315682568, -187500.02235174447, -187500.02235174447, -187500.02235174447, -187500.02235174447, -187500.02235174447, -187500.02235174447, -187500.02235174447, 0.254, -0.012, 0.978, 192.0, 7.0, 240.0, 255.0, 160.0, 30.0, 144.0, 0.0, 0.0, 0.0, 1.677527014297498E9, 0.0, 2023-02-27 14:43:34.297
205.0, 7807.911373127863, -187500.02235174447, -187500.02235174447, -187500.02235174447, -187500.02235174447, -187500.02235174447, -187500.02235174447, -187500.02235174447, 0.254, -0.012, 0.978, 192.0, 0.0, 0.0, 0.0, 0.0, 0.0, 0.0, 0.0, 0.0, 0.0, 1.677527014304106E9, 0.0, 2023-02-27 14:43:34.304
206.0, 7541.21035828714, -187500.02235174447, -187500.02235174447, -187500.02235174447, -187500.02235174447, -187500.02235174447, -187500.02235174447, -187500.02235174447, 0.254, -0.012, 0.978, 192.0, 0.0, 0.0, 0.0, 0.0, 0.0, 0.0, 0.0, 0.0, 0.0, 1.677527014304119E9, 0.0, 2023-02-27 14:43:34.304
207.0, 7945.173435827904, -187500.02235174447, -187500.02235174447, -187500.02235174447, -187500.02235174447, -187500.02235174447, -187500.02235174447, -187500.02235174447, 0.254, -0.012, 0.978, 192.0, 0.0, 0.0, 0.0, 0.0, 0.0, 0.0, 0.0, 0.0, 0.0, 1.67752701431213E9, 0.0, 2023-02-27 14:43:34.312
208.0, 8280.561361379787, -187500.02235174447, -187500.02235174447, -187500.02235174447, -187500.02235174447, -187500.02235174447, -187500.02235174447, -187500.02235174447, 0.254, -0.012, 0.978, 192.0, 0.0, 0.0, 0.0, 0.0, 0.0, 0.0, 0.0, 0.0, 0.0, 1.677527014312157E9, 0.0, 2023-02-27 14:43:34.312
209.0, 8064.799972152708, -187500.02235174447, -187500.02235174447, -187500.02235174447, -187500.02235174447, -187500.02235174447, -187500.02235174447, -187500.02235174447, 0.254, -0.012, 0.978, 192.0, 0.0, 0.0, 0.0, 0.0, 0.0, 0.0, 0.0, 0.0, 0.0, 1.6775270143202E9, 0.0, 2023-02-27 14:43:34.320
210.0, 7634.41713266577, -187500.02235174447, -187500.02235174447, -187500.02235174447, -187500.02235174447, -187500.02235174447, -187500.02235174447, -187500.02235174447, 0.254, -0.012, 0.978, 192.0, 0.0, 0.0, 0.0, 0.0, 0.0, 0.0, 0.0, 0.0, 0.0, 1.677527014320221E9, 0.0, 2023-02-27 14:43:34.320
211.0, 7864.662452299888, -187500.02235174447, -187500.02235174447, -187500.02235174447, -187500.02235174447, -187500.02235174447, -187500.02235174447, -187500.02235174447, 0.254, -0.012, 0.978, 192.0, 0.0, 0.0, 0.0, 0.0, 0.0, 0.0, 0.0, 0.0, 0.0, 1.677527014327318E9, 0.0, 2023-02-27 14:43:34.327
212.0, 8168.042679791771, -187500.02235174447, -187500.02235174447, -187500.02235174447, -187500.02235174447, -187500.02235174447, -187500.02235174447, -187500.02235174447, 0.254, -0.012, 0.978, 192.0, 0.0, 0.0, 0.0, 0.0, 0.0, 0.0, 0.0, 0.0, 0.0, 1.677527014327334E9, 0.0, 2023-02-27 14:43:34.327
213.0, 8072.824248412163, -187500.02235174447, -187500.02235174447, -187500.02235174447, -187500.02235174447, -187500.02235174447, -187500.02235174447, -187500.02235174447, 0.254, -0.012, 0.978, 192.0, 0.0, 0.0, 0.0, 0.0, 0.0, 0.0, 0.0, 0.0, 0.0, 1.677527014333776E9, 0.0, 2023-02-27 14:43:34.333
214.0, 7715.732778994176, -187500.02235174447, -187500.02235174447, -187500.02235174447, -187500.02235174447, -187500.02235174447, -187500.02235174447, -187500.02235174447, 0.258, -0.008, 0.974, 192.0, 8.0, 16.0, 255.0, 192.0, 30.0, 112.0, 0.0, 0.0, 0.0, 1.677527014341817E9, 0.0, 2023-02-27 14:43:34.341
215.0, 7739.827959516998, -187500.02235174447, -187500.02235174447, -187500.02235174447, -187500.02235174447, -187500.02235174447, -187500.02235174447, -187500.02235174447, 0.258, -0.008, 0.974, 192.0, 0.0, 0.0, 0.0, 0.0, 0.0, 0.0, 0.0, 0.0, 0.0, 1.677527014341831E9, 0.0, 2023-02-27 14:43:34.341
216.0, 8284.003530025904, -187500.02235174447, -187500.02235174447, -187500.02235174447, -187500.02235174447, -187500.02235174447, -187500.02235174447, -187500.02235174447, 0.258, -0.008, 0.974, 192.0, 0.0, 0.0, 0.0, 0.0, 0.0, 0.0, 0.0, 0.0, 0.0, 1.677527014349912E9, 0.0, 2023-02-27 14:43:34.349
217.0, 8191.936694614494, -187500.02235174447, -187500.02235174447, -187500.02235174447, -187500.02235174447, -187500.02235174447, -187500.02235174447, -187500.02235174447, 0.258, -0.008, 0.974, 192.0, 0.0, 0.0, 0.0, 0.0, 0.0, 0.0, 0.0, 0.0, 0.0, 1.677527014349931E9, 0.0, 2023-02-27 14:43:34.349
218.0, 7730.373171612403, -187500.02235174447, -187500.02235174447, -187500.02235174447, -187500.02235174447, -187500.02235174447, -187500.02235174447, -187500.02235174447, 0.258, -0.008, 0.974, 192.0, 0.0, 0.0, 0.0, 0.0, 0.0, 0.0, 0.0, 0.0, 0.0, 1.677527014357292E9, 0.0, 2023-02-27 14:43:34.357
219.0, 7756.032974247096, -187500.02235174447, -187500.02235174447, -187500.02235174447, -187500.02235174447, -187500.02235174447, -187500.02235174447, -187500.02235174447, 0.258, -0.008, 0.974, 192.0, 0.0, 0.0, 0.0, 0.0, 0.0, 0.0, 0.0, 0.0, 0.0, 1.677527014357316E9, 0.0, 2023-02-27 14:43:34.357
220.0, 8121.886327491561, -187500.02235174447, -187500.02235174447, -187500.02235174447, -187500.02235174447, -187500.02235174447, -187500.02235174447, -187500.02235174447, 0.258, -0.008, 0.974, 192.0, 0.0, 0.0, 0.0, 0.0, 0.0, 0.0, 0.0, 0.0, 0.0, 1.677527014364436E9, 0.0, 2023-02-27 14:43:34.364
221.0, 8496.501564562508, -187500.02235174447, -187500.02235174447, -187500.02235174447, -187500.02235174447, -187500.02235174447, -187500.02235174447, -187500.02235174447, 0.258, -0.008, 0.974, 192.0, 0.0, 0.0, 0.0, 0.0, 0.0, 0.0, 0.0, 0.0, 0.0, 1.677527014364455E9, 0.0, 2023-02-27 14:43:34.364
222.0, 7860.393269108924, -187500.02235174447, -187500.02235174447, -187500.02235174447, -187500.02235174447, -187500.02235174447, -187500.02235174447, -187500.02235174447, 0.258, -0.008, 0.974, 192.0, 0.0, 0.0, 0.0, 0.0, 0.0, 0.0, 0.0, 0.0, 0.0, 1.677527014372468E9, 0.0, 2023-02-27 14:43:34.372
223.0, 7569.664128978745, -187500.02235174447, -187500.02235174447, -187500.02235174447, -187500.02235174447, -187500.02235174447, -187500.02235174447, -187500.02235174447, 0.258, -0.008, 0.974, 192.0, 0.0, 0.0, 0.0, 0.0, 0.0, 0.0, 0.0, 0.0, 0.0, 1.677527014372484E9, 0.0, 2023-02-27 14:43:34.372
224.0, 7960.059697635138, -187500.02235174447, -187500.02235174447, -187500.02235174447, -187500.02235174447, -187500.02235174447, -187500.02235174447, -187500.02235174447, 0.256, -0.006, 0.976, 192.0, 8.0, 0.0, 255.0, 208.0, 30.0, 128.0, 0.0, 0.0, 0.0, 1.677527014380429E9, 0.0, 2023-02-27 14:43:34.380
225.0, 8215.76365420385, -187500.02235174447, -187500.02235174447, -187500.02235174447, -187500.02235174447, -187500.02235174447, -187500.02235174447, -187500.02235174447, 0.256, -0.006, 0.976, 192.0, 0.0, 0.0, 0.0, 0.0, 0.0, 0.0, 0.0, 0.0, 0.0, 1.677527014380444E9, 0.0, 2023-02-27 14:43:34.380
226.0, 7924.833348373574, -187500.02235174447, -187500.02235174447, -187500.02235174447, -187500.02235174447, -187500.02235174447, -187500.02235174447, -187500.02235174447, 0.256, -0.006, 0.976, 192.0, 0.0, 0.0, 0.0, 0.0, 0.0, 0.0, 0.0, 0.0, 0.0, 1.677527014387043E9, 0.0, 2023-02-27 14:43:34.387
227.0, 7818.394341277402, -187500.02235174447, -187500.02235174447, -187500.02235174447, -187500.02235174447, -187500.02235174447, -187500.02235174447, -187500.02235174447, 0.256, -0.006, 0.976, 192.0, 0.0, 0.0, 0.0, 0.0, 0.0, 0.0, 0.0, 0.0, 0.0, 1.677527014387055E9, 0.0, 2023-02-27 14:43:34.387
228.0, 7991.642712550487, -187500.02235174447, -187500.02235174447, -187500.02235174447, -187500.02235174447, -187500.02235174447, -187500.02235174447, -187500.02235174447, 0.256, -0.006, 0.976, 192.0, 0.0, 0.0, 0.0, 0.0, 0.0, 0.0, 0.0, 0.0, 0.0, 1.677527014394037E9, 0.0, 2023-02-27 14:43:34.394
229.0, 8276.247474699912, -187500.02235174447, -187500.02235174447, -187500.02235174447, -187500.02235174447, -187500.02235174447, -187500.02235174447, -187500.02235174447, 0.256, -0.006, 0.976, 192.0, 0.0, 0.0, 0.0, 0.0, 0.0, 0.0, 0.0, 0.0, 0.0, 1.677527014402133E9, 0.0, 2023-02-27 14:43:34.402
230.0, 8045.421009709956, -187500.02235174447, -187500.02235174447, -187500.02235174447, -187500.02235174447, -187500.02235174447, -187500.02235174447, -187500.02235174447, 0.256, -0.006, 0.976, 192.0, 0.0, 0.0, 0.0, 0.0, 0.0, 0.0, 0.0, 0.0, 0.0, 1.677527014402151E9, 0.0, 2023-02-27 14:43:34.402
231.0, 7671.990415095141, -187500.02235174447, -187500.02235174447, -187500.02235174447, -187500.02235174447, -187500.02235174447, -187500.02235174447, -187500.02235174447, 0.256, -0.006, 0.976, 192.0, 0.0, 0.0, 0.0, 0.0, 0.0, 0.0, 0.0, 0.0, 0.0, 1.677527014410374E9, 0.0, 2023-02-27 14:43:34.410
232.0, 8054.808742381185, -187500.02235174447, -187500.02235174447, -187500.02235174447, -187500.02235174447, -187500.02235174447, -187500.02235174447, -187500.02235174447, 0.256, -0.006, 0.976, 192.0, 0.0, 0.0, 0.0, 0.0, 0.0, 0.0, 0.0, 0.0, 0.0, 1.67752701441039E9, 0.0, 2023-02-27 14:43:34.410
233.0, 8396.253990680456, -187500.02235174447, -187500.02235174447, -187500.02235174447, -187500.02235174447, -187500.02235174447, -187500.02235174447, -187500.02235174447, 0.26, -0.002, 0.976, 192.0, 8.0, 32.0, 255.0, 240.0, 30.0, 128.0, 0.0, 0.0, 0.0, 1.677527014416705E9, 0.0, 2023-02-27 14:43:34.416
234.0, 8084.044824128727, -187500.02235174447, -187500.02235174447, -187500.02235174447, -187500.02235174447, -187500.02235174447, -187500.02235174447, -187500.02235174447, 0.26, -0.002, 0.976, 192.0, 0.0, 0.0, 0.0, 0.0, 0.0, 0.0, 0.0, 0.0, 0.0, 1.67752701441672E9, 0.0, 2023-02-27 14:43:34.416
235.0, 7624.962344761175, -187500.02235174447, -187500.02235174447, -187500.02235174447, -187500.02235174447, -187500.02235174447, -187500.02235174447, -187500.02235174447, 0.26, -0.002, 0.976, 192.0, 0.0, 0.0, 0.0, 0.0, 0.0, 0.0, 0.0, 0.0, 0.0, 1.677527014424644E9, 0.0, 2023-02-27 14:43:34.424
236.0, 7852.5031033162, -187500.02235174447, -187500.02235174447, -187500.02235174447, -187500.02235174447, -187500.02235174447, -187500.02235174447, -187500.02235174447, 0.26, -0.002, 0.976, 192.0, 0.0, 0.0, 0.0, 0.0, 0.0, 0.0, 0.0, 0.0, 0.0, 1.677527014424658E9, 0.0, 2023-02-27 14:43:34.424
237.0, 8370.70594676804, -187500.02235174447, -187500.02235174447, -187500.02235174447, -187500.02235174447, -187500.02235174447, -187500.02235174447, -187500.02235174447, 0.26, -0.002, 0.976, 192.0, 0.0, 0.0, 0.0, 0.0, 0.0, 0.0, 0.0, 0.0, 0.0, 1.677527014432639E9, 0.0, 2023-02-27 14:43:34.432
238.0, 8268.87139902966, -187500.02235174447, -187500.02235174447, -187500.02235174447, -187500.02235174447, -187500.02235174447, -187500.02235174447, -187500.02235174447, 0.26, -0.002, 0.976, 192.0, 0.0, 0.0, 0.0, 0.0, 0.0, 0.0, 0.0, 0.0, 0.0, 1.677527014432669E9, 0.0, 2023-02-27 14:43:34.432
239.0, 7779.435250691802, -187500.02235174447, -187500.02235174447, -187500.02235174447, -187500.02235174447, -187500.02235174447, -187500.02235174447, -187500.02235174447, 0.26, -0.002, 0.976, 192.0, 0.0, 0.0, 0.0, 0.0, 0.0, 0.0, 0.0, 0.0, 0.0, 1.677527014439292E9, 0.0, 2023-02-27 14:43:34.439
240.0, 7946.693354450865, -187500.02235174447, -187500.02235174447, -187500.02235174447, -187500.02235174447, -187500.02235174447, -187500.02235174447, -187500.02235174447, 0.26, -0.002, 0.976, 192.0, 0.0, 0.0, 0.0, 0.0, 0.0, 0.0, 0.0, 0.0, 0.0, 1.677527014439315E9, 0.0, 2023-02-27 14:43:34.439
241.0, 8477.748450964506, -187500.02235174447, -187500.02235174447, -187500.02235174447, -187500.02235174447, -187500.02235174447, -187500.02235174447, -187500.02235174447, 0.26, -0.002, 0.976, 192.0, 0.0, 0.0, 0.0, 0.0, 0.0, 0.0, 0.0, 0.0, 0.0, 1.677527014447386E9, 0.0, 2023-02-27 14:43:34.447
242.0, 8389.637874321685, -187500.02235174447, -187500.02235174447, -187500.02235174447, -187500.02235174447, -187500.02235174447, -187500.02235174447, -187500.02235174447, 0.26, -0.002, 0.976, 192.0, 0.0, 0.0, 0.0, 0.0, 0.0, 0.0, 0.0, 0.0, 0.0, 1.677527014447399E9, 0.0, 2023-02-27 14:43:34.447
243.0, 7726.461616332725, -187500.02235174447, -187500.02235174447, -187500.02235174447, -187500.02235174447, -187500.02235174447, -187500.02235174447, -187500.02235174447, 0.26, -0.012, 0.974, 192.0, 8.0, 32.0, 255.0, 160.0, 30.0, 112.0, 0.0, 0.0, 0.0, 1.6775270144545E9, 0.0, 2023-02-27 14:43:34.454
244.0, 7735.447017603758, -187500.02235174447, -187500.02235174447, -187500.02235174447, -187500.02235174447, -187500.02235174447, -187500.02235174447, -187500.02235174447, 0.26, -0.012, 0.974, 192.0, 0.0, 0.0, 0.0, 0.0, 0.0, 0.0, 0.0, 0.0, 0.0, 1.67752701446249E9, 0.0, 2023-02-27 14:43:34.462
245.0, 8183.934770099494, -187500.02235174447, -187500.02235174447, -187500.02235174447, -187500.02235174447, -187500.02235174447, -187500.02235174447, -187500.02235174447, 0.26, -0.012, 0.974, 192.0, 0.0, 0.0, 0.0, 0.0, 0.0, 0.0, 0.0, 0.0, 0.0, 1.677527014462506E9, 0.0, 2023-02-27 14:43:34.462
246.0, 8349.717658724507, -187500.02235174447, -187500.02235174447, -187500.02235174447, -187500.02235174447, -187500.02235174447, -187500.02235174447, -187500.02235174447, 0.26, -0.012, 0.974, 192.0, 0.0, 0.0, 0.0, 0.0, 0.0, 0.0, 0.0, 0.0, 0.0, 1.677527014469024E9, 0.0, 2023-02-27 14:43:34.469
247.0, 8159.414906432022, -187500.02235174447, -187500.02235174447, -187500.02235174447, -187500.02235174447, -187500.02235174447, -187500.02235174447, -187500.02235174447, 0.26, -0.012, 0.974, 192.0, 0.0, 0.0, 0.0, 0.0, 0.0, 0.0, 0.0, 0.0, 0.0, 1.677527014469036E9, 0.0, 2023-02-27 14:43:34.469
248.0, 7935.338668267569, -187500.02235174447, -187500.02235174447, -187500.02235174447, -187500.02235174447, -187500.02235174447, -187500.02235174447, -187500.02235174447, 0.26, -0.012, 0.974, 192.0, 0.0, 0.0, 0.0, 0.0, 0.0, 0.0, 0.0, 0.0, 0.0, 1.677527014476982E9, 0.0, 2023-02-27 14:43:34.476
249.0, 7983.707843268853, -187500.02235174447, -187500.02235174447, -187500.02235174447, -187500.02235174447, -187500.02235174447, -187500.02235174447, -187500.02235174447, 0.26, -0.012, 0.974, 192.0, 0.0, 0.0, 0.0, 0.0, 0.0, 0.0, 0.0, 0.0, 0.0, 1.677527014477001E9, 0.0, 2023-02-27 14:43:34.477
250.0, 8292.676006874563, -187500.02235174447, -187500.02235174447, -187500.02235174447, -187500.02235174447, -187500.02235174447, -187500.02235174447, -187500.02235174447, 0.26, -0.012, 0.974, 192.0, 0.0, 0.0, 0.0, 0.0, 0.0, 0.0, 0.0, 0.0, 0.0, 1.677527014485086E9, 0.0, 2023-02-27 14:43:34.485
251.0, 7959.523255768211, -187500.02235174447, -187500.02235174447, -187500.02235174447, -187500.02235174447, -187500.02235174447, -187500.02235174447, -187500.02235174447, 0.26, -0.012, 0.974, 192.0, 0.0, 0.0, 0.0, 0.0, 0.0, 0.0, 0.0, 0.0, 0.0, 1.677527014485106E9, 0.0, 2023-02-27 14:43:34.485
252.0, 7676.438412241747, -187500.02235174447, -187500.02235174447, -187500.02235174447, -187500.02235174447, -187500.02235174447, -187500.02235174447, -187500.02235174447, 0.26, -0.012, 0.974, 192.0, 0.0, 0.0, 0.0, 0.0, 0.0, 0.0, 0.0, 0.0, 0.0, 1.677527014492005E9, 0.0, 2023-02-27 14:43:34.492
253.0, 8073.919483890472, -187500.02235174447, -187500.02235174447, -187500.02235174447, -187500.02235174447, -187500.02235174447, -187500.02235174447, -187500.02235174447, 0.266, -0.008, 0.982, 192.0, 8.0, 80.0, 255.0, 192.0, 30.0, 176.0, 0.0, 0.0, 0.0, 1.677527014492023E9, 0.0, 2023-02-27 14:43:34.492
254.0, 8475.312110818877, -187500.02235174447, -187500.02235174447, -187500.02235174447, -187500.02235174447, -187500.02235174447, -187500.02235174447, -187500.02235174447, 0.266, -0.008, 0.982, 192.0, 0.0, 0.0, 0.0, 0.0, 0.0, 0.0, 0.0, 0.0, 0.0, 1.677527014499598E9, 0.0, 2023-02-27 14:43:34.499
255.0, 8175.374051973111, -187500.02235174447, -187500.02235174447, -187500.02235174447, -187500.02235174447, -187500.02235174447, -187500.02235174447, -187500.02235174447, 0.266, -0.008, 0.982, 192.0, 0.0, 0.0, 0.0, 0.0, 0.0, 0.0, 0.0, 0.0, 0.0, 1.677527014499613E9, 0.0, 2023-02-27 14:43:34.499
0.0, 7875.927731505362, -187500.02235174447, -187500.02235174447, -187500.02235174447, -187500.02235174447, -187500.02235174447, -187500.02235174447, -187500.02235174447, 0.266, -0.008, 0.982, 192.0, 0.0, 0.0, 0.0, 0.0, 0.0, 0.0, 0.0, 0.0, 0.0, 1.677527014507567E9, 0.0, 2023-02-27 14:43:34.507
1.0, 8097.992312668838, -187500.02235174447, -187500.02235174447, -187500.02235174447, -187500.02235174447, -187500.02235174447, -187500.02235174447, -187500.02235174447, 0.266, -0.008, 0.982, 192.0, 0.0, 0.0, 0.0, 0.0, 0.0, 0.0, 0.0, 0.0, 0.0, 1.67752701450758E9, 0.0, 2023-02-27 14:43:34.507
2.0, 8358.61365301772, -187500.02235174447, -187500.02235174447, -187500.02235174447, -187500.02235174447, -187500.02235174447, -187500.02235174447, -187500.02235174447, 0.266, -0.008, 0.982, 192.0, 0.0, 0.0, 0.0, 0.0, 0.0, 0.0, 0.0, 0.0, 0.0, 1.677527014514586E9, 0.0, 2023-02-27 14:43:34.514
3.0, 8180.917284598027, -187500.02235174447, -187500.02235174447, -187500.02235174447, -187500.02235174447, -187500.02235174447, -187500.02235174447, -187500.02235174447, 0.266, -0.008, 0.982, 192.0, 0.0, 0.0, 0.0, 0.0, 0.0, 0.0, 0.0, 0.0, 0.0, 1.677527014514603E9, 0.0, 2023-02-27 14:43:34.514
4.0, 7910.818804600097, -187500.02235174447, -187500.02235174447, -187500.02235174447, -187500.02235174447, -187500.02235174447, -187500.02235174447, -187500.02235174447, 0.266, -0.008, 0.982, 192.0, 0.0, 0.0, 0.0, 0.0, 0.0, 0.0, 0.0, 0.0, 0.0, 1.677527014521779E9, 0.0, 2023-02-27 14:43:34.521
5.0, 8019.3141721861575, -187500.02235174447, -187500.02235174447, -187500.02235174447, -187500.02235174447, -187500.02235174447, -187500.02235174447, -187500.02235174447, 0.266, -0.008, 0.982, 192.0, 0.0, 0.0, 0.0, 0.0, 0.0, 0.0, 0.0, 0.0, 0.0, 1.677527014529161E9, 0.0, 2023-02-27 14:43:34.529
6.0, 8417.644610124184, -187500.02235174447, -187500.02235174447, -187500.02235174447, -187500.02235174447, -187500.02235174447, -187500.02235174447, -187500.02235174447, 0.266, -0.008, 0.982, 192.0, 0.0, 0.0, 0.0, 0.0, 0.0, 0.0, 0.0, 0.0, 0.0, 1.677527014529178E9, 0.0, 2023-02-27 14:43:34.529
7.0, 8329.578736970274, -187500.02235174447, -187500.02235174447, -187500.02235174447, -187500.02235174447, -187500.02235174447, -187500.02235174447, -187500.02235174447, 0.264, -0.004, 0.972, 192.0, 8.0, 64.0, 255.0, 224.0, 30.0, 96.0, 0.0, 0.0, 0.0, 1.677527014537855E9, 0.0, 2023-02-27 14:43:34.537
8.0, 7945.106380594538, -187500.02235174447, -187500.02235174447, -187500.02235174447, -187500.02235174447, -187500.02235174447, -187500.02235174447, -187500.02235174447, 0.264, -0.004, 0.972, 192.0, 0.0, 0.0, 0.0, 0.0, 0.0, 0.0, 0.0, 0.0, 0.0, 1.677527014537877E9, 0.0, 2023-02-27 14:43:34.537
9.0, 8192.562543459242, -187500.02235174447, -187500.02235174447, -187500.02235174447, -187500.02235174447, -187500.02235174447, -187500.02235174447, -187500.02235174447, 0.264, -0.004, 0.972, 192.0, 0.0, 0.0, 0.0, 0.0, 0.0, 0.0, 0.0, 0.0, 0.0, 1.677527014545178E9, 0.0, 2023-02-27 14:43:34.545
10.0, 8195.512973727344, -187500.02235174447, -187500.02235174447, -187500.02235174447, -187500.02235174447, -187500.02235174447, -187500.02235174447, -187500.02235174447, 0.264, -0.004, 0.972, 192.0, 0.0, 0.0, 0.0, 0.0, 0.0, 0.0, 0.0, 0.0, 0.0, 1.677527014545194E9, 0.0, 2023-02-27 14:43:34.545
11.0, 8260.265977414367, -187500.02235174447, -187500.02235174447, -187500.02235174447, -187500.02235174447, -187500.02235174447, -187500.02235174447, -187500.02235174447, 0.264, -0.004, 0.972, 192.0, 0.0, 0.0, 0.0, 0.0, 0.0, 0.0, 0.0, 0.0, 0.0, 1.677527014551912E9, 0.0, 2023-02-27 14:43:34.551
12.0, 7940.725438681297, -187500.02235174447, -187500.02235174447, -187500.02235174447, -187500.02235174447, -187500.02235174447, -187500.02235174447, -187500.02235174447, 0.264, -0.004, 0.972, 192.0, 0.0, 0.0, 0.0, 0.0, 0.0, 0.0, 0.0, 0.0, 0.0, 1.677527014551928E9, 0.0, 2023-02-27 14:43:34.551
13.0, 7890.076385745572, -187500.02235174447, -187500.02235174447, -187500.02235174447, -187500.02235174447, -187500.02235174447, -187500.02235174447, -187500.02235174447, 0.264, -0.004, 0.972, 192.0, 0.0, 0.0, 0.0, 0.0, 0.0, 0.0, 0.0, 0.0, 0.0, 1.677527014559897E9, 0.0, 2023-02-27 14:43:34.559
14.0, 8239.769427748852, -187500.02235174447, -187500.02235174447, -187500.02235174447, -187500.02235174447, -187500.02235174447, -187500.02235174447, -187500.02235174447, 0.264, -0.004, 0.972, 192.0, 0.0, 0.0, 0.0, 0.0, 0.0, 0.0, 0.0, 0.0, 0.0, 1.677527014559919E9, 0.0, 2023-02-27 14:43:34.559
15.0, 8414.023627522425, -187500.02235174447, -187500.02235174447, -187500.02235174447, -187500.02235174447, -187500.02235174447, -187500.02235174447, -187500.02235174447, 0.264, -0.004, 0.972, 192.0, 0.0, 0.0, 0.0, 0.0, 0.0, 0.0, 0.0, 0.0, 0.0, 1.677527014567803E9, 0.0, 2023-02-27 14:43:34.567
16.0, 8011.848689538085, -187500.02235174447, -187500.02235174447, -187500.02235174447, -187500.02235174447, -187500.02235174447, -187500.02235174447, -187500.02235174447, 0.264, -0.004, 0.972, 192.0, 0.0, 0.0, 0.0, 0.0, 0.0, 0.0, 0.0, 0.0, 0.0, 1.677527014567825E9, 0.0, 2023-02-27 14:43:34.567
17.0, 7845.261138112681, -187500.02235174447, -187500.02235174447, -187500.02235174447, -187500.02235174447, -187500.02235174447, -187500.02235174447, -187500.02235174447, 0.258, -0.012, 0.976, 192.0, 8.0, 16.0, 255.0, 160.0, 30.0, 128.0, 0.0, 0.0, 0.0, 1.677527014575083E9, 0.0, 2023-02-27 14:43:34.575
18.0, 8213.953162902972, -187500.02235174447, -187500.02235174447, -187500.02235174447, -187500.02235174447, -187500.02235174447, -187500.02235174447, -187500.02235174447, 0.258, -0.012, 0.976, 192.0, 0.0, 0.0, 0.0, 0.0, 0.0, 0.0, 0.0, 0.0, 0.0, 1.6775270145751E9, 0.0, 2023-02-27 14:43:34.575
19.0, 8453.116828574757, -187500.02235174447, -187500.02235174447, -187500.02235174447, -187500.02235174447, -187500.02235174447, -187500.02235174447, -187500.02235174447, 0.258, -0.012, 0.976, 192.0, 0.0, 0.0, 0.0, 0.0, 0.0, 0.0, 0.0, 0.0, 0.0, 1.677527014581527E9, 0.0, 2023-02-27 14:43:34.581
20.0, 8315.988876341447, -187500.02235174447, -187500.02235174447, -187500.02235174447, -187500.02235174447, -187500.02235174447, -187500.02235174447, -187500.02235174447, 0.258, -0.012, 0.976, 192.0, 0.0, 0.0, 0.0, 0.0, 0.0, 0.0, 0.0, 0.0, 0.0, 1.677527014589515E9, 0.0, 2023-02-27 14:43:34.589
21.0, 7945.218139316815, -187500.02235174447, -187500.02235174447, -187500.02235174447, -187500.02235174447, -187500.02235174447, -187500.02235174447, -187500.02235174447, 0.258, -0.012, 0.976, 192.0, 0.0, 0.0, 0.0, 0.0, 0.0, 0.0, 0.0, 0.0, 0.0, 1.677527014589554E9, 0.0, 2023-02-27 14:43:34.589
22.0, 8042.247061997303, -187500.02235174447, -187500.02235174447, -187500.02235174447, -187500.02235174447, -187500.02235174447, -187500.02235174447, -187500.02235174447, 0.258, -0.012, 0.976, 192.0, 0.0, 0.0, 0.0, 0.0, 0.0, 0.0, 0.0, 0.0, 0.0, 1.677527014597513E9, 0.0, 2023-02-27 14:43:34.597
23.0, 8472.652253228694, -187500.02235174447, -187500.02235174447, -187500.02235174447, -187500.02235174447, -187500.02235174447, -187500.02235174447, -187500.02235174447, 0.258, -0.012, 0.976, 192.0, 0.0, 0.0, 0.0, 0.0, 0.0, 0.0, 0.0, 0.0, 0.0, 1.677527014597529E9, 0.0, 2023-02-27 14:43:34.597
24.0, 8265.473933872454, -187500.02235174447, -187500.02235174447, -187500.02235174447, -187500.02235174447, -187500.02235174447, -187500.02235174447, -187500.02235174447, 0.258, -0.012, 0.976, 192.0, 0.0, 0.0, 0.0, 0.0, 0.0, 0.0, 0.0, 0.0, 0.0, 1.677527014604069E9, 0.0, 2023-02-27 14:43:34.604
25.0, 7896.17841198187, -187500.02235174447, -187500.02235174447, -187500.02235174447, -187500.02235174447, -187500.02235174447, -187500.02235174447, -187500.02235174447, 0.258, -0.012, 0.976, 192.0, 0.0, 0.0, 0.0, 0.0, 0.0, 0.0, 0.0, 0.0, 0.0, 1.677527014604093E9, 0.0, 2023-02-27 14:43:34.604
26.0, 8151.591795872664, -187500.02235174447, -187500.02235174447, -187500.02235174447, -187500.02235174447, -187500.02235174447, -187500.02235174447, -187500.02235174447, 0.258, -0.012, 0.976, 192.0, 0.0, 0.0, 0.0, 0.0, 0.0, 0.0, 0.0, 0.0, 0.0, 1.677527014612219E9, 0.0, 2023-02-27 14:43:34.612
27.0, 8448.020630838946, -187500.02235174447, -187500.02235174447, -187500.02235174447, -187500.02235174447, -187500.02235174447, -187500.02235174447, -187500.02235174447, 0.26, -0.006, 0.978, 192.0, 8.0, 32.0, 255.0, 208.0, 30.0, 144.0, 0.0, 0.0, 0.0, 1.677527014612236E9, 0.0, 2023-02-27 14:43:34.612
28.0, 8338.541786496853, -187500.02235174447, -187500.02235174447, -187500.02235174447, -187500.02235174447, -187500.02235174447, -187500.02235174447, -187500.02235174447, 0.26, -0.006, 0.978, 192.0, 0.0, 0.0, 0.0, 0.0, 0.0, 0.0, 0.0, 0.0, 0.0, 1.677527014620144E9, 0.0, 2023-02-27 14:43:34.620
29.0, 7791.527544442123, -187500.02235174447, -187500.02235174447, -187500.02235174447, -187500.02235174447, -187500.02235174447, -187500.02235174447, -187500.02235174447, 0.26, -0.006, 0.978, 192.0, 0.0, 0.0, 0.0, 0.0, 0.0, 0.0, 0.0, 0.0, 0.0, 1.677527014620163E9, 0.0, 2023-02-27 14:43:34.620
30.0, 8017.101349485082, -187500.02235174447, -187500.02235174447, -187500.02235174447, -187500.02235174447, -187500.02235174447, -187500.02235174447, -187500.02235174447, 0.26, -0.006, 0.978, 192.0, 0.0, 0.0, 0.0, 0.0, 0.0, 0.0, 0.0, 0.0, 0.0, 1.677527014627199E9, 0.0, 2023-02-27 14:43:34.627
31.0, 8493.618189527773, -187500.02235174447, -187500.02235174447, -187500.02235174447, -187500.02235174447, -187500.02235174447, -187500.02235174447, -187500.02235174447, 0.26, -0.006, 0.978, 192.0, 0.0, 0.0, 0.0, 0.0, 0.0, 0.0, 0.0, 0.0, 0.0, 1.677527014627214E9, 0.0, 2023-02-27 14:43:34.627
32.0, 8444.556110448375, -187500.02235174447, -187500.02235174447, -187500.02235174447, -187500.02235174447, -187500.02235174447, -187500.02235174447, -187500.02235174447, 0.26, -0.006, 0.978, 192.0, 0.0, 0.0, 0.0, 0.0, 0.0, 0.0, 0.0, 0.0, 0.0, 1.677527014634665E9, 0.0, 2023-02-27 14:43:34.634
33.0, 7988.155840415459, -187500.02235174447, -187500.02235174447, -187500.02235174447, -187500.02235174447, -187500.02235174447, -187500.02235174447, -187500.02235174447, 0.26, -0.006, 0.978, 192.0, 0.0, 0.0, 0.0, 0.0, 0.0, 0.0, 0.0, 0.0, 0.0, 1.677527014634681E9, 0.0, 2023-02-27 14:43:34.634
34.0, 7934.399895000446, -187500.02235174447, -187500.02235174447, -187500.02235174447, -187500.02235174447, -187500.02235174447, -187500.02235174447, -187500.02235174447, 0.26, -0.006, 0.978, 192.0, 0.0, 0.0, 0.0, 0.0, 0.0, 0.0, 0.0, 0.0, 0.0, 1.67752701464176E9, 0.0, 2023-02-27 14:43:34.641
35.0, 8549.855178577325, -187500.02235174447, -187500.02235174447, -187500.02235174447, -187500.02235174447, -187500.02235174447, -187500.02235174447, -187500.02235174447, 0.26, -0.006, 0.978, 192.0, 0.0, 0.0, 0.0, 0.0, 0.0, 0.0, 0.0, 0.0, 0.0, 1.677527014649738E9, 0.0, 2023-02-27 14:43:34.649
36.0, 8444.600813937284, -187500.02235174447, -187500.02235174447, -187500.02235174447, -187500.02235174447, -187500.02235174447, -187500.02235174447, -187500.02235174447, 0.258, -0.008, 0.976, 192.0, 8.0, 16.0, 255.0, 192.0, 30.0, 128.0, 0.0, 0.0, 0.0, 1.677527014649783E9, 0.0, 2023-02-27 14:43:34.649
37.0, 7887.572990366578, -187500.02235174447, -187500.02235174447, -187500.02235174447, -187500.02235174447, -187500.02235174447, -187500.02235174447, -187500.02235174447, 0.258, -0.008, 0.976, 192.0, 0.0, 0.0, 0.0, 0.0, 0.0, 0.0, 0.0, 0.0, 0.0, 1.677527014656778E9, 0.0, 2023-02-27 14:43:34.656
38.0, 7877.715871061787, -187500.02235174447, -187500.02235174447, -187500.02235174447, -187500.02235174447, -187500.02235174447, -187500.02235174447, -187500.02235174447, 0.258, -0.008, 0.976, 192.0, 0.0, 0.0, 0.0, 0.0, 0.0, 0.0, 0.0, 0.0, 0.0, 1.677527014656798E9, 0.0, 2023-02-27 14:43:34.656
39.0, 8360.781772229884, -187500.02235174447, -187500.02235174447, -187500.02235174447, -187500.02235174447, -187500.02235174447, -187500.02235174447, -187500.02235174447, 0.258, -0.008, 0.976, 192.0, 0.0, 0.0, 0.0, 0.0, 0.0, 0.0, 0.0, 0.0, 0.0, 1.677527014664419E9, 0.0, 2023-02-27 14:43:34.664
40.0, 8540.73566683956, -187500.02235174447, -187500.02235174447, -187500.02235174447, -187500.02235174447, -187500.02235174447, -187500.02235174447, -187500.02235174447, 0.258, -0.008, 0.976, 192.0, 0.0, 0.0, 0.0, 0.0, 0.0, 0.0, 0.0, 0.0, 0.0, 1.677527014664434E9, 0.0, 2023-02-27 14:43:34.664
41.0, 8042.02354455275, -187500.02235174447, -187500.02235174447, -187500.02235174447, -187500.02235174447, -187500.02235174447, -187500.02235174447, -187500.02235174447, 0.258, -0.008, 0.976, 192.0, 0.0, 0.0, 0.0, 0.0, 0.0, 0.0, 0.0, 0.0, 0.0, 1.677527014672381E9, 0.0, 2023-02-27 14:43:34.672
42.0, 7880.532190863156, -187500.02235174447, -187500.02235174447, -187500.02235174447, -187500.02235174447, -187500.02235174447, -187500.02235174447, -187500.02235174447, 0.258, -0.008, 0.976, 192.0, 0.0, 0.0, 0.0, 0.0, 0.0, 0.0, 0.0, 0.0, 0.0, 1.677527014672397E9, 0.0, 2023-02-27 14:43:34.672
43.0, 8295.715844120485, -187500.02235174447, -187500.02235174447, -187500.02235174447, -187500.02235174447, -187500.02235174447, -187500.02235174447, -187500.02235174447, 0.258, -0.008, 0.976, 192.0, 0.0, 0.0, 0.0, 0.0, 0.0, 0.0, 0.0, 0.0, 0.0, 1.677527014680283E9, 0.0, 2023-02-27 14:43:34.680
44.0, 8735.86639593439, -187500.02235174447, -187500.02235174447, -187500.02235174447, -187500.02235174447, -187500.02235174447, -187500.02235174447, -187500.02235174447, 0.258, -0.008, 0.976, 192.0, 0.0, 0.0, 0.0, 0.0, 0.0, 0.0, 0.0, 0.0, 0.0, 1.677527014680299E9, 0.0, 2023-02-27 14:43:34.680
45.0, 8321.733274666462, -187500.02235174447, -187500.02235174447, -187500.02235174447, -187500.02235174447, -187500.02235174447, -187500.02235174447, -187500.02235174447, 0.258, -0.008, 0.976, 192.0, 0.0, 0.0, 0.0, 0.0, 0.0, 0.0, 0.0, 0.0, 0.0, 1.677527014687022E9, 0.0, 2023-02-27 14:43:34.687
46.0, 7823.937573902318, -187500.02235174447, -187500.02235174447, -187500.02235174447, -187500.02235174447, -187500.02235174447, -187500.02235174447, -187500.02235174447, 0.262, -0.002, 0.974, 192.0, 8.0, 48.0, 255.0, 240.0, 30.0, 112.0, 0.0, 0.0, 0.0, 1.677527014687045E9, 0.0, 2023-02-27 14:43:34.687
47.0, 8290.060852773291, -187500.02235174447, -187500.02235174447, -187500.02235174447, -187500.02235174447, -187500.02235174447, -187500.02235174447, -187500.02235174447, 0.262, -0.002, 0.974, 192.0, 0.0, 0.0, 0.0, 0.0, 0.0, 0.0, 0.0, 0.0, 0.0, 1.677527014694993E9, 0.0, 2023-02-27 14:43:34.694
48.0, 8829.967240091233, -187500.02235174447, -187500.02235174447, -187500.02235174447, -187500.02235174447, -187500.02235174447, -187500.02235174447, -187500.02235174447, 0.262, -0.002, 0.974, 192.0, 0.0, 0.0, 0.0, 0.0, 0.0, 0.0, 0.0, 0.0, 0.0, 1.677527014695015E9, 0.0, 2023-02-27 14:43:34.695
49.0, 8323.879042134171, -187500.02235174447, -187500.02235174447, -187500.02235174447, -187500.02235174447, -187500.02235174447, -187500.02235174447, -187500.02235174447, 0.262, -0.002, 0.974, 192.0, 0.0, 0.0, 0.0, 0.0, 0.0, 0.0, 0.0, 0.0, 0.0, 1.67752701470212E9, 0.0, 2023-02-27 14:43:34.702
50.0, 8244.575052806742, -187500.02235174447, -187500.02235174447, -187500.02235174447, -187500.02235174447, -187500.02235174447, -187500.02235174447, -187500.02235174447, 0.262, -0.002, 0.974, 192.0, 0.0, 0.0, 0.0, 0.0, 0.0, 0.0, 0.0, 0.0, 0.0, 1.677527014710063E9, 0.0, 2023-02-27 14:43:34.710
51.0, 8271.710070575486, -187500.02235174447, -187500.02235174447, -187500.02235174447, -187500.02235174447, -187500.02235174447, -187500.02235174447, -187500.02235174447, 0.262, -0.002, 0.974, 192.0, 0.0, 0.0, 0.0, 0.0, 0.0, 0.0, 0.0, 0.0, 0.0, 1.677527014710102E9, 0.0, 2023-02-27 14:43:34.710
52.0, 8347.41542904561, -187500.02235174447, -187500.02235174447, -187500.02235174447, -187500.02235174447, -187500.02235174447, -187500.02235174447, -187500.02235174447, 0.262, -0.002, 0.974, 192.0, 0.0, 0.0, 0.0, 0.0, 0.0, 0.0, 0.0, 0.0, 0.0, 1.67752701471665E9, 0.0, 2023-02-27 14:43:34.716
53.0, 8507.92330597917, -187500.02235174447, -187500.02235174447, -187500.02235174447, -187500.02235174447, -187500.02235174447, -187500.02235174447, -187500.02235174447, 0.262, -0.002, 0.974, 192.0, 0.0, 0.0, 0.0, 0.0, 0.0, 0.0, 0.0, 0.0, 0.0, 1.677527014716663E9, 0.0, 2023-02-27 14:43:34.716
54.0, 8008.406520891967, -187500.02235174447, -187500.02235174447, -187500.02235174447, -187500.02235174447, -187500.02235174447, -187500.02235174447, -187500.02235174447, 0.262, -0.002, 0.974, 192.0, 0.0, 0.0, 0.0, 0.0, 0.0, 0.0, 0.0, 0.0, 0.0, 1.677527014724729E9, 0.0, 2023-02-27 14:43:34.724
55.0, 7971.436735562889, -187500.02235174447, -187500.02235174447, -187500.02235174447, -187500.02235174447, -187500.02235174447, -187500.02235174447, -187500.02235174447, 0.262, -0.002, 0.974, 192.0, 0.0, 0.0, 0.0, 0.0, 0.0, 0.0, 0.0, 0.0, 0.0, 1.677527014724759E9, 0.0, 2023-02-27 14:43:34.724
56.0, 8457.2966047879, -187500.02235174447, -187500.02235174447, -187500.02235174447, -187500.02235174447, -187500.02235174447, -187500.02235174447, -187500.02235174447, 0.264, -0.006, 0.98, 192.0, 8.0, 64.0, 255.0, 208.0, 30.0, 160.0, 0.0, 0.0, 0.0, 1.677527014732626E9, 0.0, 2023-02-27 14:43:34.732
57.0, 8413.822461822327, -187500.02235174447, -187500.02235174447, -187500.02235174447, -187500.02235174447, -187500.02235174447, -187500.02235174447, -187500.02235174447, 0.264, -0.006, 0.98, 192.0, 0.0, 0.0, 0.0, 0.0, 0.0, 0.0, 0.0, 0.0, 0.0, 1.67752701473265E9, 0.0, 2023-02-27 14:43:34.732
58.0, 7955.522293510711, -187500.02235174447, -187500.02235174447, -187500.02235174447, -187500.02235174447, -187500.02235174447, -187500.02235174447, -187500.02235174447, 0.264, -0.006, 0.98, 192.0, 0.0, 0.0, 0.0, 0.0, 0.0, 0.0, 0.0, 0.0, 0.0, 1.677527014739832E9, 0.0, 2023-02-27 14:43:34.739
59.0, 8036.189739249914, -187500.02235174447, -187500.02235174447, -187500.02235174447, -187500.02235174447, -187500.02235174447, -187500.02235174447, -187500.02235174447, 0.264, -0.006, 0.98, 192.0, 0.0, 0.0, 0.0, 0.0, 0.0, 0.0, 0.0, 0.0, 0.0, 1.677527014739848E9, 0.0, 2023-02-27 14:43:34.739
60.0, 8505.419910600176, -187500.02235174447, -187500.02235174447, -187500.02235174447, -187500.02235174447, -187500.02235174447, -187500.02235174447, -187500.02235174447, 0.264, -0.006, 0.98, 192.0, 0.0, 0.0, 0.0, 0.0, 0.0, 0.0, 0.0, 0.0, 0.0, 1.677527014747385E9, 0.0, 2023-02-27 14:43:34.747
61.0, 8507.63273330125, -187500.02235174447, -187500.02235174447, -187500.02235174447, -187500.02235174447, -187500.02235174447, -187500.02235174447, -187500.02235174447, 0.264, -0.006, 0.98, 192.0, 0.0, 0.0, 0.0, 0.0, 0.0, 0.0, 0.0, 0.0, 0.0, 1.677527014747405E9, 0.0, 2023-02-27 14:43:34.747
62.0, 8042.515282930766, -187500.02235174447, -187500.02235174447, -187500.02235174447, -187500.02235174447, -187500.02235174447, -187500.02235174447, -187500.02235174447, 0.264, -0.006, 0.98, 192.0, 0.0, 0.0, 0.0, 0.0, 0.0, 0.0, 0.0, 0.0, 0.0, 1.677527014755247E9, 0.0, 2023-02-27 14:43:34.755
63.0, 7997.141241686492, -187500.02235174447, -187500.02235174447, -187500.02235174447, -187500.02235174447, -187500.02235174447, -187500.02235174447, -187500.02235174447, 0.264, -0.006, 0.98, 192.0, 0.0, 0.0, 0.0, 0.0, 0.0, 0.0, 0.0, 0.0, 0.0, 1.67752701475526E9, 0.0, 2023-02-27 14:43:34.755
64.0, 8393.549429601364, -187500.02235174447, -187500.02235174447, -187500.02235174447, -187500.02235174447, -187500.02235174447, -187500.02235174447, -187500.02235174447, 0.264, -0.006, 0.98, 192.0, 0.0, 0.0, 0.0, 0.0, 0.0, 0.0, 0.0, 0.0, 0.0, 1.677527014762353E9, 0.0, 2023-02-27 14:43:34.762
65.0, 8620.821967222926, -187500.02235174447, -187500.02235174447, -187500.02235174447, -187500.02235174447, -187500.02235174447, -187500.02235174447, -187500.02235174447, 0.264, -0.006, 0.98, 192.0, 0.0, 0.0, 0.0, 0.0, 0.0, 0.0, 0.0, 0.0, 0.0, 1.677527014762365E9, 0.0, 2023-02-27 14:43:34.762
66.0, 8271.888884531127, -187500.02235174447, -187500.02235174447, -187500.02235174447, -187500.02235174447, -187500.02235174447, -187500.02235174447, -187500.02235174447, 0.266, -0.004, 0.978, 192.0, 8.0, 80.0, 255.0, 224.0, 30.0, 144.0, 0.0, 0.0, 0.0, 1.677527014769566E9, 0.0, 2023-02-27 14:43:34.769
67.0, 8010.529936615221, -187500.02235174447, -187500.02235174447, -187500.02235174447, -187500.02235174447, -187500.02235174447, -187500.02235174447, -187500.02235174447, 0.266, -0.004, 0.978, 192.0, 0.0, 0.0, 0.0, 0.0, 0.0, 0.0, 0.0, 0.0, 0.0, 1.677527014777E9, 0.0, 2023-02-27 14:43:34.777
68.0, 8353.763324470918, -187500.02235174447, -187500.02235174447, -187500.02235174447, -187500.02235174447, -187500.02235174447, -187500.02235174447, -187500.02235174447, 0.266, -0.004, 0.978, 192.0, 0.0, 0.0, 0.0, 0.0, 0.0, 0.0, 0.0, 0.0, 0.0, 1.677527014777021E9, 0.0, 2023-02-27 14:43:34.777
69.0, 8750.59619553044, -187500.02235174447, -187500.02235174447, -187500.02235174447, -187500.02235174447, -187500.02235174447, -187500.02235174447, -187500.02235174447, 0.266, -0.004, 0.978, 192.0, 0.0, 0.0, 0.0, 0.0, 0.0, 0.0, 0.0, 0.0, 0.0, 1.677527014784964E9, 0.0, 2023-02-27 14:43:34.784
70.0, 8391.671883067118, -187500.02235174447, -187500.02235174447, -187500.02235174447, -187500.02235174447, -187500.02235174447, -187500.02235174447, -187500.02235174447, 0.266, -0.004, 0.978, 192.0, 0.0, 0.0, 0.0, 0.0, 0.0, 0.0, 0.0, 0.0, 0.0, 1.67752701478498E9, 0.0, 2023-02-27 14:43:34.784
71.0, 7909.4329964438675, -187500.02235174447, -187500.02235174447, -187500.02235174447, -187500.02235174447, -187500.02235174447, -187500.02235174447, -187500.02235174447, 0.266, -0.004, 0.978, 192.0, 0.0, 0.0, 0.0, 0.0, 0.0, 0.0, 0.0, 0.0, 0.0, 1.677527014791959E9, 0.0, 2023-02-27 14:43:34.791
72.0, 8244.73151501793, -187500.02235174447, -187500.02235174447, -187500.02235174447, -187500.02235174447, -187500.02235174447, -187500.02235174447, -187500.02235174447, 0.266, -0.004, 0.978, 192.0, 0.0, 0.0, 0.0, 0.0, 0.0, 0.0, 0.0, 0.0, 0.0, 1.67752701479197E9, 0.0, 2023-02-27 14:43:34.791
73.0, 8585.103879583345, -187500.02235174447, -187500.02235174447, -187500.02235174447, -187500.02235174447, -187500.02235174447, -187500.02235174447, -187500.02235174447, 0.266, -0.004, 0.978, 192.0, 0.0, 0.0, 0.0, 0.0, 0.0, 0.0, 0.0, 0.0, 0.0, 1.677527014799613E9, 0.0, 2023-02-27 14:43:34.799
74.0, 8444.824331381838, -187500.02235174447, -187500.02235174447, -187500.02235174447, -187500.02235174447, -187500.02235174447, -187500.02235174447, -187500.02235174447, 0.266, -0.004, 0.978, 192.0, 0.0, 0.0, 0.0, 0.0, 0.0, 0.0, 0.0, 0.0, 0.0, 1.677527014799628E9, 0.0, 2023-02-27 14:43:34.799
75.0, 8066.856332642596, -187500.02235174447, -187500.02235174447, -187500.02235174447, -187500.02235174447, -187500.02235174447, -187500.02235174447, -187500.02235174447, 0.266, -0.004, 0.978, 192.0, 0.0, 0.0, 0.0, 0.0, 0.0, 0.0, 0.0, 0.0, 0.0, 1.677527014807504E9, 0.0, 2023-02-27 14:43:34.807
76.0, 8190.170906802525, -187500.02235174447, -187500.02235174447, -187500.02235174447, -187500.02235174447, -187500.02235174447, -187500.02235174447, -187500.02235174447, 0.268, -0.006, 0.978, 192.0, 8.0, 96.0, 255.0, 208.0, 30.0, 144.0, 0.0, 0.0, 0.0, 1.67752701480752E9, 0.0, 2023-02-27 14:43:34.807
77.0, 8706.093872319922, -187500.02235174447, -187500.02235174447, -187500.02235174447, -187500.02235174447, -187500.02235174447, -187500.02235174447, -187500.02235174447, 0.268, -0.006, 0.978, 192.0, 0.0, 0.0, 0.0, 0.0, 0.0, 0.0, 0.0, 0.0, 0.0, 1.677527014815771E9, 0.0, 2023-02-27 14:43:34.815
78.0, 8647.129970446822, -187500.02235174447, -187500.02235174447, -187500.02235174447, -187500.02235174447, -187500.02235174447, -187500.02235174447, -187500.02235174447, 0.268, -0.006, 0.978, 192.0, 0.0, 0.0, 0.0, 0.0, 0.0, 0.0, 0.0, 0.0, 0.0, 1.677527014815796E9, 0.0, 2023-02-27 14:43:34.815
79.0, 8074.590036224132, -187500.02235174447, -187500.02235174447, -187500.02235174447, -187500.02235174447, -187500.02235174447, -187500.02235174447, -187500.02235174447, 0.268, -0.006, 0.978, 192.0, 0.0, 0.0, 0.0, 0.0, 0.0, 0.0, 0.0, 0.0, 0.0, 1.677527014822048E9, 0.0, 2023-02-27 14:43:34.822
80.0, 8073.070117601171, -187500.02235174447, -187500.02235174447, -187500.02235174447, -187500.02235174447, -187500.02235174447, -187500.02235174447, -187500.02235174447, 0.268, -0.006, 0.978, 192.0, 0.0, 0.0, 0.0, 0.0, 0.0, 0.0, 0.0, 0.0, 0.0, 1.677527014822069E9, 0.0, 2023-02-27 14:43:34.822
81.0, 8441.069238313346, -187500.02235174447, -187500.02235174447, -187500.02235174447, -187500.02235174447, -187500.02235174447, -187500.02235174447, -187500.02235174447, 0.268, -0.006, 0.978, 192.0, 0.0, 0.0, 0.0, 0.0, 0.0, 0.0, 0.0, 0.0, 0.0, 1.677527014829207E9, 0.0, 2023-02-27 14:43:34.829
82.0, 8500.748396009016, -187500.02235174447, -187500.02235174447, -187500.02235174447, -187500.02235174447, -187500.02235174447, -187500.02235174447, -187500.02235174447, 0.268, -0.006, 0.978, 192.0, 0.0, 0.0, 0.0, 0.0, 0.0, 0.0, 0.0, 0.0, 0.0, 1.677527014837249E9, 0.0, 2023-02-27 14:43:34.837
83.0, 8105.815423228196, -187500.02235174447, -187500.02235174447, -187500.02235174447, -187500.02235174447, -187500.02235174447, -187500.02235174447, -187500.02235174447, 0.268, -0.006, 0.978, 192.0, 0.0, 0.0, 0.0, 0.0, 0.0, 0.0, 0.0, 0.0, 0.0, 1.677527014837261E9, 0.0, 2023-02-27 14:43:34.837
84.0, 8197.636389450598, -187500.02235174447, -187500.02235174447, -187500.02235174447, -187500.02235174447, -187500.02235174447, -187500.02235174447, -187500.02235174447, 0.268, -0.006, 0.978, 192.0, 0.0, 0.0, 0.0, 0.0, 0.0, 0.0, 0.0, 0.0, 0.0, 1.677527014845212E9, 0.0, 2023-02-27 14:43:34.845
85.0, 8548.894053565748, -187500.02235174447, -187500.02235174447, -187500.02235174447, -187500.02235174447, -187500.02235174447, -187500.02235174447, -187500.02235174447, 0.264, -0.006, 0.974, 192.0, 8.0, 64.0, 255.0, 208.0, 30.0, 112.0, 0.0, 0.0, 0.0, 1.677527014845226E9, 0.0, 2023-02-27 14:43:34.845
86.0, 8470.506485760985, -187500.02235174447, -187500.02235174447, -187500.02235174447, -187500.02235174447, -187500.02235174447, -187500.02235174447, -187500.02235174447, 0.264, -0.006, 0.974, 192.0, 0.0, 0.0, 0.0, 0.0, 0.0, 0.0, 0.0, 0.0, 0.0, 1.677527014851894E9, 0.0, 2023-02-27 14:43:34.851
87.0, 8194.95418011596, -187500.02235174447, -187500.02235174447, -187500.02235174447, -187500.02235174447, -187500.02235174447, -187500.02235174447, -187500.02235174447, 0.264, -0.006, 0.974, 192.0, 0.0, 0.0, 0.0, 0.0, 0.0, 0.0, 0.0, 0.0, 0.0, 1.677527014851909E9, 0.0, 2023-02-27 14:43:34.851
88.0, 8049.73489638983, -187500.02235174447, -187500.02235174447, -187500.02235174447, -187500.02235174447, -187500.02235174447, -187500.02235174447, -187500.02235174447, 0.264, -0.006, 0.974, 192.0, 0.0, 0.0, 0.0, 0.0, 0.0, 0.0, 0.0, 0.0, 0.0, 1.677527014859797E9, 0.0, 2023-02-27 14:43:34.859
89.0, 8411.631990865706, -187500.02235174447, -187500.02235174447, -187500.02235174447, -187500.02235174447, -187500.02235174447, -187500.02235174447, -187500.02235174447, 0.264, -0.006, 0.974, 192.0, 0.0, 0.0, 0.0, 0.0, 0.0, 0.0, 0.0, 0.0, 0.0, 1.677527014859821E9, 0.0, 2023-02-27 14:43:34.859
90.0, 8577.772507402004, -187500.02235174447, -187500.02235174447, -187500.02235174447, -187500.02235174447, -187500.02235174447, -187500.02235174447, -187500.02235174447, 0.264, -0.006, 0.974, 192.0, 0.0, 0.0, 0.0, 0.0, 0.0, 0.0, 0.0, 0.0, 0.0, 1.67752701486906E9, 0.0, 2023-02-27 14:43:34.869
91.0, 8234.472064312944, -187500.02235174447, -187500.02235174447, -187500.02235174447, -187500.02235174447, -187500.02235174447, -187500.02235174447, -187500.02235174447, 0.264, -0.006, 0.974, 192.0, 0.0, 0.0, 0.0, 0.0, 0.0, 0.0, 0.0, 0.0, 0.0, 1.677527014869076E9, 0.0, 2023-02-27 14:43:34.869
92.0, 8001.276314410725, -187500.02235174447, -187500.02235174447, -187500.02235174447, -187500.02235174447, -187500.02235174447, -187500.02235174447, -187500.02235174447, 0.264, -0.006, 0.974, 192.0, 0.0, 0.0, 0.0, 0.0, 0.0, 0.0, 0.0, 0.0, 0.0, 1.677527014875091E9, 0.0, 2023-02-27 14:43:34.875
93.0, 8286.417518427077, -187500.02235174447, -187500.02235174447, -187500.02235174447, -187500.02235174447, -187500.02235174447, -187500.02235174447, -187500.02235174447, 0.264, -0.006, 0.974, 192.0, 0.0, 0.0, 0.0, 0.0, 0.0, 0.0, 0.0, 0.0, 0.0, 1.677527014875107E9, 0.0, 2023-02-27 14:43:34.875
94.0, 8667.38065092333, -187500.02235174447, -187500.02235174447, -187500.02235174447, -187500.02235174447, -187500.02235174447, -187500.02235174447, -187500.02235174447, 0.264, -0.006, 0.974, 192.0, 0.0, 0.0, 0.0, 0.0, 0.0, 0.0, 0.0, 0.0, 0.0, 1.677527014882347E9, 0.0, 2023-02-27 14:43:34.882
95.0, 8349.583548257775, -187500.02235174447, -187500.02235174447, -187500.02235174447, -187500.02235174447, -187500.02235174447, -187500.02235174447, -187500.02235174447, 0.264, -0.004, 0.976, 192.0, 8.0, 64.0, 255.0, 224.0, 30.0, 128.0, 0.0, 0.0, 0.0, 1.677527014882362E9, 0.0, 2023-02-27 14:43:34.882
96.0, 7989.3181311271355, -187500.02235174447, -187500.02235174447, -187500.02235174447, -187500.02235174447, -187500.02235174447, -187500.02235174447, -187500.02235174447, 0.264, -0.004, 0.976, 192.0, 0.0, 0.0, 0.0, 0.0, 0.0, 0.0, 0.0, 0.0, 0.0, 1.677527014889507E9, 0.0, 2023-02-27 14:43:34.889
97.0, 8244.53034931783, -187500.02235174447, -187500.02235174447, -187500.02235174447, -187500.02235174447, -187500.02235174447, -187500.02235174447, -187500.02235174447, 0.264, -0.004, 0.976, 192.0, 0.0, 0.0, 0.0, 0.0, 0.0, 0.0, 0.0, 0.0, 0.0, 1.677527014897515E9, 0.0, 2023-02-27 14:43:34.897
98.0, 8677.796563839504, -187500.02235174447, -187500.02235174447, -187500.02235174447, -187500.02235174447, -187500.02235174447, -187500.02235174447, -187500.02235174447, 0.264, -0.004, 0.976, 192.0, 0.0, 0.0, 0.0, 0.0, 0.0, 0.0, 0.0, 0.0, 0.0, 1.677527014897539E9, 0.0, 2023-02-27 14:43:34.897
99.0, 8494.691073261629, -187500.02235174447, -187500.02235174447, -187500.02235174447, -187500.02235174447, -187500.02235174447, -187500.02235174447, -187500.02235174447, 0.264, -0.004, 0.976, 192.0, 0.0, 0.0, 0.0, 0.0, 0.0, 0.0, 0.0, 0.0, 0.0, 1.677527014904505E9, 0.0, 2023-02-27 14:43:34.904
100.0, 7990.100442183071, -187500.02235174447, -187500.02235174447, -187500.02235174447, -187500.02235174447, -187500.02235174447, -187500.02235174447, -187500.02235174447, 0.264, -0.004, 0.976, 192.0, 0.0, 0.0, 0.0, 0.0, 0.0, 0.0, 0.0, 0.0, 0.0, 1.677527014904523E9, 0.0, 2023-02-27 14:43:34.904
101.0, 8432.217947509045, -187500.02235174447, -187500.02235174447, -187500.02235174447, -187500.02235174447, -187500.02235174447, -187500.02235174447, -187500.02235174447, 0.264, -0.004, 0.976, 192.0, 0.0, 0.0, 0.0, 0.0, 0.0, 0.0, 0.0, 0.0, 0.0, 1.677527014912223E9, 0.0, 2023-02-27 14:43:34.912
102.0, 8846.663993199349, -187500.02235174447, -187500.02235174447, -187500.02235174447, -187500.02235174447, -187500.02235174447, -187500.02235174447, -187500.02235174447, 0.264, -0.004, 0.976, 192.0, 0.0, 0.0, 0.0, 0.0, 0.0, 0.0, 0.0, 0.0, 0.0, 1.677527014912242E9, 0.0, 2023-02-27 14:43:34.912
103.0, 8315.02775132987, -187500.02235174447, -187500.02235174447, -187500.02235174447, -187500.02235174447, -187500.02235174447, -187500.02235174447, -187500.02235174447, 0.264, -0.004, 0.976, 192.0, 0.0, 0.0, 0.0, 0.0, 0.0, 0.0, 0.0, 0.0, 0.0, 1.677527014920042E9, 0.0, 2023-02-27 14:43:34.920
104.0, 7890.456365401312, -187500.02235174447, -187500.02235174447, -187500.02235174447, -187500.02235174447, -187500.02235174447, -187500.02235174447, -187500.02235174447, 0.264, -0.004, 0.976, 192.0, 0.0, 0.0, 0.0, 0.0, 0.0, 0.0, 0.0, 0.0, 0.0, 1.677527014920057E9, 0.0, 2023-02-27 14:43:34.920
105.0, 8023.471596654845, -187500.02235174447, -187500.02235174447, -187500.02235174447, -187500.02235174447, -187500.02235174447, -187500.02235174447, -187500.02235174447, 0.264, -0.01, 0.978, 192.0, 8.0, 64.0, 255.0, 176.0, 30.0, 144.0, 0.0, 0.0, 0.0, 1.67752701492717E9, 0.0, 2023-02-27 14:43:34.927
106.0, 8536.578242370873, -187500.02235174447, -187500.02235174447, -187500.02235174447, -187500.02235174447, -187500.02235174447, -187500.02235174447, -187500.02235174447, 0.264, -0.01, 0.978, 192.0, 0.0, 0.0, 0.0, 0.0, 0.0, 0.0, 0.0, 0.0, 0.0, 1.677527014927185E9, 0.0, 2023-02-27 14:43:34.927
107.0, 8619.078531155412, -187500.02235174447, -187500.02235174447, -187500.02235174447, -187500.02235174447, -187500.02235174447, -187500.02235174447, -187500.02235174447, 0.264, -0.01, 0.978, 192.0, 0.0, 0.0, 0.0, 0.0, 0.0, 0.0, 0.0, 0.0, 0.0, 1.677527014934768E9, 0.0, 2023-02-27 14:43:34.934
108.0, 8190.57323820272, -187500.02235174447, -187500.02235174447, -187500.02235174447, -187500.02235174447, -187500.02235174447, -187500.02235174447, -187500.02235174447, 0.264, -0.01, 0.978, 192.0, 0.0, 0.0, 0.0, 0.0, 0.0, 0.0, 0.0, 0.0, 0.0, 1.677527014934784E9, 0.0, 2023-02-27 14:43:34.934
109.0, 8129.821196773196, -187500.02235174447, -187500.02235174447, -187500.02235174447, -187500.02235174447, -187500.02235174447, -187500.02235174447, -187500.02235174447, 0.264, -0.01, 0.978, 192.0, 0.0, 0.0, 0.0, 0.0, 0.0, 0.0, 0.0, 0.0, 0.0, 1.67752701494277E9, 0.0, 2023-02-27 14:43:34.942
110.0, 8462.549264734896, -187500.02235174447, -187500.02235174447, -187500.02235174447, -187500.02235174447, -187500.02235174447, -187500.02235174447, -187500.02235174447, 0.264, -0.01, 0.978, 192.0, 0.0, 0.0, 0.0, 0.0, 0.0, 0.0, 0.0, 0.0, 0.0, 1.677527014942793E9, 0.0, 2023-02-27 14:43:34.942
111.0, 8536.600594115329, -187500.02235174447, -187500.02235174447, -187500.02235174447, -187500.02235174447, -187500.02235174447, -187500.02235174447, -187500.02235174447, 0.264, -0.01, 0.978, 192.0, 0.0, 0.0, 0.0, 0.0, 0.0, 0.0, 0.0, 0.0, 0.0, 1.677527014949765E9, 0.0, 2023-02-27 14:43:34.949
112.0, 8168.579121658698, -187500.02235174447, -187500.02235174447, -187500.02235174447, -187500.02235174447, -187500.02235174447, -187500.02235174447, -187500.02235174447, 0.264, -0.01, 0.978, 192.0, 0.0, 0.0, 0.0, 0.0, 0.0, 0.0, 0.0, 0.0, 0.0, 1.677527014957009E9, 0.0, 2023-02-27 14:43:34.957
113.0, 8008.1606517029595, -187500.02235174447, -187500.02235174447, -187500.02235174447, -187500.02235174447, -187500.02235174447, -187500.02235174447, -187500.02235174447, 0.264, -0.01, 0.978, 192.0, 0.0, 0.0, 0.0, 0.0, 0.0, 0.0, 0.0, 0.0, 0.0, 1.677527014957027E9, 0.0, 2023-02-27 14:43:34.957
114.0, 8403.630066350706, -187500.02235174447, -187500.02235174447, -187500.02235174447, -187500.02235174447, -187500.02235174447, -187500.02235174447, -187500.02235174447, 0.264, -0.01, 0.978, 192.0, 0.0, 0.0, 0.0, 0.0, 0.0, 0.0, 0.0, 0.0, 0.0, 1.677527014964333E9, 0.0, 2023-02-27 14:43:34.964
115.0, 8592.815231420425, -187500.02235174447, -187500.02235174447, -187500.02235174447, -187500.02235174447, -187500.02235174447, -187500.02235174447, -187500.02235174447, 0.266, -0.012, 0.978, 192.0, 8.0, 80.0, 255.0, 160.0, 30.0, 144.0, 0.0, 0.0, 0.0, 1.677527014964345E9, 0.0, 2023-02-27 14:43:34.964
116.0, 8251.258224398878, -187500.02235174447, -187500.02235174447, -187500.02235174447, -187500.02235174447, -187500.02235174447, -187500.02235174447, -187500.02235174447, 0.266, -0.012, 0.978, 192.0, 0.0, 0.0, 0.0, 0.0, 0.0, 0.0, 0.0, 0.0, 0.0, 1.677527014972319E9, 0.0, 2023-02-27 14:43:34.972
117.0, 7978.879866466506, -187500.02235174447, -187500.02235174447, -187500.02235174447, -187500.02235174447, -187500.02235174447, -187500.02235174447, -187500.02235174447, 0.266, -0.012, 0.978, 192.0, 0.0, 0.0, 0.0, 0.0, 0.0, 0.0, 0.0, 0.0, 0.0, 1.677527014972334E9, 0.0, 2023-02-27 14:43:34.972
118.0, 8275.867495044171, -187500.02235174447, -187500.02235174447, -187500.02235174447, -187500.02235174447, -187500.02235174447, -187500.02235174447, -187500.02235174447, 0.266, -0.012, 0.978, 192.0, 0.0, 0.0, 0.0, 0.0, 0.0, 0.0, 0.0, 0.0, 0.0, 1.677527014980445E9, 0.0, 2023-02-27 14:43:34.980
119.0, 8637.205795908665, -187500.02235174447, -187500.02235174447, -187500.02235174447, -187500.02235174447, -187500.02235174447, -187500.02235174447, -187500.02235174447, 0.266, -0.012, 0.978, 192.0, 0.0, 0.0, 0.0, 0.0, 0.0, 0.0, 0.0, 0.0, 0.0, 1.677527014980464E9, 0.0, 2023-02-27 14:43:34.980
120.0, 8516.036989216445, -187500.02235174447, -187500.02235174447, -187500.02235174447, -187500.02235174447, -187500.02235174447, -187500.02235174447, -187500.02235174447, 0.266, -0.012, 0.978, 192.0, 0.0, 0.0, 0.0, 0.0, 0.0, 0.0, 0.0, 0.0, 0.0, 1.677527014986955E9, 0.0, 2023-02-27 14:43:34.986
121.0, 8267.26207342888, -187500.02235174447, -187500.02235174447, -187500.02235174447, -187500.02235174447, -187500.02235174447, -187500.02235174447, -187500.02235174447, 0.266, -0.012, 0.978, 192.0, 0.0, 0.0, 0.0, 0.0, 0.0, 0.0, 0.0, 0.0, 0.0, 1.677527014986979E9, 0.0, 2023-02-27 14:43:34.986
122.0, 8164.466400678922, -187500.02235174447, -187500.02235174447, -187500.02235174447, -187500.02235174447, -187500.02235174447, -187500.02235174447, -187500.02235174447, 0.266, -0.012, 0.978, 192.0, 0.0, 0.0, 0.0, 0.0, 0.0, 0.0, 0.0, 0.0, 0.0, 1.677527014995268E9, 0.0, 2023-02-27 14:43:34.995
123.0, 8561.992175816558, -187500.02235174447, -187500.02235174447, -187500.02235174447, -187500.02235174447, -187500.02235174447, -187500.02235174447, -187500.02235174447, 0.266, -0.012, 0.978, 192.0, 0.0, 0.0, 0.0, 0.0, 0.0, 0.0, 0.0, 0.0, 0.0, 1.677527014995286E9, 0.0, 2023-02-27 14:43:34.995
124.0, 8456.380183265232, -187500.02235174447, -187500.02235174447, -187500.02235174447, -187500.02235174447, -187500.02235174447, -187500.02235174447, -187500.02235174447, 0.266, -0.012, 0.978, 192.0, 0.0, 0.0, 0.0, 0.0, 0.0, 0.0, 0.0, 0.0, 0.0, 1.677527015003027E9, 0.0, 2023-02-27 14:43:35.003
125.0, 8044.661050398476, -187500.02235174447, -187500.02235174447, -187500.02235174447, -187500.02235174447, -187500.02235174447, -187500.02235174447, -187500.02235174447, 0.268, -0.008, 0.976, 192.0, 8.0, 96.0, 255.0, 192.0, 30.0, 128.0, 0.0, 0.0, 0.0, 1.677527015003044E9, 0.0, 2023-02-27 14:43:35.003
126.0, 8194.507145226855, -187500.02235174447, -187500.02235174447, -187500.02235174447, -187500.02235174447, -187500.02235174447, -187500.02235174447, -187500.02235174447, 0.268, -0.008, 0.976, 192.0, 0.0, 0.0, 0.0, 0.0, 0.0, 0.0, 0.0, 0.0, 0.0, 1.677527015010059E9, 0.0, 2023-02-27 14:43:35.010
127.0, 8373.499914824954, -187500.02235174447, -187500.02235174447, -187500.02235174447, -187500.02235174447, -187500.02235174447, -187500.02235174447, -187500.02235174447, 0.268, -0.008, 0.976, 192.0, 0.0, 0.0, 0.0, 0.0, 0.0, 0.0, 0.0, 0.0, 0.0, 1.677527015010075E9, 0.0, 2023-02-27 14:43:35.010
128.0, 8573.145696299756, -187500.02235174447, -187500.02235174447, -187500.02235174447, -187500.02235174447, -187500.02235174447, -187500.02235174447, -187500.02235174447, 0.268, -0.008, 0.976, 192.0, 0.0, 0.0, 0.0, 0.0, 0.0, 0.0, 0.0, 0.0, 0.0, 1.677527015016701E9, 0.0, 2023-02-27 14:43:35.016
129.0, 8228.660610754563, -187500.02235174447, -187500.02235174447, -187500.02235174447, -187500.02235174447, -187500.02235174447, -187500.02235174447, -187500.02235174447, 0.268, -0.008, 0.976, 192.0, 0.0, 0.0, 0.0, 0.0, 0.0, 0.0, 0.0, 0.0, 0.0, 1.677527015024594E9, 0.0, 2023-02-27 14:43:35.024
130.0, 8135.118560209104, -187500.02235174447, -187500.02235174447, -187500.02235174447, -187500.02235174447, -187500.02235174447, -187500.02235174447, -187500.02235174447, 0.268, -0.008, 0.976, 192.0, 0.0, 0.0, 0.0, 0.0, 0.0, 0.0, 0.0, 0.0, 0.0, 1.677527015024615E9, 0.0, 2023-02-27 14:43:35.024
131.0, 8482.665834744672, -187500.02235174447, -187500.02235174447, -187500.02235174447, -187500.02235174447, -187500.02235174447, -187500.02235174447, -187500.02235174447, 0.268, -0.008, 0.976, 192.0, 0.0, 0.0, 0.0, 0.0, 0.0, 0.0, 0.0, 0.0, 0.0, 1.677527015032708E9, 0.0, 2023-02-27 14:43:35.032
132.0, 8465.924378147647, -187500.02235174447, -187500.02235174447, -187500.02235174447, -187500.02235174447, -187500.02235174447, -187500.02235174447, -187500.02235174447, 0.268, -0.008, 0.976, 192.0, 0.0, 0.0, 0.0, 0.0, 0.0, 0.0, 0.0, 0.0, 0.0, 1.677527015032727E9, 0.0, 2023-02-27 14:43:35.032
133.0, 8081.139097349536, -187500.02235174447, -187500.02235174447, -187500.02235174447, -187500.02235174447, -187500.02235174447, -187500.02235174447, -187500.02235174447, 0.268, -0.008, 0.976, 192.0, 0.0, 0.0, 0.0, 0.0, 0.0, 0.0, 0.0, 0.0, 0.0, 1.677527015039894E9, 0.0, 2023-02-27 14:43:35.039
134.0, 7998.482346353811, -187500.02235174447, -187500.02235174447, -187500.02235174447, -187500.02235174447, -187500.02235174447, -187500.02235174447, -187500.02235174447, 0.268, -0.008, 0.976, 192.0, 0.0, 0.0, 0.0, 0.0, 0.0, 0.0, 0.0, 0.0, 0.0, 1.677527015039914E9, 0.0, 2023-02-27 14:43:35.039
135.0, 8419.94683980308, -187500.02235174447, -187500.02235174447, -187500.02235174447, -187500.02235174447, -187500.02235174447, -187500.02235174447, -187500.02235174447, 0.268, -0.008, 0.966, 192.0, 8.0, 96.0, 255.0, 192.0, 30.0, 48.0, 0.0, 0.0, 0.0, 1.677527015047176E9, 0.0, 2023-02-27 14:43:35.047
136.0, 8606.002760649057, -187500.02235174447, -187500.02235174447, -187500.02235174447, -187500.02235174447, -187500.02235174447, -187500.02235174447, -187500.02235174447, 0.268, -0.008, 0.966, 192.0, 0.0, 0.0, 0.0, 0.0, 0.0, 0.0, 0.0, 0.0, 0.0, 1.677527015047192E9, 0.0, 2023-02-27 14:43:35.047
137.0, 8217.127110615625, -187500.02235174447, -187500.02235174447, -187500.02235174447, -187500.02235174447, -187500.02235174447, -187500.02235174447, -187500.02235174447, 0.268, -0.008, 0.966, 192.0, 0.0, 0.0, 0.0, 0.0, 0.0, 0.0, 0.0, 0.0, 0.0, 1.677527015055378E9, 0.0, 2023-02-27 14:43:35.055
138.0, 8006.216049935348, -187500.02235174447, -187500.02235174447, -187500.02235174447, -187500.02235174447, -187500.02235174447, -187500.02235174447, -187500.02235174447, 0.268, -0.008, 0.966, 192.0, 0.0, 0.0, 0.0, 0.0, 0.0, 0.0, 0.0, 0.0, 0.0, 1.677527015055391E9, 0.0, 2023-02-27 14:43:35.055
139.0, 8375.288054381377, -187500.02235174447, -187500.02235174447, -187500.02235174447, -187500.02235174447, -187500.02235174447, -187500.02235174447, -187500.02235174447, 0.268, -0.008, 0.966, 192.0, 0.0, 0.0, 0.0, 0.0, 0.0, 0.0, 0.0, 0.0, 0.0, 1.677527015063329E9, 0.0, 2023-02-27 14:43:35.063
140.0, 8604.818118192927, -187500.02235174447, -187500.02235174447, -187500.02235174447, -187500.02235174447, -187500.02235174447, -187500.02235174447, -187500.02235174447, 0.268, -0.008, 0.966, 192.0, 0.0, 0.0, 0.0, 0.0, 0.0, 0.0, 0.0, 0.0, 0.0, 1.677527015063342E9, 0.0, 2023-02-27 14:43:35.063
