%OpenBCI Raw EEG Data
%Number of channels = 8
%Sample Rate = 250 Hz
%Board = OpenBCI_GUI$BoardCytonSerial
Sample Index, EXG Channel 0, EXG Channel 1, EXG Channel 2, EXG Channel 3, EXG Channel 4, EXG Channel 5, EXG Channel 6, EXG Channel 7, Accel Channel 0, Accel Channel 1, Accel Channel 2, Other, Other, Other, Other, Other, Other, Other, Analog Channel 0, Analog Channel 1, Analog Channel 2, Timestamp, Other, Timestamp (Formatted)
147.0, 6105.356646222669, -187500.02235174447, -187500.02235174447, -187500.02235174447, -187500.02235174447, -187500.02235174447, -187500.02235174447, -187500.02235174447, 0.0, 0.0, 0.0, 192.0, 0.0, 0.0, 0.0, 0.0, 0.0, 0.0, 0.0, 0.0, 0.0, 1.677527052955067E9, 0.0, 2023-02-27 14:44:12.955
148.0, 5836.621622636512, -187500.02235174447, -187500.02235174447, -187500.02235174447, -187500.02235174447, -187500.02235174447, -187500.02235174447, -187500.02235174447, 0.0, 0.0, 0.0, 192.0, 0.0, 0.0, 0.0, 0.0, 0.0, 0.0, 0.0, 0.0, 0.0, 1.677527052955091E9, 0.0, 2023-02-27 14:44:12.955
149.0, 5342.558663196405, -187500.02235174447, -187500.02235174447, -187500.02235174447, -187500.02235174447, -187500.02235174447, -187500.02235174447, -187500.02235174447, 0.0, 0.0, 0.0, 192.0, 0.0, 0.0, 0.0, 0.0, 0.0, 0.0, 0.0, 0.0, 0.0, 1.677527052955101E9, 0.0, 2023-02-27 14:44:12.955
150.0, 5558.565921612492, -187500.02235174447, -187500.02235174447, -187500.02235174447, -187500.02235174447, -187500.02235174447, -187500.02235174447, -187500.02235174447, 0.0, 0.0, 0.0, 192.0, 0.0, 0.0, 0.0, 0.0, 0.0, 0.0, 0.0, 0.0, 0.0, 1.67752705295511E9, 0.0, 2023-02-27 14:44:12.955
0.0, 0.0, 0.0, 0.0, 0.0, 0.0, 0.0, 0.0, 0.0, 0.256, -0.012, 0.976, 192.0, 8.0, 0.0, 255.0, 160.0, 30.0, 128.0, 0.0, 0.0, 0.0, 1.677527053062335E9, 0.0, 2023-02-27 14:44:13.062
1.0, 8979.053375608131, -187500.02235174447, -187500.02235174447, -187500.02235174447, -187500.02235174447, -187500.02235174447, -187500.02235174447, -187500.02235174447, 0.256, -0.012, 0.976, 192.0, 0.0, 0.0, 0.0, 0.0, 0.0, 0.0, 0.0, 0.0, 0.0, 1.677527053075859E9, 0.0, 2023-02-27 14:44:13.075
2.0, 8446.031325582424, -187500.02235174447, -187500.02235174447, -187500.02235174447, -187500.02235174447, -187500.02235174447, -187500.02235174447, -187500.02235174447, 0.256, -0.012, 0.976, 192.0, 0.0, 0.0, 0.0, 0.0, 0.0, 0.0, 0.0, 0.0, 0.0, 1.677527053082002E9, 0.0, 2023-02-27 14:44:13.082
3.0, 8504.816413499882, -187500.02235174447, -187500.02235174447, -187500.02235174447, -187500.02235174447, -187500.02235174447, -187500.02235174447, -187500.02235174447, 0.256, -0.012, 0.976, 192.0, 0.0, 0.0, 0.0, 0.0, 0.0, 0.0, 0.0, 0.0, 0.0, 1.677527053082026E9, 0.0, 2023-02-27 14:44:13.082
4.0, 9206.415320207516, -187500.02235174447, -187500.02235174447, -187500.02235174447, -187500.02235174447, -187500.02235174447, -187500.02235174447, -187500.02235174447, 0.256, -0.012, 0.976, 192.0, 0.0, 0.0, 0.0, 0.0, 0.0, 0.0, 0.0, 0.0, 0.0, 1.677527053089777E9, 0.0, 2023-02-27 14:44:13.089
5.0, 8954.935843340856, -187500.02235174447, -187500.02235174447, -187500.02235174447, -187500.02235174447, -187500.02235174447, -187500.02235174447, -187500.02235174447, 0.256, -0.012, 0.976, 192.0, 0.0, 0.0, 0.0, 0.0, 0.0, 0.0, 0.0, 0.0, 0.0, 1.677527053089794E9, 0.0, 2023-02-27 14:44:13.089
6.0, 8499.139070408233, -187500.02235174447, -187500.02235174447, -187500.02235174447, -187500.02235174447, -187500.02235174447, -187500.02235174447, -187500.02235174447, 0.256, -0.012, 0.976, 192.0, 0.0, 0.0, 0.0, 0.0, 0.0, 0.0, 0.0, 0.0, 0.0, 1.677527053097828E9, 0.0, 2023-02-27 14:44:13.097
7.0, 8528.933945767158, -187500.02235174447, -187500.02235174447, -187500.02235174447, -187500.02235174447, -187500.02235174447, -187500.02235174447, -187500.02235174447, 0.256, -0.012, 0.976, 192.0, 0.0, 0.0, 0.0, 0.0, 0.0, 0.0, 0.0, 0.0, 0.0, 1.677527053097844E9, 0.0, 2023-02-27 14:44:13.097
8.0, 8924.58217437055, -187500.02235174447, -187500.02235174447, -187500.02235174447, -187500.02235174447, -187500.02235174447, -187500.02235174447, -187500.02235174447, 0.262, -0.01, 0.974, 192.0, 8.0, 48.0, 255.0, 176.0, 30.0, 112.0, 0.0, 0.0, 0.0, 1.677527053104347E9, 0.0, 2023-02-27 14:44:13.104
9.0, 9056.502170145772, -187500.02235174447, -187500.02235174447, -187500.02235174447, -187500.02235174447, -187500.02235174447, -187500.02235174447, -187500.02235174447, 0.262, -0.01, 0.974, 192.0, 0.0, 0.0, 0.0, 0.0, 0.0, 0.0, 0.0, 0.0, 0.0, 1.677527053104364E9, 0.0, 2023-02-27 14:44:13.104
10.0, 8709.826613643958, -187500.02235174447, -187500.02235174447, -187500.02235174447, -187500.02235174447, -187500.02235174447, -187500.02235174447, -187500.02235174447, 0.262, -0.01, 0.974, 192.0, 0.0, 0.0, 0.0, 0.0, 0.0, 0.0, 0.0, 0.0, 0.0, 1.677527053112385E9, 0.0, 2023-02-27 14:44:13.112
11.0, 8540.534501139462, -187500.02235174447, -187500.02235174447, -187500.02235174447, -187500.02235174447, -187500.02235174447, -187500.02235174447, -187500.02235174447, 0.262, -0.01, 0.974, 192.0, 0.0, 0.0, 0.0, 0.0, 0.0, 0.0, 0.0, 0.0, 0.0, 1.677527053112404E9, 0.0, 2023-02-27 14:44:13.112
12.0, 8814.656295139348, -187500.02235174447, -187500.02235174447, -187500.02235174447, -187500.02235174447, -187500.02235174447, -187500.02235174447, -187500.02235174447, 0.262, -0.01, 0.974, 192.0, 0.0, 0.0, 0.0, 0.0, 0.0, 0.0, 0.0, 0.0, 0.0, 1.677527053120391E9, 0.0, 2023-02-27 14:44:13.120
13.0, 9122.261002333284, -187500.02235174447, -187500.02235174447, -187500.02235174447, -187500.02235174447, -187500.02235174447, -187500.02235174447, -187500.02235174447, 0.262, -0.01, 0.974, 192.0, 0.0, 0.0, 0.0, 0.0, 0.0, 0.0, 0.0, 0.0, 0.0, 1.677527053120414E9, 0.0, 2023-02-27 14:44:13.120
14.0, 8722.745921939126, -187500.02235174447, -187500.02235174447, -187500.02235174447, -187500.02235174447, -187500.02235174447, -187500.02235174447, -187500.02235174447, 0.262, -0.01, 0.974, 192.0, 0.0, 0.0, 0.0, 0.0, 0.0, 0.0, 0.0, 0.0, 0.0, 1.67752705312708E9, 0.0, 2023-02-27 14:44:13.127
15.0, 8467.600758981796, -187500.02235174447, -187500.02235174447, -187500.02235174447, -187500.02235174447, -187500.02235174447, -187500.02235174447, -187500.02235174447, 0.262, -0.01, 0.974, 192.0, 0.0, 0.0, 0.0, 0.0, 0.0, 0.0, 0.0, 0.0, 0.0, 1.677527053127094E9, 0.0, 2023-02-27 14:44:13.127
16.0, 8777.485344110173, -187500.02235174447, -187500.02235174447, -187500.02235174447, -187500.02235174447, -187500.02235174447, -187500.02235174447, -187500.02235174447, 0.262, -0.01, 0.974, 192.0, 0.0, 0.0, 0.0, 0.0, 0.0, 0.0, 0.0, 0.0, 0.0, 1.677527053134149E9, 0.0, 2023-02-27 14:44:13.134
17.0, 9219.222869780406, -187500.02235174447, -187500.02235174447, -187500.02235174447, -187500.02235174447, -187500.02235174447, -187500.02235174447, -187500.02235174447, 0.264, -0.01, 0.978, 192.0, 8.0, 64.0, 255.0, 176.0, 30.0, 144.0, 0.0, 0.0, 0.0, 1.677527053142136E9, 0.0, 2023-02-27 14:44:13.142
18.0, 8834.661106426849, -187500.02235174447, -187500.02235174447, -187500.02235174447, -187500.02235174447, -187500.02235174447, -187500.02235174447, -187500.02235174447, 0.264, -0.01, 0.978, 192.0, 0.0, 0.0, 0.0, 0.0, 0.0, 0.0, 0.0, 0.0, 0.0, 1.677527053142153E9, 0.0, 2023-02-27 14:44:13.142
19.0, 8464.650328713695, -187500.02235174447, -187500.02235174447, -187500.02235174447, -187500.02235174447, -187500.02235174447, -187500.02235174447, -187500.02235174447, 0.264, -0.01, 0.978, 192.0, 0.0, 0.0, 0.0, 0.0, 0.0, 0.0, 0.0, 0.0, 0.0, 1.67752705315008E9, 0.0, 2023-02-27 14:44:13.150
20.0, 8631.573156305929, -187500.02235174447, -187500.02235174447, -187500.02235174447, -187500.02235174447, -187500.02235174447, -187500.02235174447, -187500.02235174447, 0.264, -0.01, 0.978, 192.0, 0.0, 0.0, 0.0, 0.0, 0.0, 0.0, 0.0, 0.0, 0.0, 1.677527053150096E9, 0.0, 2023-02-27 14:44:13.150
21.0, 9103.776109668745, -187500.02235174447, -187500.02235174447, -187500.02235174447, -187500.02235174447, -187500.02235174447, -187500.02235174447, -187500.02235174447, 0.264, -0.01, 0.978, 192.0, 0.0, 0.0, 0.0, 0.0, 0.0, 0.0, 0.0, 0.0, 0.0, 1.677527053156638E9, 0.0, 2023-02-27 14:44:13.156
22.0, 8937.702648365814, -187500.02235174447, -187500.02235174447, -187500.02235174447, -187500.02235174447, -187500.02235174447, -187500.02235174447, -187500.02235174447, 0.264, -0.01, 0.978, 192.0, 0.0, 0.0, 0.0, 0.0, 0.0, 0.0, 0.0, 0.0, 0.0, 1.677527053156659E9, 0.0, 2023-02-27 14:44:13.156
23.0, 8413.934220544603, -187500.02235174447, -187500.02235174447, -187500.02235174447, -187500.02235174447, -187500.02235174447, -187500.02235174447, -187500.02235174447, 0.264, -0.01, 0.978, 192.0, 0.0, 0.0, 0.0, 0.0, 0.0, 0.0, 0.0, 0.0, 0.0, 1.677527053164715E9, 0.0, 2023-02-27 14:44:13.164
24.0, 8616.575135776417, -187500.02235174447, -187500.02235174447, -187500.02235174447, -187500.02235174447, -187500.02235174447, -187500.02235174447, -187500.02235174447, 0.264, -0.01, 0.978, 192.0, 0.0, 0.0, 0.0, 0.0, 0.0, 0.0, 0.0, 0.0, 0.0, 1.677527053164734E9, 0.0, 2023-02-27 14:44:13.164
25.0, 9071.388431953006, -187500.02235174447, -187500.02235174447, -187500.02235174447, -187500.02235174447, -187500.02235174447, -187500.02235174447, -187500.02235174447, 0.264, -0.01, 0.978, 192.0, 0.0, 0.0, 0.0, 0.0, 0.0, 0.0, 0.0, 0.0, 0.0, 1.677527053172739E9, 0.0, 2023-02-27 14:44:13.172
26.0, 8962.222512033286, -187500.02235174447, -187500.02235174447, -187500.02235174447, -187500.02235174447, -187500.02235174447, -187500.02235174447, -187500.02235174447, 0.264, -0.01, 0.978, 192.0, 0.0, 0.0, 0.0, 0.0, 0.0, 0.0, 0.0, 0.0, 0.0, 1.677527053172757E9, 0.0, 2023-02-27 14:44:13.172
27.0, 8439.10228480128, -187500.02235174447, -187500.02235174447, -187500.02235174447, -187500.02235174447, -187500.02235174447, -187500.02235174447, -187500.02235174447, 0.262, -0.008, 0.98, 192.0, 8.0, 48.0, 255.0, 192.0, 30.0, 160.0, 0.0, 0.0, 0.0, 1.677527053179951E9, 0.0, 2023-02-27 14:44:13.179
28.0, 8411.274362954422, -187500.02235174447, -187500.02235174447, -187500.02235174447, -187500.02235174447, -187500.02235174447, -187500.02235174447, -187500.02235174447, 0.262, -0.008, 0.98, 192.0, 0.0, 0.0, 0.0, 0.0, 0.0, 0.0, 0.0, 0.0, 0.0, 1.677527053179967E9, 0.0, 2023-02-27 14:44:13.179
29.0, 9014.033855680687, -187500.02235174447, -187500.02235174447, -187500.02235174447, -187500.02235174447, -187500.02235174447, -187500.02235174447, -187500.02235174447, 0.262, -0.008, 0.98, 192.0, 0.0, 0.0, 0.0, 0.0, 0.0, 0.0, 0.0, 0.0, 0.0, 1.677527053187278E9, 0.0, 2023-02-27 14:44:13.187
30.0, 9133.012191416286, -187500.02235174447, -187500.02235174447, -187500.02235174447, -187500.02235174447, -187500.02235174447, -187500.02235174447, -187500.02235174447, 0.262, -0.008, 0.98, 192.0, 0.0, 0.0, 0.0, 0.0, 0.0, 0.0, 0.0, 0.0, 0.0, 1.677527053187294E9, 0.0, 2023-02-27 14:44:13.187
31.0, 8680.702290618694, -187500.02235174447, -187500.02235174447, -187500.02235174447, -187500.02235174447, -187500.02235174447, -187500.02235174447, -187500.02235174447, 0.262, -0.008, 0.98, 192.0, 0.0, 0.0, 0.0, 0.0, 0.0, 0.0, 0.0, 0.0, 0.0, 1.677527053194274E9, 0.0, 2023-02-27 14:44:13.194
32.0, 8492.612361027284, -187500.02235174447, -187500.02235174447, -187500.02235174447, -187500.02235174447, -187500.02235174447, -187500.02235174447, -187500.02235174447, 0.262, -0.008, 0.98, 192.0, 0.0, 0.0, 0.0, 0.0, 0.0, 0.0, 0.0, 0.0, 0.0, 1.677527053202383E9, 0.0, 2023-02-27 14:44:13.202
33.0, 8886.785374496625, -187500.02235174447, -187500.02235174447, -187500.02235174447, -187500.02235174447, -187500.02235174447, -187500.02235174447, -187500.02235174447, 0.262, -0.008, 0.98, 192.0, 0.0, 0.0, 0.0, 0.0, 0.0, 0.0, 0.0, 0.0, 0.0, 1.677527053202404E9, 0.0, 2023-02-27 14:44:13.202
34.0, 8937.859110577001, -187500.02235174447, -187500.02235174447, -187500.02235174447, -187500.02235174447, -187500.02235174447, -187500.02235174447, -187500.02235174447, 0.262, -0.008, 0.98, 192.0, 0.0, 0.0, 0.0, 0.0, 0.0, 0.0, 0.0, 0.0, 0.0, 1.677527053209949E9, 0.0, 2023-02-27 14:44:13.209
35.0, 8546.994155287046, -187500.02235174447, -187500.02235174447, -187500.02235174447, -187500.02235174447, -187500.02235174447, -187500.02235174447, -187500.02235174447, 0.262, -0.008, 0.98, 192.0, 0.0, 0.0, 0.0, 0.0, 0.0, 0.0, 0.0, 0.0, 0.0, 1.677527053209969E9, 0.0, 2023-02-27 14:44:13.209
36.0, 8310.244478016433, -187500.02235174447, -187500.02235174447, -187500.02235174447, -187500.02235174447, -187500.02235174447, -187500.02235174447, -187500.02235174447, 0.262, -0.008, 0.98, 192.0, 0.0, 0.0, 0.0, 0.0, 0.0, 0.0, 0.0, 0.0, 0.0, 1.677527053216932E9, 0.0, 2023-02-27 14:44:13.216
37.0, 8730.837253431948, -187500.02235174447, -187500.02235174447, -187500.02235174447, -187500.02235174447, -187500.02235174447, -187500.02235174447, -187500.02235174447, 0.254, -0.004, 0.968, 192.0, 7.0, 240.0, 255.0, 224.0, 30.0, 64.0, 0.0, 0.0, 0.0, 1.677527053216949E9, 0.0, 2023-02-27 14:44:13.216
38.0, 9046.756809563258, -187500.02235174447, -187500.02235174447, -187500.02235174447, -187500.02235174447, -187500.02235174447, -187500.02235174447, -187500.02235174447, 0.254, -0.004, 0.968, 192.0, 0.0, 0.0, 0.0, 0.0, 0.0, 0.0, 0.0, 0.0, 0.0, 1.677527053224978E9, 0.0, 2023-02-27 14:44:13.224
39.0, 8741.431980303763, -187500.02235174447, -187500.02235174447, -187500.02235174447, -187500.02235174447, -187500.02235174447, -187500.02235174447, -187500.02235174447, 0.254, -0.004, 0.968, 192.0, 0.0, 0.0, 0.0, 0.0, 0.0, 0.0, 0.0, 0.0, 0.0, 1.677527053224992E9, 0.0, 2023-02-27 14:44:13.224
40.0, 8435.1907295216, -187500.02235174447, -187500.02235174447, -187500.02235174447, -187500.02235174447, -187500.02235174447, -187500.02235174447, -187500.02235174447, 0.254, -0.004, 0.968, 192.0, 0.0, 0.0, 0.0, 0.0, 0.0, 0.0, 0.0, 0.0, 0.0, 1.677527053233095E9, 0.0, 2023-02-27 14:44:13.233
41.0, 8910.254706174697, -187500.02235174447, -187500.02235174447, -187500.02235174447, -187500.02235174447, -187500.02235174447, -187500.02235174447, -187500.02235174447, 0.254, -0.004, 0.968, 192.0, 0.0, 0.0, 0.0, 0.0, 0.0, 0.0, 0.0, 0.0, 0.0, 1.677527053233168E9, 0.0, 2023-02-27 14:44:13.233
42.0, 9199.039244537264, -187500.02235174447, -187500.02235174447, -187500.02235174447, -187500.02235174447, -187500.02235174447, -187500.02235174447, -187500.02235174447, 0.254, -0.004, 0.968, 192.0, 0.0, 0.0, 0.0, 0.0, 0.0, 0.0, 0.0, 0.0, 0.0, 1.677527053239524E9, 0.0, 2023-02-27 14:44:13.239
43.0, 8732.357172054908, -187500.02235174447, -187500.02235174447, -187500.02235174447, -187500.02235174447, -187500.02235174447, -187500.02235174447, -187500.02235174447, 0.254, -0.004, 0.968, 192.0, 0.0, 0.0, 0.0, 0.0, 0.0, 0.0, 0.0, 0.0, 0.0, 1.677527053239541E9, 0.0, 2023-02-27 14:44:13.239
44.0, 8249.224215653447, -187500.02235174447, -187500.02235174447, -187500.02235174447, -187500.02235174447, -187500.02235174447, -187500.02235174447, -187500.02235174447, 0.254, -0.004, 0.968, 192.0, 0.0, 0.0, 0.0, 0.0, 0.0, 0.0, 0.0, 0.0, 0.0, 1.677527053247622E9, 0.0, 2023-02-27 14:44:13.247
45.0, 8756.988794444656, -187500.02235174447, -187500.02235174447, -187500.02235174447, -187500.02235174447, -187500.02235174447, -187500.02235174447, -187500.02235174447, 0.254, -0.004, 0.968, 192.0, 0.0, 0.0, 0.0, 0.0, 0.0, 0.0, 0.0, 0.0, 0.0, 1.677527053247637E9, 0.0, 2023-02-27 14:44:13.247
46.0, 9243.58627123669, -187500.02235174447, -187500.02235174447, -187500.02235174447, -187500.02235174447, -187500.02235174447, -187500.02235174447, -187500.02235174447, 0.254, -0.004, 0.968, 192.0, 0.0, 0.0, 0.0, 0.0, 0.0, 0.0, 0.0, 0.0, 0.0, 1.677527053254653E9, 0.0, 2023-02-27 14:44:13.254
47.0, 9126.284316335239, -187500.02235174447, -187500.02235174447, -187500.02235174447, -187500.02235174447, -187500.02235174447, -187500.02235174447, -187500.02235174447, 0.26, -0.01, 0.972, 192.0, 8.0, 32.0, 255.0, 176.0, 30.0, 96.0, 0.0, 0.0, 0.0, 1.677527053262755E9, 0.0, 2023-02-27 14:44:13.262
48.0, 8758.374602600885, -187500.02235174447, -187500.02235174447, -187500.02235174447, -187500.02235174447, -187500.02235174447, -187500.02235174447, -187500.02235174447, 0.26, -0.01, 0.972, 192.0, 0.0, 0.0, 0.0, 0.0, 0.0, 0.0, 0.0, 0.0, 0.0, 1.677527053262773E9, 0.0, 2023-02-27 14:44:13.262
49.0, 8412.704874599562, -187500.02235174447, -187500.02235174447, -187500.02235174447, -187500.02235174447, -187500.02235174447, -187500.02235174447, -187500.02235174447, 0.26, -0.01, 0.972, 192.0, 0.0, 0.0, 0.0, 0.0, 0.0, 0.0, 0.0, 0.0, 0.0, 1.677527053269336E9, 0.0, 2023-02-27 14:44:13.269
50.0, 9035.089198957587, -187500.02235174447, -187500.02235174447, -187500.02235174447, -187500.02235174447, -187500.02235174447, -187500.02235174447, -187500.02235174447, 0.26, -0.01, 0.972, 192.0, 0.0, 0.0, 0.0, 0.0, 0.0, 0.0, 0.0, 0.0, 0.0, 1.677527053269352E9, 0.0, 2023-02-27 14:44:13.269
51.0, 9002.813279964123, -187500.02235174447, -187500.02235174447, -187500.02235174447, -187500.02235174447, -187500.02235174447, -187500.02235174447, -187500.02235174447, 0.26, -0.01, 0.972, 192.0, 0.0, 0.0, 0.0, 0.0, 0.0, 0.0, 0.0, 0.0, 0.0, 1.677527053277175E9, 0.0, 2023-02-27 14:44:13.277
52.0, 8367.196722888557, -187500.02235174447, -187500.02235174447, -187500.02235174447, -187500.02235174447, -187500.02235174447, -187500.02235174447, -187500.02235174447, 0.26, -0.01, 0.972, 192.0, 0.0, 0.0, 0.0, 0.0, 0.0, 0.0, 0.0, 0.0, 0.0, 1.677527053277199E9, 0.0, 2023-02-27 14:44:13.277
53.0, 8360.200626874046, -187500.02235174447, -187500.02235174447, -187500.02235174447, -187500.02235174447, -187500.02235174447, -187500.02235174447, -187500.02235174447, 0.26, -0.01, 0.972, 192.0, 0.0, 0.0, 0.0, 0.0, 0.0, 0.0, 0.0, 0.0, 0.0, 1.67752705328524E9, 0.0, 2023-02-27 14:44:13.285
54.0, 8890.831040243034, -187500.02235174447, -187500.02235174447, -187500.02235174447, -187500.02235174447, -187500.02235174447, -187500.02235174447, -187500.02235174447, 0.26, -0.01, 0.972, 192.0, 0.0, 0.0, 0.0, 0.0, 0.0, 0.0, 0.0, 0.0, 0.0, 1.677527053285255E9, 0.0, 2023-02-27 14:44:13.285
55.0, 9027.780178520701, -187500.02235174447, -187500.02235174447, -187500.02235174447, -187500.02235174447, -187500.02235174447, -187500.02235174447, -187500.02235174447, 0.26, -0.01, 0.972, 192.0, 0.0, 0.0, 0.0, 0.0, 0.0, 0.0, 0.0, 0.0, 0.0, 1.677527053291874E9, 0.0, 2023-02-27 14:44:13.291
56.0, 8577.79485914646, -187500.02235174447, -187500.02235174447, -187500.02235174447, -187500.02235174447, -187500.02235174447, -187500.02235174447, -187500.02235174447, 0.26, -0.01, 0.972, 192.0, 0.0, 0.0, 0.0, 0.0, 0.0, 0.0, 0.0, 0.0, 0.0, 1.677527053291924E9, 0.0, 2023-02-27 14:44:13.291
57.0, 8411.76610133244, -187500.02235174447, -187500.02235174447, -187500.02235174447, -187500.02235174447, -187500.02235174447, -187500.02235174447, -187500.02235174447, 0.264, -0.012, 0.978, 192.0, 8.0, 64.0, 255.0, 160.0, 30.0, 144.0, 0.0, 0.0, 0.0, 1.677527053299779E9, 0.0, 2023-02-27 14:44:13.299
58.0, 8869.127496376932, -187500.02235174447, -187500.02235174447, -187500.02235174447, -187500.02235174447, -187500.02235174447, -187500.02235174447, -187500.02235174447, 0.264, -0.012, 0.978, 192.0, 0.0, 0.0, 0.0, 0.0, 0.0, 0.0, 0.0, 0.0, 0.0, 1.677527053299796E9, 0.0, 2023-02-27 14:44:13.299
59.0, 9009.317637600618, -187500.02235174447, -187500.02235174447, -187500.02235174447, -187500.02235174447, -187500.02235174447, -187500.02235174447, -187500.02235174447, 0.264, -0.012, 0.978, 192.0, 0.0, 0.0, 0.0, 0.0, 0.0, 0.0, 0.0, 0.0, 0.0, 1.677527053307857E9, 0.0, 2023-02-27 14:44:13.307
60.0, 8571.469315465607, -187500.02235174447, -187500.02235174447, -187500.02235174447, -187500.02235174447, -187500.02235174447, -187500.02235174447, -187500.02235174447, 0.264, -0.012, 0.978, 192.0, 0.0, 0.0, 0.0, 0.0, 0.0, 0.0, 0.0, 0.0, 0.0, 1.677527053307872E9, 0.0, 2023-02-27 14:44:13.307
61.0, 8262.992890237914, -187500.02235174447, -187500.02235174447, -187500.02235174447, -187500.02235174447, -187500.02235174447, -187500.02235174447, -187500.02235174447, 0.264, -0.012, 0.978, 192.0, 0.0, 0.0, 0.0, 0.0, 0.0, 0.0, 0.0, 0.0, 0.0, 1.677527053314935E9, 0.0, 2023-02-27 14:44:13.314
62.0, 8807.235515980186, -187500.02235174447, -187500.02235174447, -187500.02235174447, -187500.02235174447, -187500.02235174447, -187500.02235174447, -187500.02235174447, 0.264, -0.012, 0.978, 192.0, 0.0, 0.0, 0.0, 0.0, 0.0, 0.0, 0.0, 0.0, 0.0, 1.677527053314961E9, 0.0, 2023-02-27 14:44:13.314
63.0, 9141.729371753856, -187500.02235174447, -187500.02235174447, -187500.02235174447, -187500.02235174447, -187500.02235174447, -187500.02235174447, -187500.02235174447, 0.264, -0.012, 0.978, 192.0, 0.0, 0.0, 0.0, 0.0, 0.0, 0.0, 0.0, 0.0, 0.0, 1.677527053321544E9, 0.0, 2023-02-27 14:44:13.321
64.0, 8680.367014451864, -187500.02235174447, -187500.02235174447, -187500.02235174447, -187500.02235174447, -187500.02235174447, -187500.02235174447, -187500.02235174447, 0.264, -0.012, 0.978, 192.0, 0.0, 0.0, 0.0, 0.0, 0.0, 0.0, 0.0, 0.0, 0.0, 1.67752705332948E9, 0.0, 2023-02-27 14:44:13.329
65.0, 8228.43709331001, -187500.02235174447, -187500.02235174447, -187500.02235174447, -187500.02235174447, -187500.02235174447, -187500.02235174447, -187500.02235174447, 0.264, -0.012, 0.978, 192.0, 0.0, 0.0, 0.0, 0.0, 0.0, 0.0, 0.0, 0.0, 0.0, 1.677527053329499E9, 0.0, 2023-02-27 14:44:13.329
66.0, 8607.299161827465, -187500.02235174447, -187500.02235174447, -187500.02235174447, -187500.02235174447, -187500.02235174447, -187500.02235174447, -187500.02235174447, 0.258, -0.014, 0.984, 192.0, 8.0, 16.0, 255.0, 144.0, 30.0, 192.0, 0.0, 0.0, 0.0, 1.677527053337502E9, 0.0, 2023-02-27 14:44:13.337
67.0, 9073.109516276065, -187500.02235174447, -187500.02235174447, -187500.02235174447, -187500.02235174447, -187500.02235174447, -187500.02235174447, -187500.02235174447, 0.258, -0.014, 0.984, 192.0, 0.0, 0.0, 0.0, 0.0, 0.0, 0.0, 0.0, 0.0, 0.0, 1.677527053337521E9, 0.0, 2023-02-27 14:44:13.337
68.0, 8938.462607677295, -187500.02235174447, -187500.02235174447, -187500.02235174447, -187500.02235174447, -187500.02235174447, -187500.02235174447, -187500.02235174447, 0.258, -0.014, 0.984, 192.0, 0.0, 0.0, 0.0, 0.0, 0.0, 0.0, 0.0, 0.0, 0.0, 1.677527053344714E9, 0.0, 2023-02-27 14:44:13.344
69.0, 8326.918879380093, -187500.02235174447, -187500.02235174447, -187500.02235174447, -187500.02235174447, -187500.02235174447, -187500.02235174447, -187500.02235174447, 0.258, -0.014, 0.984, 192.0, 0.0, 0.0, 0.0, 0.0, 0.0, 0.0, 0.0, 0.0, 0.0, 1.677527053344725E9, 0.0, 2023-02-27 14:44:13.344
70.0, 8579.672405680705, -187500.02235174447, -187500.02235174447, -187500.02235174447, -187500.02235174447, -187500.02235174447, -187500.02235174447, -187500.02235174447, 0.258, -0.014, 0.984, 192.0, 0.0, 0.0, 0.0, 0.0, 0.0, 0.0, 0.0, 0.0, 0.0, 1.67752705335211E9, 0.0, 2023-02-27 14:44:13.352
71.0, 8898.38592986893, -187500.02235174447, -187500.02235174447, -187500.02235174447, -187500.02235174447, -187500.02235174447, -187500.02235174447, -187500.02235174447, 0.258, -0.014, 0.984, 192.0, 0.0, 0.0, 0.0, 0.0, 0.0, 0.0, 0.0, 0.0, 0.0, 1.677527053352163E9, 0.0, 2023-02-27 14:44:13.352
72.0, 8823.574641177016, -187500.02235174447, -187500.02235174447, -187500.02235174447, -187500.02235174447, -187500.02235174447, -187500.02235174447, -187500.02235174447, 0.258, -0.014, 0.984, 192.0, 0.0, 0.0, 0.0, 0.0, 0.0, 0.0, 0.0, 0.0, 0.0, 1.677527053360096E9, 0.0, 2023-02-27 14:44:13.360
73.0, 8524.553003853918, -187500.02235174447, -187500.02235174447, -187500.02235174447, -187500.02235174447, -187500.02235174447, -187500.02235174447, -187500.02235174447, 0.258, -0.014, 0.984, 192.0, 0.0, 0.0, 0.0, 0.0, 0.0, 0.0, 0.0, 0.0, 0.0, 1.677527053360119E9, 0.0, 2023-02-27 14:44:13.360
74.0, 8346.119027867202, -187500.02235174447, -187500.02235174447, -187500.02235174447, -187500.02235174447, -187500.02235174447, -187500.02235174447, -187500.02235174447, 0.258, -0.014, 0.984, 192.0, 0.0, 0.0, 0.0, 0.0, 0.0, 0.0, 0.0, 0.0, 0.0, 1.677527053368128E9, 0.0, 2023-02-27 14:44:13.368
75.0, 8910.724092808257, -187500.02235174447, -187500.02235174447, -187500.02235174447, -187500.02235174447, -187500.02235174447, -187500.02235174447, -187500.02235174447, 0.258, -0.014, 0.984, 192.0, 0.0, 0.0, 0.0, 0.0, 0.0, 0.0, 0.0, 0.0, 0.0, 1.677527053368148E9, 0.0, 2023-02-27 14:44:13.368
76.0, 8942.396514701428, -187500.02235174447, -187500.02235174447, -187500.02235174447, -187500.02235174447, -187500.02235174447, -187500.02235174447, -187500.02235174447, 0.258, -0.008, 0.982, 192.0, 8.0, 16.0, 255.0, 192.0, 30.0, 176.0, 0.0, 0.0, 0.0, 1.677527053374639E9, 0.0, 2023-02-27 14:44:13.374
77.0, 8447.774761649938, -187500.02235174447, -187500.02235174447, -187500.02235174447, -187500.02235174447, -187500.02235174447, -187500.02235174447, -187500.02235174447, 0.258, -0.008, 0.982, 192.0, 0.0, 0.0, 0.0, 0.0, 0.0, 0.0, 0.0, 0.0, 0.0, 1.677527053374656E9, 0.0, 2023-02-27 14:44:13.374
78.0, 8318.782844398362, -187500.02235174447, -187500.02235174447, -187500.02235174447, -187500.02235174447, -187500.02235174447, -187500.02235174447, -187500.02235174447, 0.258, -0.008, 0.982, 192.0, 0.0, 0.0, 0.0, 0.0, 0.0, 0.0, 0.0, 0.0, 0.0, 1.677527053381661E9, 0.0, 2023-02-27 14:44:13.381
79.0, 8819.528975430605, -187500.02235174447, -187500.02235174447, -187500.02235174447, -187500.02235174447, -187500.02235174447, -187500.02235174447, -187500.02235174447, 0.258, -0.008, 0.982, 192.0, 0.0, 0.0, 0.0, 0.0, 0.0, 0.0, 0.0, 0.0, 0.0, 1.677527053389722E9, 0.0, 2023-02-27 14:44:13.389
80.0, 8968.190427802852, -187500.02235174447, -187500.02235174447, -187500.02235174447, -187500.02235174447, -187500.02235174447, -187500.02235174447, -187500.02235174447, 0.258, -0.008, 0.982, 192.0, 0.0, 0.0, 0.0, 0.0, 0.0, 0.0, 0.0, 0.0, 0.0, 1.677527053389743E9, 0.0, 2023-02-27 14:44:13.389
81.0, 8497.485041318541, -187500.02235174447, -187500.02235174447, -187500.02235174447, -187500.02235174447, -187500.02235174447, -187500.02235174447, -187500.02235174447, 0.258, -0.008, 0.982, 192.0, 0.0, 0.0, 0.0, 0.0, 0.0, 0.0, 0.0, 0.0, 0.0, 1.677527053397851E9, 0.0, 2023-02-27 14:44:13.397
82.0, 8263.954015249494, -187500.02235174447, -187500.02235174447, -187500.02235174447, -187500.02235174447, -187500.02235174447, -187500.02235174447, -187500.02235174447, 0.258, -0.008, 0.982, 192.0, 0.0, 0.0, 0.0, 0.0, 0.0, 0.0, 0.0, 0.0, 0.0, 1.677527053397873E9, 0.0, 2023-02-27 14:44:13.397
83.0, 8703.210497285187, -187500.02235174447, -187500.02235174447, -187500.02235174447, -187500.02235174447, -187500.02235174447, -187500.02235174447, -187500.02235174447, 0.258, -0.008, 0.982, 192.0, 0.0, 0.0, 0.0, 0.0, 0.0, 0.0, 0.0, 0.0, 0.0, 1.677527053404496E9, 0.0, 2023-02-27 14:44:13.404
84.0, 9021.007599950743, -187500.02235174447, -187500.02235174447, -187500.02235174447, -187500.02235174447, -187500.02235174447, -187500.02235174447, -187500.02235174447, 0.258, -0.008, 0.982, 192.0, 0.0, 0.0, 0.0, 0.0, 0.0, 0.0, 0.0, 0.0, 0.0, 1.677527053404516E9, 0.0, 2023-02-27 14:44:13.404
85.0, 8570.12821079829, -187500.02235174447, -187500.02235174447, -187500.02235174447, -187500.02235174447, -187500.02235174447, -187500.02235174447, -187500.02235174447, 0.258, -0.008, 0.982, 192.0, 0.0, 0.0, 0.0, 0.0, 0.0, 0.0, 0.0, 0.0, 0.0, 1.677527053412434E9, 0.0, 2023-02-27 14:44:13.412
86.0, 8336.284260306868, -187500.02235174447, -187500.02235174447, -187500.02235174447, -187500.02235174447, -187500.02235174447, -187500.02235174447, -187500.02235174447, 0.26, -0.01, 0.976, 192.0, 8.0, 32.0, 255.0, 176.0, 30.0, 128.0, 0.0, 0.0, 0.0, 1.677527053412463E9, 0.0, 2023-02-27 14:44:13.412
87.0, 8696.90730534879, -187500.02235174447, -187500.02235174447, -187500.02235174447, -187500.02235174447, -187500.02235174447, -187500.02235174447, -187500.02235174447, 0.26, -0.01, 0.976, 192.0, 0.0, 0.0, 0.0, 0.0, 0.0, 0.0, 0.0, 0.0, 0.0, 1.677527053420405E9, 0.0, 2023-02-27 14:44:13.420
88.0, 8978.9192651414, -187500.02235174447, -187500.02235174447, -187500.02235174447, -187500.02235174447, -187500.02235174447, -187500.02235174447, -187500.02235174447, 0.26, -0.01, 0.976, 192.0, 0.0, 0.0, 0.0, 0.0, 0.0, 0.0, 0.0, 0.0, 0.0, 1.677527053420419E9, 0.0, 2023-02-27 14:44:13.420
89.0, 8655.444819384196, -187500.02235174447, -187500.02235174447, -187500.02235174447, -187500.02235174447, -187500.02235174447, -187500.02235174447, -187500.02235174447, 0.26, -0.01, 0.976, 192.0, 0.0, 0.0, 0.0, 0.0, 0.0, 0.0, 0.0, 0.0, 0.0, 1.677527053427013E9, 0.0, 2023-02-27 14:44:13.427
90.0, 8302.175498268069, -187500.02235174447, -187500.02235174447, -187500.02235174447, -187500.02235174447, -187500.02235174447, -187500.02235174447, -187500.02235174447, 0.26, -0.01, 0.976, 192.0, 0.0, 0.0, 0.0, 0.0, 0.0, 0.0, 0.0, 0.0, 0.0, 1.677527053427026E9, 0.0, 2023-02-27 14:44:13.427
91.0, 8708.016122343079, -187500.02235174447, -187500.02235174447, -187500.02235174447, -187500.02235174447, -187500.02235174447, -187500.02235174447, -187500.02235174447, 0.26, -0.01, 0.976, 192.0, 0.0, 0.0, 0.0, 0.0, 0.0, 0.0, 0.0, 0.0, 0.0, 1.677527053434978E9, 0.0, 2023-02-27 14:44:13.434
92.0, 8934.95338379781, -187500.02235174447, -187500.02235174447, -187500.02235174447, -187500.02235174447, -187500.02235174447, -187500.02235174447, -187500.02235174447, 0.26, -0.01, 0.976, 192.0, 0.0, 0.0, 0.0, 0.0, 0.0, 0.0, 0.0, 0.0, 0.0, 1.677527053434994E9, 0.0, 2023-02-27 14:44:13.434
93.0, 8699.522459450061, -187500.02235174447, -187500.02235174447, -187500.02235174447, -187500.02235174447, -187500.02235174447, -187500.02235174447, -187500.02235174447, 0.26, -0.01, 0.976, 192.0, 0.0, 0.0, 0.0, 0.0, 0.0, 0.0, 0.0, 0.0, 0.0, 1.677527053442113E9, 0.0, 2023-02-27 14:44:13.442
94.0, 8244.306831873278, -187500.02235174447, -187500.02235174447, -187500.02235174447, -187500.02235174447, -187500.02235174447, -187500.02235174447, -187500.02235174447, 0.26, -0.01, 0.976, 192.0, 0.0, 0.0, 0.0, 0.0, 0.0, 0.0, 0.0, 0.0, 0.0, 1.677527053450153E9, 0.0, 2023-02-27 14:44:13.450
95.0, 8418.985714791503, -187500.02235174447, -187500.02235174447, -187500.02235174447, -187500.02235174447, -187500.02235174447, -187500.02235174447, -187500.02235174447, 0.26, -0.01, 0.976, 192.0, 0.0, 0.0, 0.0, 0.0, 0.0, 0.0, 0.0, 0.0, 0.0, 1.67752705345017E9, 0.0, 2023-02-27 14:44:13.450
96.0, 8926.035037760144, -187500.02235174447, -187500.02235174447, -187500.02235174447, -187500.02235174447, -187500.02235174447, -187500.02235174447, -187500.02235174447, 0.262, -0.008, 0.978, 192.0, 8.0, 48.0, 255.0, 192.0, 30.0, 144.0, 0.0, 0.0, 0.0, 1.677527053456651E9, 0.0, 2023-02-27 14:44:13.456
97.0, 8956.63457591946, -187500.02235174447, -187500.02235174447, -187500.02235174447, -187500.02235174447, -187500.02235174447, -187500.02235174447, -187500.02235174447, 0.262, -0.008, 0.978, 192.0, 0.0, 0.0, 0.0, 0.0, 0.0, 0.0, 0.0, 0.0, 0.0, 1.677527053456669E9, 0.0, 2023-02-27 14:44:13.456
98.0, 8392.498897611964, -187500.02235174447, -187500.02235174447, -187500.02235174447, -187500.02235174447, -187500.02235174447, -187500.02235174447, -187500.02235174447, 0.262, -0.008, 0.978, 192.0, 0.0, 0.0, 0.0, 0.0, 0.0, 0.0, 0.0, 0.0, 0.0, 1.677527053464697E9, 0.0, 2023-02-27 14:44:13.464
99.0, 8279.823753812761, -187500.02235174447, -187500.02235174447, -187500.02235174447, -187500.02235174447, -187500.02235174447, -187500.02235174447, -187500.02235174447, 0.262, -0.008, 0.978, 192.0, 0.0, 0.0, 0.0, 0.0, 0.0, 0.0, 0.0, 0.0, 0.0, 1.67752705346471E9, 0.0, 2023-02-27 14:44:13.464
100.0, 8845.814626910047, -187500.02235174447, -187500.02235174447, -187500.02235174447, -187500.02235174447, -187500.02235174447, -187500.02235174447, -187500.02235174447, 0.262, -0.008, 0.978, 192.0, 0.0, 0.0, 0.0, 0.0, 0.0, 0.0, 0.0, 0.0, 0.0, 1.677527053472703E9, 0.0, 2023-02-27 14:44:13.472
101.0, 8912.020493986665, -187500.02235174447, -187500.02235174447, -187500.02235174447, -187500.02235174447, -187500.02235174447, -187500.02235174447, -187500.02235174447, 0.262, -0.008, 0.978, 192.0, 0.0, 0.0, 0.0, 0.0, 0.0, 0.0, 0.0, 0.0, 0.0, 1.677527053472752E9, 0.0, 2023-02-27 14:44:13.472
102.0, 8432.642630653696, -187500.02235174447, -187500.02235174447, -187500.02235174447, -187500.02235174447, -187500.02235174447, -187500.02235174447, -187500.02235174447, 0.262, -0.008, 0.978, 192.0, 0.0, 0.0, 0.0, 0.0, 0.0, 0.0, 0.0, 0.0, 0.0, 1.677527053480006E9, 0.0, 2023-02-27 14:44:13.480
103.0, 8744.672983249782, -187500.02235174447, -187500.02235174447, -187500.02235174447, -187500.02235174447, -187500.02235174447, -187500.02235174447, -187500.02235174447, 0.262, -0.008, 0.978, 192.0, 0.0, 0.0, 0.0, 0.0, 0.0, 0.0, 0.0, 0.0, 0.0, 1.677527053480025E9, 0.0, 2023-02-27 14:44:13.480
104.0, 8814.097501527966, -187500.02235174447, -187500.02235174447, -187500.02235174447, -187500.02235174447, -187500.02235174447, -187500.02235174447, -187500.02235174447, 0.262, -0.008, 0.978, 192.0, 0.0, 0.0, 0.0, 0.0, 0.0, 0.0, 0.0, 0.0, 0.0, 1.677527053487308E9, 0.0, 2023-02-27 14:44:13.487
105.0, 8570.687004409672, -187500.02235174447, -187500.02235174447, -187500.02235174447, -187500.02235174447, -187500.02235174447, -187500.02235174447, -187500.02235174447, 0.262, -0.008, 0.978, 192.0, 0.0, 0.0, 0.0, 0.0, 0.0, 0.0, 0.0, 0.0, 0.0, 1.677527053487334E9, 0.0, 2023-02-27 14:44:13.487
106.0, 8230.851081711184, -187500.02235174447, -187500.02235174447, -187500.02235174447, -187500.02235174447, -187500.02235174447, -187500.02235174447, -187500.02235174447, 0.26, -0.006, 0.982, 192.0, 8.0, 32.0, 255.0, 208.0, 30.0, 176.0, 0.0, 0.0, 0.0, 1.677527053495364E9, 0.0, 2023-02-27 14:44:13.495
107.0, 8190.237962035891, -187500.02235174447, -187500.02235174447, -187500.02235174447, -187500.02235174447, -187500.02235174447, -187500.02235174447, -187500.02235174447, 0.26, -0.006, 0.982, 192.0, 0.0, 0.0, 0.0, 0.0, 0.0, 0.0, 0.0, 0.0, 0.0, 1.677527053495388E9, 0.0, 2023-02-27 14:44:13.495
108.0, 8604.169917603722, -187500.02235174447, -187500.02235174447, -187500.02235174447, -187500.02235174447, -187500.02235174447, -187500.02235174447, -187500.02235174447, 0.26, -0.006, 0.982, 192.0, 0.0, 0.0, 0.0, 0.0, 0.0, 0.0, 0.0, 0.0, 0.0, 1.677527053502337E9, 0.0, 2023-02-27 14:44:13.502
109.0, 8900.66580780337, -187500.02235174447, -187500.02235174447, -187500.02235174447, -187500.02235174447, -187500.02235174447, -187500.02235174447, -187500.02235174447, 0.26, -0.006, 0.982, 192.0, 0.0, 0.0, 0.0, 0.0, 0.0, 0.0, 0.0, 0.0, 0.0, 1.677527053509439E9, 0.0, 2023-02-27 14:44:13.509
110.0, 8488.589047025329, -187500.02235174447, -187500.02235174447, -187500.02235174447, -187500.02235174447, -187500.02235174447, -187500.02235174447, -187500.02235174447, 0.26, -0.006, 0.982, 192.0, 0.0, 0.0, 0.0, 0.0, 0.0, 0.0, 0.0, 0.0, 0.0, 1.677527053509456E9, 0.0, 2023-02-27 14:44:13.509
111.0, 8116.007818699815, -187500.02235174447, -187500.02235174447, -187500.02235174447, -187500.02235174447, -187500.02235174447, -187500.02235174447, -187500.02235174447, 0.26, -0.006, 0.982, 192.0, 0.0, 0.0, 0.0, 0.0, 0.0, 0.0, 0.0, 0.0, 0.0, 1.677527053517006E9, 0.0, 2023-02-27 14:44:13.517
112.0, 8508.459747846096, -187500.02235174447, -187500.02235174447, -187500.02235174447, -187500.02235174447, -187500.02235174447, -187500.02235174447, -187500.02235174447, 0.26, -0.006, 0.982, 192.0, 0.0, 0.0, 0.0, 0.0, 0.0, 0.0, 0.0, 0.0, 0.0, 1.677527053517025E9, 0.0, 2023-02-27 14:44:13.517
113.0, 8948.163264770898, -187500.02235174447, -187500.02235174447, -187500.02235174447, -187500.02235174447, -187500.02235174447, -187500.02235174447, -187500.02235174447, 0.26, -0.006, 0.982, 192.0, 0.0, 0.0, 0.0, 0.0, 0.0, 0.0, 0.0, 0.0, 0.0, 1.677527053524972E9, 0.0, 2023-02-27 14:44:13.524
114.0, 8551.732725111571, -187500.02235174447, -187500.02235174447, -187500.02235174447, -187500.02235174447, -187500.02235174447, -187500.02235174447, -187500.02235174447, 0.26, -0.006, 0.982, 192.0, 0.0, 0.0, 0.0, 0.0, 0.0, 0.0, 0.0, 0.0, 0.0, 1.677527053524993E9, 0.0, 2023-02-27 14:44:13.524
115.0, 8081.340263049635, -187500.02235174447, -187500.02235174447, -187500.02235174447, -187500.02235174447, -187500.02235174447, -187500.02235174447, -187500.02235174447, 0.26, -0.006, 0.982, 192.0, 0.0, 0.0, 0.0, 0.0, 0.0, 0.0, 0.0, 0.0, 0.0, 1.67752705353293E9, 0.0, 2023-02-27 14:44:13.532
116.0, 8324.84016714575, -187500.02235174447, -187500.02235174447, -187500.02235174447, -187500.02235174447, -187500.02235174447, -187500.02235174447, -187500.02235174447, 0.264, -0.01, 0.978, 192.0, 8.0, 64.0, 255.0, 176.0, 30.0, 144.0, 0.0, 0.0, 0.0, 1.677527053532974E9, 0.0, 2023-02-27 14:44:13.532
117.0, 8952.477151450772, -187500.02235174447, -187500.02235174447, -187500.02235174447, -187500.02235174447, -187500.02235174447, -187500.02235174447, -187500.02235174447, 0.264, -0.01, 0.978, 192.0, 0.0, 0.0, 0.0, 0.0, 0.0, 0.0, 0.0, 0.0, 0.0, 1.677527053539601E9, 0.0, 2023-02-27 14:44:13.539
118.0, 8878.358766836973, -187500.02235174447, -187500.02235174447, -187500.02235174447, -187500.02235174447, -187500.02235174447, -187500.02235174447, -187500.02235174447, 0.264, -0.01, 0.978, 192.0, 0.0, 0.0, 0.0, 0.0, 0.0, 0.0, 0.0, 0.0, 0.0, 1.677527053539616E9, 0.0, 2023-02-27 14:44:13.539
119.0, 8058.1168005605705, -187500.02235174447, -187500.02235174447, -187500.02235174447, -187500.02235174447, -187500.02235174447, -187500.02235174447, -187500.02235174447, 0.264, -0.01, 0.978, 192.0, 0.0, 0.0, 0.0, 0.0, 0.0, 0.0, 0.0, 0.0, 0.0, 1.677527053547536E9, 0.0, 2023-02-27 14:44:13.547
120.0, 8178.458592707943, -187500.02235174447, -187500.02235174447, -187500.02235174447, -187500.02235174447, -187500.02235174447, -187500.02235174447, -187500.02235174447, 0.264, -0.01, 0.978, 192.0, 0.0, 0.0, 0.0, 0.0, 0.0, 0.0, 0.0, 0.0, 0.0, 1.677527053547559E9, 0.0, 2023-02-27 14:44:13.547
121.0, 8741.63314600386, -187500.02235174447, -187500.02235174447, -187500.02235174447, -187500.02235174447, -187500.02235174447, -187500.02235174447, -187500.02235174447, 0.264, -0.01, 0.978, 192.0, 0.0, 0.0, 0.0, 0.0, 0.0, 0.0, 0.0, 0.0, 0.0, 1.677527053555537E9, 0.0, 2023-02-27 14:44:13.555
122.0, 8703.277552518553, -187500.02235174447, -187500.02235174447, -187500.02235174447, -187500.02235174447, -187500.02235174447, -187500.02235174447, -187500.02235174447, 0.264, -0.01, 0.978, 192.0, 0.0, 0.0, 0.0, 0.0, 0.0, 0.0, 0.0, 0.0, 0.0, 1.67752705355559E9, 0.0, 2023-02-27 14:44:13.555
123.0, 8240.507035315875, -187500.02235174447, -187500.02235174447, -187500.02235174447, -187500.02235174447, -187500.02235174447, -187500.02235174447, -187500.02235174447, 0.264, -0.01, 0.978, 192.0, 0.0, 0.0, 0.0, 0.0, 0.0, 0.0, 0.0, 0.0, 0.0, 1.677527053562689E9, 0.0, 2023-02-27 14:44:13.562
124.0, 8364.98390018748, -187500.02235174447, -187500.02235174447, -187500.02235174447, -187500.02235174447, -187500.02235174447, -187500.02235174447, -187500.02235174447, 0.264, -0.01, 0.978, 192.0, 0.0, 0.0, 0.0, 0.0, 0.0, 0.0, 0.0, 0.0, 0.0, 1.677527053562764E9, 0.0, 2023-02-27 14:44:13.562
125.0, 8628.443912082186, -187500.02235174447, -187500.02235174447, -187500.02235174447, -187500.02235174447, -187500.02235174447, -187500.02235174447, -187500.02235174447, 0.264, -0.008, 0.976, 192.0, 8.0, 64.0, 255.0, 192.0, 30.0, 128.0, 0.0, 0.0, 0.0, 1.67752705356923E9, 0.0, 2023-02-27 14:44:13.569
126.0, 8717.96264862569, -187500.02235174447, -187500.02235174447, -187500.02235174447, -187500.02235174447, -187500.02235174447, -187500.02235174447, -187500.02235174447, 0.264, -0.008, 0.976, 192.0, 0.0, 0.0, 0.0, 0.0, 0.0, 0.0, 0.0, 0.0, 0.0, 1.677527053577166E9, 0.0, 2023-02-27 14:44:13.577
127.0, 8251.884073243627, -187500.02235174447, -187500.02235174447, -187500.02235174447, -187500.02235174447, -187500.02235174447, -187500.02235174447, -187500.02235174447, 0.264, -0.008, 0.976, 192.0, 0.0, 0.0, 0.0, 0.0, 0.0, 0.0, 0.0, 0.0, 0.0, 1.677527053577178E9, 0.0, 2023-02-27 14:44:13.577
128.0, 8234.33795384621, -187500.02235174447, -187500.02235174447, -187500.02235174447, -187500.02235174447, -187500.02235174447, -187500.02235174447, -187500.02235174447, 0.264, -0.008, 0.976, 192.0, 0.0, 0.0, 0.0, 0.0, 0.0, 0.0, 0.0, 0.0, 0.0, 1.677527053585262E9, 0.0, 2023-02-27 14:44:13.585
129.0, 8670.107563746878, -187500.02235174447, -187500.02235174447, -187500.02235174447, -187500.02235174447, -187500.02235174447, -187500.02235174447, -187500.02235174447, 0.264, -0.008, 0.976, 192.0, 0.0, 0.0, 0.0, 0.0, 0.0, 0.0, 0.0, 0.0, 0.0, 1.67752705358528E9, 0.0, 2023-02-27 14:44:13.585
130.0, 8752.92077695379, -187500.02235174447, -187500.02235174447, -187500.02235174447, -187500.02235174447, -187500.02235174447, -187500.02235174447, -187500.02235174447, 0.264, -0.008, 0.976, 192.0, 0.0, 0.0, 0.0, 0.0, 0.0, 0.0, 0.0, 0.0, 0.0, 1.67752705359185E9, 0.0, 2023-02-27 14:44:13.591
131.0, 8315.385379241156, -187500.02235174447, -187500.02235174447, -187500.02235174447, -187500.02235174447, -187500.02235174447, -187500.02235174447, -187500.02235174447, 0.264, -0.008, 0.976, 192.0, 0.0, 0.0, 0.0, 0.0, 0.0, 0.0, 0.0, 0.0, 0.0, 1.677527053591967E9, 0.0, 2023-02-27 14:44:13.591
132.0, 8037.419085194956, -187500.02235174447, -187500.02235174447, -187500.02235174447, -187500.02235174447, -187500.02235174447, -187500.02235174447, -187500.02235174447, 0.264, -0.008, 0.976, 192.0, 0.0, 0.0, 0.0, 0.0, 0.0, 0.0, 0.0, 0.0, 0.0, 1.677527053599897E9, 0.0, 2023-02-27 14:44:13.599
133.0, 8456.424886754143, -187500.02235174447, -187500.02235174447, -187500.02235174447, -187500.02235174447, -187500.02235174447, -187500.02235174447, -187500.02235174447, 0.264, -0.008, 0.976, 192.0, 0.0, 0.0, 0.0, 0.0, 0.0, 0.0, 0.0, 0.0, 0.0, 1.677527053599949E9, 0.0, 2023-02-27 14:44:13.599
134.0, 8797.624265864404, -187500.02235174447, -187500.02235174447, -187500.02235174447, -187500.02235174447, -187500.02235174447, -187500.02235174447, -187500.02235174447, 0.264, -0.008, 0.976, 192.0, 0.0, 0.0, 0.0, 0.0, 0.0, 0.0, 0.0, 0.0, 0.0, 1.677527053607952E9, 0.0, 2023-02-27 14:44:13.607
135.0, 8408.279229197411, -187500.02235174447, -187500.02235174447, -187500.02235174447, -187500.02235174447, -187500.02235174447, -187500.02235174447, -187500.02235174447, 0.262, -0.006, 0.976, 192.0, 8.0, 48.0, 255.0, 208.0, 30.0, 128.0, 0.0, 0.0, 0.0, 1.677527053607976E9, 0.0, 2023-02-27 14:44:13.607
136.0, 8067.459829742888, -187500.02235174447, -187500.02235174447, -187500.02235174447, -187500.02235174447, -187500.02235174447, -187500.02235174447, -187500.02235174447, 0.262, -0.006, 0.976, 192.0, 0.0, 0.0, 0.0, 0.0, 0.0, 0.0, 0.0, 0.0, 0.0, 1.67752705361486E9, 0.0, 2023-02-27 14:44:13.614
137.0, 8477.234360842032, -187500.02235174447, -187500.02235174447, -187500.02235174447, -187500.02235174447, -187500.02235174447, -187500.02235174447, -187500.02235174447, 0.262, -0.006, 0.976, 192.0, 0.0, 0.0, 0.0, 0.0, 0.0, 0.0, 0.0, 0.0, 0.0, 1.67752705361488E9, 0.0, 2023-02-27 14:44:13.614
138.0, 8783.587370346471, -187500.02235174447, -187500.02235174447, -187500.02235174447, -187500.02235174447, -187500.02235174447, -187500.02235174447, -187500.02235174447, 0.262, -0.006, 0.976, 192.0, 0.0, 0.0, 0.0, 0.0, 0.0, 0.0, 0.0, 0.0, 0.0, 1.677527053622571E9, 0.0, 2023-02-27 14:44:13.622
139.0, 8489.594875525818, -187500.02235174447, -187500.02235174447, -187500.02235174447, -187500.02235174447, -187500.02235174447, -187500.02235174447, -187500.02235174447, 0.262, -0.006, 0.976, 192.0, 0.0, 0.0, 0.0, 0.0, 0.0, 0.0, 0.0, 0.0, 0.0, 1.677527053622595E9, 0.0, 2023-02-27 14:44:13.622
140.0, 8125.708475793419, -187500.02235174447, -187500.02235174447, -187500.02235174447, -187500.02235174447, -187500.02235174447, -187500.02235174447, -187500.02235174447, 0.262, -0.006, 0.976, 192.0, 0.0, 0.0, 0.0, 0.0, 0.0, 0.0, 0.0, 0.0, 0.0, 1.677527053629556E9, 0.0, 2023-02-27 14:44:13.629
141.0, 8427.05469453987, -187500.02235174447, -187500.02235174447, -187500.02235174447, -187500.02235174447, -187500.02235174447, -187500.02235174447, -187500.02235174447, 0.262, -0.006, 0.976, 192.0, 0.0, 0.0, 0.0, 0.0, 0.0, 0.0, 0.0, 0.0, 0.0, 1.677527053637395E9, 0.0, 2023-02-27 14:44:13.637
142.0, 8697.086119304433, -187500.02235174447, -187500.02235174447, -187500.02235174447, -187500.02235174447, -187500.02235174447, -187500.02235174447, -187500.02235174447, 0.262, -0.006, 0.976, 192.0, 0.0, 0.0, 0.0, 0.0, 0.0, 0.0, 0.0, 0.0, 0.0, 1.677527053637411E9, 0.0, 2023-02-27 14:44:13.637
143.0, 8622.878327712813, -187500.02235174447, -187500.02235174447, -187500.02235174447, -187500.02235174447, -187500.02235174447, -187500.02235174447, -187500.02235174447, 0.262, -0.006, 0.976, 192.0, 0.0, 0.0, 0.0, 0.0, 0.0, 0.0, 0.0, 0.0, 0.0, 1.677527053644613E9, 0.0, 2023-02-27 14:44:13.644
144.0, 8073.807725168196, -187500.02235174447, -187500.02235174447, -187500.02235174447, -187500.02235174447, -187500.02235174447, -187500.02235174447, -187500.02235174447, 0.262, -0.006, 0.976, 192.0, 0.0, 0.0, 0.0, 0.0, 0.0, 0.0, 0.0, 0.0, 0.0, 1.677527053644629E9, 0.0, 2023-02-27 14:44:13.644
145.0, 8131.050542718237, -187500.02235174447, -187500.02235174447, -187500.02235174447, -187500.02235174447, -187500.02235174447, -187500.02235174447, -187500.02235174447, 0.264, -0.006, 0.972, 192.0, 8.0, 64.0, 255.0, 208.0, 30.0, 96.0, 0.0, 0.0, 0.0, 1.677527053652075E9, 0.0, 2023-02-27 14:44:13.652
146.0, 8629.762665005048, -187500.02235174447, -187500.02235174447, -187500.02235174447, -187500.02235174447, -187500.02235174447, -187500.02235174447, -187500.02235174447, 0.264, -0.006, 0.972, 192.0, 0.0, 0.0, 0.0, 0.0, 0.0, 0.0, 0.0, 0.0, 0.0, 1.677527053652142E9, 0.0, 2023-02-27 14:44:13.652
147.0, 8584.142754571767, -187500.02235174447, -187500.02235174447, -187500.02235174447, -187500.02235174447, -187500.02235174447, -187500.02235174447, -187500.02235174447, 0.264, -0.006, 0.972, 192.0, 0.0, 0.0, 0.0, 0.0, 0.0, 0.0, 0.0, 0.0, 0.0, 1.677527053659989E9, 0.0, 2023-02-27 14:44:13.659
148.0, 8151.658851106031, -187500.02235174447, -187500.02235174447, -187500.02235174447, -187500.02235174447, -187500.02235174447, -187500.02235174447, -187500.02235174447, 0.264, -0.006, 0.972, 192.0, 0.0, 0.0, 0.0, 0.0, 0.0, 0.0, 0.0, 0.0, 0.0, 1.677527053660009E9, 0.0, 2023-02-27 14:44:13.660
149.0, 8104.116690649592, -187500.02235174447, -187500.02235174447, -187500.02235174447, -187500.02235174447, -187500.02235174447, -187500.02235174447, -187500.02235174447, 0.264, -0.006, 0.972, 192.0, 0.0, 0.0, 0.0, 0.0, 0.0, 0.0, 0.0, 0.0, 0.0, 1.677527053668199E9, 0.0, 2023-02-27 14:44:13.668
150.0, 8659.535188619517, -187500.02235174447, -187500.02235174447, -187500.02235174447, -187500.02235174447, -187500.02235174447, -187500.02235174447, -187500.02235174447, 0.264, -0.006, 0.972, 192.0, 0.0, 0.0, 0.0, 0.0, 0.0, 0.0, 0.0, 0.0, 0.0, 1.677527053668215E9, 0.0, 2023-02-27 14:44:13.668
151.0, 8776.054832465034, -187500.02235174447, -187500.02235174447, -187500.02235174447, -187500.02235174447, -187500.02235174447, -187500.02235174447, -187500.02235174447, 0.264, -0.006, 0.972, 192.0, 0.0, 0.0, 0.0, 0.0, 0.0, 0.0, 0.0, 0.0, 0.0, 1.677527053674671E9, 0.0, 2023-02-27 14:44:13.674
152.0, 8173.630615905598, -187500.02235174447, -187500.02235174447, -187500.02235174447, -187500.02235174447, -187500.02235174447, -187500.02235174447, -187500.02235174447, 0.264, -0.006, 0.972, 192.0, 0.0, 0.0, 0.0, 0.0, 0.0, 0.0, 0.0, 0.0, 0.0, 1.677527053674689E9, 0.0, 2023-02-27 14:44:13.674
153.0, 8010.82050929314, -187500.02235174447, -187500.02235174447, -187500.02235174447, -187500.02235174447, -187500.02235174447, -187500.02235174447, -187500.02235174447, 0.264, -0.006, 0.972, 192.0, 0.0, 0.0, 0.0, 0.0, 0.0, 0.0, 0.0, 0.0, 0.0, 1.677527053682702E9, 0.0, 2023-02-27 14:44:13.682
154.0, 8492.165326138178, -187500.02235174447, -187500.02235174447, -187500.02235174447, -187500.02235174447, -187500.02235174447, -187500.02235174447, -187500.02235174447, 0.264, -0.006, 0.972, 192.0, 0.0, 0.0, 0.0, 0.0, 0.0, 0.0, 0.0, 0.0, 0.0, 1.67752705368272E9, 0.0, 2023-02-27 14:44:13.682
155.0, 8734.0112011446, -187500.02235174447, -187500.02235174447, -187500.02235174447, -187500.02235174447, -187500.02235174447, -187500.02235174447, -187500.02235174447, 0.264, 0.0, 0.978, 192.0, 8.0, 64.0, 0.0, 0.0, 30.0, 144.0, 0.0, 0.0, 0.0, 1.677527053689734E9, 0.0, 2023-02-27 14:44:13.689
156.0, 8357.004327416937, -187500.02235174447, -187500.02235174447, -187500.02235174447, -187500.02235174447, -187500.02235174447, -187500.02235174447, -187500.02235174447, 0.264, 0.0, 0.978, 192.0, 0.0, 0.0, 0.0, 0.0, 0.0, 0.0, 0.0, 0.0, 0.0, 1.677527053697862E9, 0.0, 2023-02-27 14:44:13.697
157.0, 8025.68441935592, -187500.02235174447, -187500.02235174447, -187500.02235174447, -187500.02235174447, -187500.02235174447, -187500.02235174447, -187500.02235174447, 0.264, 0.0, 0.978, 192.0, 0.0, 0.0, 0.0, 0.0, 0.0, 0.0, 0.0, 0.0, 0.0, 1.677527053697886E9, 0.0, 2023-02-27 14:44:13.697
158.0, 8465.119715347257, -187500.02235174447, -187500.02235174447, -187500.02235174447, -187500.02235174447, -187500.02235174447, -187500.02235174447, -187500.02235174447, 0.264, 0.0, 0.978, 192.0, 0.0, 0.0, 0.0, 0.0, 0.0, 0.0, 0.0, 0.0, 0.0, 1.677527053704684E9, 0.0, 2023-02-27 14:44:13.704
159.0, 8770.39984111784, -187500.02235174447, -187500.02235174447, -187500.02235174447, -187500.02235174447, -187500.02235174447, -187500.02235174447, -187500.02235174447, 0.264, 0.0, 0.978, 192.0, 0.0, 0.0, 0.0, 0.0, 0.0, 0.0, 0.0, 0.0, 0.0, 1.677527053704698E9, 0.0, 2023-02-27 14:44:13.704
160.0, 8358.524246039897, -187500.02235174447, -187500.02235174447, -187500.02235174447, -187500.02235174447, -187500.02235174447, -187500.02235174447, -187500.02235174447, 0.264, 0.0, 0.978, 192.0, 0.0, 0.0, 0.0, 0.0, 0.0, 0.0, 0.0, 0.0, 0.0, 1.677527053712376E9, 0.0, 2023-02-27 14:44:13.712
161.0, 8026.5337856452215, -187500.02235174447, -187500.02235174447, -187500.02235174447, -187500.02235174447, -187500.02235174447, -187500.02235174447, -187500.02235174447, 0.264, 0.0, 0.978, 192.0, 0.0, 0.0, 0.0, 0.0, 0.0, 0.0, 0.0, 0.0, 0.0, 1.677527053712393E9, 0.0, 2023-02-27 14:44:13.712
162.0, 8294.531201664353, -187500.02235174447, -187500.02235174447, -187500.02235174447, -187500.02235174447, -187500.02235174447, -187500.02235174447, -187500.02235174447, 0.264, 0.0, 0.978, 192.0, 0.0, 0.0, 0.0, 0.0, 0.0, 0.0, 0.0, 0.0, 0.0, 1.677527053720322E9, 0.0, 2023-02-27 14:44:13.720
163.0, 8755.379468843874, -187500.02235174447, -187500.02235174447, -187500.02235174447, -187500.02235174447, -187500.02235174447, -187500.02235174447, -187500.02235174447, 0.264, 0.0, 0.978, 192.0, 0.0, 0.0, 0.0, 0.0, 0.0, 0.0, 0.0, 0.0, 0.0, 1.677527053720347E9, 0.0, 2023-02-27 14:44:13.720
164.0, 8549.341088454854, -187500.02235174447, -187500.02235174447, -187500.02235174447, -187500.02235174447, -187500.02235174447, -187500.02235174447, -187500.02235174447, 0.264, 0.0, 0.978, 192.0, 0.0, 0.0, 0.0, 0.0, 0.0, 0.0, 0.0, 0.0, 0.0, 1.677527053727642E9, 0.0, 2023-02-27 14:44:13.727
165.0, 8029.68538161342, -187500.02235174447, -187500.02235174447, -187500.02235174447, -187500.02235174447, -187500.02235174447, -187500.02235174447, -187500.02235174447, 0.262, -0.008, 0.982, 192.0, 8.0, 48.0, 255.0, 192.0, 30.0, 176.0, 0.0, 0.0, 0.0, 1.677527053727661E9, 0.0, 2023-02-27 14:44:13.727
166.0, 8237.91423295906, -187500.02235174447, -187500.02235174447, -187500.02235174447, -187500.02235174447, -187500.02235174447, -187500.02235174447, -187500.02235174447, 0.262, -0.008, 0.982, 192.0, 0.0, 0.0, 0.0, 0.0, 0.0, 0.0, 0.0, 0.0, 0.0, 1.677527053736516E9, 0.0, 2023-02-27 14:44:13.736
167.0, 8721.181299827254, -187500.02235174447, -187500.02235174447, -187500.02235174447, -187500.02235174447, -187500.02235174447, -187500.02235174447, -187500.02235174447, 0.262, -0.008, 0.982, 192.0, 0.0, 0.0, 0.0, 0.0, 0.0, 0.0, 0.0, 0.0, 0.0, 1.677527053736541E9, 0.0, 2023-02-27 14:44:13.736
168.0, 8554.772562357493, -187500.02235174447, -187500.02235174447, -187500.02235174447, -187500.02235174447, -187500.02235174447, -187500.02235174447, -187500.02235174447, 0.262, -0.008, 0.982, 192.0, 0.0, 0.0, 0.0, 0.0, 0.0, 0.0, 0.0, 0.0, 0.0, 1.67752705374231E9, 0.0, 2023-02-27 14:44:13.742
169.0, 7994.280218396213, -187500.02235174447, -187500.02235174447, -187500.02235174447, -187500.02235174447, -187500.02235174447, -187500.02235174447, -187500.02235174447, 0.262, -0.008, 0.982, 192.0, 0.0, 0.0, 0.0, 0.0, 0.0, 0.0, 0.0, 0.0, 0.0, 1.677527053742325E9, 0.0, 2023-02-27 14:44:13.742
170.0, 8005.970180746339, -187500.02235174447, -187500.02235174447, -187500.02235174447, -187500.02235174447, -187500.02235174447, -187500.02235174447, -187500.02235174447, 0.262, -0.008, 0.982, 192.0, 0.0, 0.0, 0.0, 0.0, 0.0, 0.0, 0.0, 0.0, 0.0, 1.677527053749442E9, 0.0, 2023-02-27 14:44:13.749
171.0, 8683.965645309168, -187500.02235174447, -187500.02235174447, -187500.02235174447, -187500.02235174447, -187500.02235174447, -187500.02235174447, -187500.02235174447, 0.262, -0.008, 0.982, 192.0, 0.0, 0.0, 0.0, 0.0, 0.0, 0.0, 0.0, 0.0, 0.0, 1.677527053757355E9, 0.0, 2023-02-27 14:44:13.757
172.0, 8656.875331029336, -187500.02235174447, -187500.02235174447, -187500.02235174447, -187500.02235174447, -187500.02235174447, -187500.02235174447, -187500.02235174447, 0.262, -0.008, 0.982, 192.0, 0.0, 0.0, 0.0, 0.0, 0.0, 0.0, 0.0, 0.0, 0.0, 1.677527053757367E9, 0.0, 2023-02-27 14:44:13.757
173.0, 8173.697671138963, -187500.02235174447, -187500.02235174447, -187500.02235174447, -187500.02235174447, -187500.02235174447, -187500.02235174447, -187500.02235174447, 0.262, -0.008, 0.982, 192.0, 0.0, 0.0, 0.0, 0.0, 0.0, 0.0, 0.0, 0.0, 0.0, 1.677527053765301E9, 0.0, 2023-02-27 14:44:13.765
174.0, 8070.343204777623, -187500.02235174447, -187500.02235174447, -187500.02235174447, -187500.02235174447, -187500.02235174447, -187500.02235174447, -187500.02235174447, 0.264, -0.014, 0.982, 192.0, 8.0, 64.0, 255.0, 144.0, 30.0, 176.0, 0.0, 0.0, 0.0, 1.677527053765323E9, 0.0, 2023-02-27 14:44:13.765
175.0, 8529.336277167355, -187500.02235174447, -187500.02235174447, -187500.02235174447, -187500.02235174447, -187500.02235174447, -187500.02235174447, -187500.02235174447, 0.264, -0.014, 0.982, 192.0, 0.0, 0.0, 0.0, 0.0, 0.0, 0.0, 0.0, 0.0, 0.0, 1.677527053771925E9, 0.0, 2023-02-27 14:44:13.771
176.0, 8727.529195252562, -187500.02235174447, -187500.02235174447, -187500.02235174447, -187500.02235174447, -187500.02235174447, -187500.02235174447, -187500.02235174447, 0.264, -0.014, 0.982, 192.0, 0.0, 0.0, 0.0, 0.0, 0.0, 0.0, 0.0, 0.0, 0.0, 1.677527053771942E9, 0.0, 2023-02-27 14:44:13.771
177.0, 8267.306776917789, -187500.02235174447, -187500.02235174447, -187500.02235174447, -187500.02235174447, -187500.02235174447, -187500.02235174447, -187500.02235174447, 0.264, -0.014, 0.982, 192.0, 0.0, 0.0, 0.0, 0.0, 0.0, 0.0, 0.0, 0.0, 0.0, 1.677527053779942E9, 0.0, 2023-02-27 14:44:13.779
178.0, 7988.2675991377355, -187500.02235174447, -187500.02235174447, -187500.02235174447, -187500.02235174447, -187500.02235174447, -187500.02235174447, -187500.02235174447, 0.264, -0.014, 0.982, 192.0, 0.0, 0.0, 0.0, 0.0, 0.0, 0.0, 0.0, 0.0, 0.0, 1.677527053779964E9, 0.0, 2023-02-27 14:44:13.779
179.0, 8505.15168966671, -187500.02235174447, -187500.02235174447, -187500.02235174447, -187500.02235174447, -187500.02235174447, -187500.02235174447, -187500.02235174447, 0.264, -0.014, 0.982, 192.0, 0.0, 0.0, 0.0, 0.0, 0.0, 0.0, 0.0, 0.0, 0.0, 1.677527053787913E9, 0.0, 2023-02-27 14:44:13.787
180.0, 9071.857818586566, -187500.02235174447, -187500.02235174447, -187500.02235174447, -187500.02235174447, -187500.02235174447, -187500.02235174447, -187500.02235174447, 0.264, -0.014, 0.982, 192.0, 0.0, 0.0, 0.0, 0.0, 0.0, 0.0, 0.0, 0.0, 0.0, 1.677527053787939E9, 0.0, 2023-02-27 14:44:13.787
181.0, 8333.691457950052, -187500.02235174447, -187500.02235174447, -187500.02235174447, -187500.02235174447, -187500.02235174447, -187500.02235174447, -187500.02235174447, 0.264, -0.014, 0.982, 192.0, 0.0, 0.0, 0.0, 0.0, 0.0, 0.0, 0.0, 0.0, 0.0, 1.677527053795109E9, 0.0, 2023-02-27 14:44:13.795
182.0, 7894.569086381089, -187500.02235174447, -187500.02235174447, -187500.02235174447, -187500.02235174447, -187500.02235174447, -187500.02235174447, -187500.02235174447, 0.264, -0.014, 0.982, 192.0, 0.0, 0.0, 0.0, 0.0, 0.0, 0.0, 0.0, 0.0, 0.0, 1.677527053795123E9, 0.0, 2023-02-27 14:44:13.795
183.0, 8275.576922366254, -187500.02235174447, -187500.02235174447, -187500.02235174447, -187500.02235174447, -187500.02235174447, -187500.02235174447, -187500.02235174447, 0.264, -0.014, 0.982, 192.0, 0.0, 0.0, 0.0, 0.0, 0.0, 0.0, 0.0, 0.0, 0.0, 1.677527053802613E9, 0.0, 2023-02-27 14:44:13.802
184.0, 8745.477646050173, -187500.02235174447, -187500.02235174447, -187500.02235174447, -187500.02235174447, -187500.02235174447, -187500.02235174447, -187500.02235174447, 0.262, -0.01, 0.978, 192.0, 8.0, 48.0, 255.0, 176.0, 30.0, 144.0, 0.0, 0.0, 0.0, 1.67752705380263E9, 0.0, 2023-02-27 14:44:13.802
185.0, 8409.218002464533, -187500.02235174447, -187500.02235174447, -187500.02235174447, -187500.02235174447, -187500.02235174447, -187500.02235174447, -187500.02235174447, 0.262, -0.01, 0.978, 192.0, 0.0, 0.0, 0.0, 0.0, 0.0, 0.0, 0.0, 0.0, 0.0, 1.677527053809468E9, 0.0, 2023-02-27 14:44:13.809
186.0, 8072.801896667707, -187500.02235174447, -187500.02235174447, -187500.02235174447, -187500.02235174447, -187500.02235174447, -187500.02235174447, -187500.02235174447, 0.262, -0.01, 0.978, 192.0, 0.0, 0.0, 0.0, 0.0, 0.0, 0.0, 0.0, 0.0, 0.0, 1.677527053809481E9, 0.0, 2023-02-27 14:44:13.809
187.0, 8253.985137222426, -187500.02235174447, -187500.02235174447, -187500.02235174447, -187500.02235174447, -187500.02235174447, -187500.02235174447, -187500.02235174447, 0.262, -0.01, 0.978, 192.0, 0.0, 0.0, 0.0, 0.0, 0.0, 0.0, 0.0, 0.0, 0.0, 1.677527053817722E9, 0.0, 2023-02-27 14:44:13.817
188.0, 8652.382630393819, -187500.02235174447, -187500.02235174447, -187500.02235174447, -187500.02235174447, -187500.02235174447, -187500.02235174447, -187500.02235174447, 0.262, -0.01, 0.978, 192.0, 0.0, 0.0, 0.0, 0.0, 0.0, 0.0, 0.0, 0.0, 0.0, 1.677527053824265E9, 0.0, 2023-02-27 14:44:13.824
189.0, 8536.891166793248, -187500.02235174447, -187500.02235174447, -187500.02235174447, -187500.02235174447, -187500.02235174447, -187500.02235174447, -187500.02235174447, 0.262, -0.01, 0.978, 192.0, 0.0, 0.0, 0.0, 0.0, 0.0, 0.0, 0.0, 0.0, 0.0, 1.677527053824288E9, 0.0, 2023-02-27 14:44:13.824
190.0, 8019.11300648606, -187500.02235174447, -187500.02235174447, -187500.02235174447, -187500.02235174447, -187500.02235174447, -187500.02235174447, -187500.02235174447, 0.262, -0.01, 0.978, 192.0, 0.0, 0.0, 0.0, 0.0, 0.0, 0.0, 0.0, 0.0, 0.0, 1.677527053832301E9, 0.0, 2023-02-27 14:44:13.832
191.0, 8216.009523392859, -187500.02235174447, -187500.02235174447, -187500.02235174447, -187500.02235174447, -187500.02235174447, -187500.02235174447, -187500.02235174447, 0.262, -0.01, 0.978, 192.0, 0.0, 0.0, 0.0, 0.0, 0.0, 0.0, 0.0, 0.0, 0.0, 1.677527053832322E9, 0.0, 2023-02-27 14:44:13.832
192.0, 8725.718703951681, -187500.02235174447, -187500.02235174447, -187500.02235174447, -187500.02235174447, -187500.02235174447, -187500.02235174447, -187500.02235174447, 0.262, -0.01, 0.978, 192.0, 0.0, 0.0, 0.0, 0.0, 0.0, 0.0, 0.0, 0.0, 0.0, 1.677527053840347E9, 0.0, 2023-02-27 14:44:13.840
193.0, 8520.574393340874, -187500.02235174447, -187500.02235174447, -187500.02235174447, -187500.02235174447, -187500.02235174447, -187500.02235174447, -187500.02235174447, 0.262, -0.01, 0.978, 192.0, 0.0, 0.0, 0.0, 0.0, 0.0, 0.0, 0.0, 0.0, 0.0, 1.677527053840375E9, 0.0, 2023-02-27 14:44:13.840
194.0, 8004.807890034663, -187500.02235174447, -187500.02235174447, -187500.02235174447, -187500.02235174447, -187500.02235174447, -187500.02235174447, -187500.02235174447, 0.264, -0.004, 0.982, 192.0, 8.0, 64.0, 255.0, 224.0, 30.0, 176.0, 0.0, 0.0, 0.0, 1.677527053847423E9, 0.0, 2023-02-27 14:44:13.847
195.0, 8195.244752793878, -187500.02235174447, -187500.02235174447, -187500.02235174447, -187500.02235174447, -187500.02235174447, -187500.02235174447, -187500.02235174447, 0.264, -0.004, 0.982, 192.0, 0.0, 0.0, 0.0, 0.0, 0.0, 0.0, 0.0, 0.0, 0.0, 1.677527053847439E9, 0.0, 2023-02-27 14:44:13.847
196.0, 8964.05535507862, -187500.02235174447, -187500.02235174447, -187500.02235174447, -187500.02235174447, -187500.02235174447, -187500.02235174447, -187500.02235174447, 0.264, -0.004, 0.982, 192.0, 0.0, 0.0, 0.0, 0.0, 0.0, 0.0, 0.0, 0.0, 0.0, 1.677527053854906E9, 0.0, 2023-02-27 14:44:13.854
197.0, 8625.784054492004, -187500.02235174447, -187500.02235174447, -187500.02235174447, -187500.02235174447, -187500.02235174447, -187500.02235174447, -187500.02235174447, 0.264, -0.004, 0.982, 192.0, 0.0, 0.0, 0.0, 0.0, 0.0, 0.0, 0.0, 0.0, 0.0, 1.67752705385492E9, 0.0, 2023-02-27 14:44:13.854
198.0, 8014.352084917079, -187500.02235174447, -187500.02235174447, -187500.02235174447, -187500.02235174447, -187500.02235174447, -187500.02235174447, -187500.02235174447, 0.264, -0.004, 0.982, 192.0, 0.0, 0.0, 0.0, 0.0, 0.0, 0.0, 0.0, 0.0, 0.0, 1.677527053862953E9, 0.0, 2023-02-27 14:44:13.862
199.0, 7980.936226956395, -187500.02235174447, -187500.02235174447, -187500.02235174447, -187500.02235174447, -187500.02235174447, -187500.02235174447, -187500.02235174447, 0.264, -0.004, 0.982, 192.0, 0.0, 0.0, 0.0, 0.0, 0.0, 0.0, 0.0, 0.0, 0.0, 1.677527053862976E9, 0.0, 2023-02-27 14:44:13.862
200.0, 8503.899991977214, -187500.02235174447, -187500.02235174447, -187500.02235174447, -187500.02235174447, -187500.02235174447, -187500.02235174447, -187500.02235174447, 0.264, -0.004, 0.982, 192.0, 0.0, 0.0, 0.0, 0.0, 0.0, 0.0, 0.0, 0.0, 0.0, 1.677527053870907E9, 0.0, 2023-02-27 14:44:13.870
201.0, 8714.565183468483, -187500.02235174447, -187500.02235174447, -187500.02235174447, -187500.02235174447, -187500.02235174447, -187500.02235174447, -187500.02235174447, 0.264, -0.004, 0.982, 192.0, 0.0, 0.0, 0.0, 0.0, 0.0, 0.0, 0.0, 0.0, 0.0, 1.67752705387092E9, 0.0, 2023-02-27 14:44:13.870
202.0, 8231.409875322566, -187500.02235174447, -187500.02235174447, -187500.02235174447, -187500.02235174447, -187500.02235174447, -187500.02235174447, -187500.02235174447, 0.264, -0.004, 0.982, 192.0, 0.0, 0.0, 0.0, 0.0, 0.0, 0.0, 0.0, 0.0, 0.0, 1.677527053877206E9, 0.0, 2023-02-27 14:44:13.877
203.0, 7948.660307962931, -187500.02235174447, -187500.02235174447, -187500.02235174447, -187500.02235174447, -187500.02235174447, -187500.02235174447, -187500.02235174447, 0.264, -0.004, 0.982, 192.0, 0.0, 0.0, 0.0, 0.0, 0.0, 0.0, 0.0, 0.0, 0.0, 1.67752705388459E9, 0.0, 2023-02-27 14:44:13.884
204.0, 8412.838985066293, -187500.02235174447, -187500.02235174447, -187500.02235174447, -187500.02235174447, -187500.02235174447, -187500.02235174447, -187500.02235174447, 0.26, -0.002, 0.98, 192.0, 8.0, 32.0, 255.0, 240.0, 30.0, 160.0, 0.0, 0.0, 0.0, 1.677527053884614E9, 0.0, 2023-02-27 14:44:13.884
205.0, 8831.643620925382, -187500.02235174447, -187500.02235174447, -187500.02235174447, -187500.02235174447, -187500.02235174447, -187500.02235174447, -187500.02235174447, 0.26, -0.002, 0.98, 192.0, 0.0, 0.0, 0.0, 0.0, 0.0, 0.0, 0.0, 0.0, 0.0, 1.677527053892429E9, 0.0, 2023-02-27 14:44:13.892
206.0, 8337.893585907648, -187500.02235174447, -187500.02235174447, -187500.02235174447, -187500.02235174447, -187500.02235174447, -187500.02235174447, -187500.02235174447, 0.26, -0.002, 0.98, 192.0, 0.0, 0.0, 0.0, 0.0, 0.0, 0.0, 0.0, 0.0, 0.0, 1.677527053892445E9, 0.0, 2023-02-27 14:44:13.892
207.0, 8146.719115581408, -187500.02235174447, -187500.02235174447, -187500.02235174447, -187500.02235174447, -187500.02235174447, -187500.02235174447, -187500.02235174447, 0.26, -0.002, 0.98, 192.0, 0.0, 0.0, 0.0, 0.0, 0.0, 0.0, 0.0, 0.0, 0.0, 1.677527053900558E9, 0.0, 2023-02-27 14:44:13.900
208.0, 8383.200571918556, -187500.02235174447, -187500.02235174447, -187500.02235174447, -187500.02235174447, -187500.02235174447, -187500.02235174447, -187500.02235174447, 0.26, -0.002, 0.98, 192.0, 0.0, 0.0, 0.0, 0.0, 0.0, 0.0, 0.0, 0.0, 0.0, 1.677527053900586E9, 0.0, 2023-02-27 14:44:13.900
209.0, 8662.99970901009, -187500.02235174447, -187500.02235174447, -187500.02235174447, -187500.02235174447, -187500.02235174447, -187500.02235174447, -187500.02235174447, 0.26, -0.002, 0.98, 192.0, 0.0, 0.0, 0.0, 0.0, 0.0, 0.0, 0.0, 0.0, 0.0, 1.677527053907124E9, 0.0, 2023-02-27 14:44:13.907
210.0, 8515.58995432734, -187500.02235174447, -187500.02235174447, -187500.02235174447, -187500.02235174447, -187500.02235174447, -187500.02235174447, -187500.02235174447, 0.26, -0.002, 0.98, 192.0, 0.0, 0.0, 0.0, 0.0, 0.0, 0.0, 0.0, 0.0, 0.0, 1.677527053907145E9, 0.0, 2023-02-27 14:44:13.907
211.0, 8091.465603287888, -187500.02235174447, -187500.02235174447, -187500.02235174447, -187500.02235174447, -187500.02235174447, -187500.02235174447, -187500.02235174447, 0.26, -0.002, 0.98, 192.0, 0.0, 0.0, 0.0, 0.0, 0.0, 0.0, 0.0, 0.0, 0.0, 1.677527053915099E9, 0.0, 2023-02-27 14:44:13.915
212.0, 8111.850394231128, -187500.02235174447, -187500.02235174447, -187500.02235174447, -187500.02235174447, -187500.02235174447, -187500.02235174447, -187500.02235174447, 0.26, -0.002, 0.98, 192.0, 0.0, 0.0, 0.0, 0.0, 0.0, 0.0, 0.0, 0.0, 0.0, 1.677527053915112E9, 0.0, 2023-02-27 14:44:13.915
213.0, 8581.482896981584, -187500.02235174447, -187500.02235174447, -187500.02235174447, -187500.02235174447, -187500.02235174447, -187500.02235174447, -187500.02235174447, 0.26, -0.002, 0.98, 192.0, 0.0, 0.0, 0.0, 0.0, 0.0, 0.0, 0.0, 0.0, 0.0, 1.677527053923206E9, 0.0, 2023-02-27 14:44:13.923
214.0, 8462.549264734896, -187500.02235174447, -187500.02235174447, -187500.02235174447, -187500.02235174447, -187500.02235174447, -187500.02235174447, -187500.02235174447, 0.264, -0.004, 0.972, 192.0, 8.0, 64.0, 255.0, 224.0, 30.0, 96.0, 0.0, 0.0, 0.0, 1.677527053923226E9, 0.0, 2023-02-27 14:44:13.923
215.0, 7959.880883679496, -187500.02235174447, -187500.02235174447, -187500.02235174447, -187500.02235174447, -187500.02235174447, -187500.02235174447, -187500.02235174447, 0.264, -0.004, 0.972, 192.0, 0.0, 0.0, 0.0, 0.0, 0.0, 0.0, 0.0, 0.0, 0.0, 1.677527053930416E9, 0.0, 2023-02-27 14:44:13.930
216.0, 8105.547202294732, -187500.02235174447, -187500.02235174447, -187500.02235174447, -187500.02235174447, -187500.02235174447, -187500.02235174447, -187500.02235174447, 0.264, -0.004, 0.972, 192.0, 0.0, 0.0, 0.0, 0.0, 0.0, 0.0, 0.0, 0.0, 0.0, 1.677527053930435E9, 0.0, 2023-02-27 14:44:13.930
217.0, 8614.272906097522, -187500.02235174447, -187500.02235174447, -187500.02235174447, -187500.02235174447, -187500.02235174447, -187500.02235174447, -187500.02235174447, 0.264, -0.004, 0.972, 192.0, 0.0, 0.0, 0.0, 0.0, 0.0, 0.0, 0.0, 0.0, 0.0, 1.677527053936782E9, 0.0, 2023-02-27 14:44:13.936
218.0, 8546.122437253289, -187500.02235174447, -187500.02235174447, -187500.02235174447, -187500.02235174447, -187500.02235174447, -187500.02235174447, -187500.02235174447, 0.264, -0.004, 0.972, 192.0, 0.0, 0.0, 0.0, 0.0, 0.0, 0.0, 0.0, 0.0, 0.0, 1.677527053944813E9, 0.0, 2023-02-27 14:44:13.944
219.0, 8015.357913417568, -187500.02235174447, -187500.02235174447, -187500.02235174447, -187500.02235174447, -187500.02235174447, -187500.02235174447, -187500.02235174447, 0.264, -0.004, 0.972, 192.0, 0.0, 0.0, 0.0, 0.0, 0.0, 0.0, 0.0, 0.0, 0.0, 1.677527053944841E9, 0.0, 2023-02-27 14:44:13.944
220.0, 7997.007131219761, -187500.02235174447, -187500.02235174447, -187500.02235174447, -187500.02235174447, -187500.02235174447, -187500.02235174447, -187500.02235174447, 0.264, -0.004, 0.972, 192.0, 0.0, 0.0, 0.0, 0.0, 0.0, 0.0, 0.0, 0.0, 0.0, 1.677527053952867E9, 0.0, 2023-02-27 14:44:13.952
221.0, 8531.794969057437, -187500.02235174447, -187500.02235174447, -187500.02235174447, -187500.02235174447, -187500.02235174447, -187500.02235174447, -187500.02235174447, 0.264, -0.004, 0.972, 192.0, 0.0, 0.0, 0.0, 0.0, 0.0, 0.0, 0.0, 0.0, 0.0, 1.677527053952888E9, 0.0, 2023-02-27 14:44:13.952
222.0, 8656.964738007156, -187500.02235174447, -187500.02235174447, -187500.02235174447, -187500.02235174447, -187500.02235174447, -187500.02235174447, -187500.02235174447, 0.264, -0.004, 0.972, 192.0, 0.0, 0.0, 0.0, 0.0, 0.0, 0.0, 0.0, 0.0, 0.0, 1.677527053959513E9, 0.0, 2023-02-27 14:44:13.959
223.0, 8176.3798804736, -187500.02235174447, -187500.02235174447, -187500.02235174447, -187500.02235174447, -187500.02235174447, -187500.02235174447, -187500.02235174447, 0.264, -0.004, 0.972, 192.0, 0.0, 0.0, 0.0, 0.0, 0.0, 0.0, 0.0, 0.0, 0.0, 1.677527053959535E9, 0.0, 2023-02-27 14:44:13.959
224.0, 7937.23856654627, -187500.02235174447, -187500.02235174447, -187500.02235174447, -187500.02235174447, -187500.02235174447, -187500.02235174447, -187500.02235174447, 0.26, -0.004, 0.976, 192.0, 8.0, 32.0, 255.0, 224.0, 30.0, 128.0, 0.0, 0.0, 0.0, 1.677527053967506E9, 0.0, 2023-02-27 14:44:13.967
225.0, 8450.658136684673, -187500.02235174447, -187500.02235174447, -187500.02235174447, -187500.02235174447, -187500.02235174447, -187500.02235174447, -187500.02235174447, 0.26, -0.004, 0.976, 192.0, 0.0, 0.0, 0.0, 0.0, 0.0, 0.0, 0.0, 0.0, 0.0, 1.677527053967524E9, 0.0, 2023-02-27 14:44:13.967
226.0, 8573.659786422228, -187500.02235174447, -187500.02235174447, -187500.02235174447, -187500.02235174447, -187500.02235174447, -187500.02235174447, -187500.02235174447, 0.26, -0.004, 0.976, 192.0, 0.0, 0.0, 0.0, 0.0, 0.0, 0.0, 0.0, 0.0, 0.0, 1.677527053975442E9, 0.0, 2023-02-27 14:44:13.975
227.0, 8155.95038604145, -187500.02235174447, -187500.02235174447, -187500.02235174447, -187500.02235174447, -187500.02235174447, -187500.02235174447, -187500.02235174447, 0.26, -0.004, 0.976, 192.0, 0.0, 0.0, 0.0, 0.0, 0.0, 0.0, 0.0, 0.0, 0.0, 1.677527053975458E9, 0.0, 2023-02-27 14:44:13.975
228.0, 7949.263805063225, -187500.02235174447, -187500.02235174447, -187500.02235174447, -187500.02235174447, -187500.02235174447, -187500.02235174447, -187500.02235174447, 0.26, -0.004, 0.976, 192.0, 0.0, 0.0, 0.0, 0.0, 0.0, 0.0, 0.0, 0.0, 0.0, 1.677527053982555E9, 0.0, 2023-02-27 14:44:13.982
229.0, 8407.228697208011, -187500.02235174447, -187500.02235174447, -187500.02235174447, -187500.02235174447, -187500.02235174447, -187500.02235174447, -187500.02235174447, 0.26, -0.004, 0.976, 192.0, 0.0, 0.0, 0.0, 0.0, 0.0, 0.0, 0.0, 0.0, 0.0, 1.677527053982579E9, 0.0, 2023-02-27 14:44:13.982
230.0, 8599.029016379001, -187500.02235174447, -187500.02235174447, -187500.02235174447, -187500.02235174447, -187500.02235174447, -187500.02235174447, -187500.02235174447, 0.26, -0.004, 0.976, 192.0, 0.0, 0.0, 0.0, 0.0, 0.0, 0.0, 0.0, 0.0, 0.0, 1.677527053990053E9, 0.0, 2023-02-27 14:44:13.990
231.0, 8224.525538030332, -187500.02235174447, -187500.02235174447, -187500.02235174447, -187500.02235174447, -187500.02235174447, -187500.02235174447, -187500.02235174447, 0.26, -0.004, 0.976, 192.0, 0.0, 0.0, 0.0, 0.0, 0.0, 0.0, 0.0, 0.0, 0.0, 1.677527053990074E9, 0.0, 2023-02-27 14:44:13.990
232.0, 7823.289373313114, -187500.02235174447, -187500.02235174447, -187500.02235174447, -187500.02235174447, -187500.02235174447, -187500.02235174447, -187500.02235174447, 0.26, -0.004, 0.976, 192.0, 0.0, 0.0, 0.0, 0.0, 0.0, 0.0, 0.0, 0.0, 0.0, 1.677527053996996E9, 0.0, 2023-02-27 14:44:13.996
233.0, 8106.977713939872, -187500.02235174447, -187500.02235174447, -187500.02235174447, -187500.02235174447, -187500.02235174447, -187500.02235174447, -187500.02235174447, 0.26, -0.01, 0.976, 192.0, 8.0, 32.0, 255.0, 176.0, 30.0, 128.0, 0.0, 0.0, 0.0, 1.677527054005109E9, 0.0, 2023-02-27 14:44:14.005
234.0, 8537.651126104729, -187500.02235174447, -187500.02235174447, -187500.02235174447, -187500.02235174447, -187500.02235174447, -187500.02235174447, -187500.02235174447, 0.26, -0.01, 0.976, 192.0, 0.0, 0.0, 0.0, 0.0, 0.0, 0.0, 0.0, 0.0, 0.0, 1.677527054005123E9, 0.0, 2023-02-27 14:44:14.005
235.0, 8393.303560412354, -187500.02235174447, -187500.02235174447, -187500.02235174447, -187500.02235174447, -187500.02235174447, -187500.02235174447, -187500.02235174447, 0.26, -0.01, 0.976, 192.0, 0.0, 0.0, 0.0, 0.0, 0.0, 0.0, 0.0, 0.0, 0.0, 1.677527054012166E9, 0.0, 2023-02-27 14:44:14.012
236.0, 7947.006278873239, -187500.02235174447, -187500.02235174447, -187500.02235174447, -187500.02235174447, -187500.02235174447, -187500.02235174447, -187500.02235174447, 0.26, -0.01, 0.976, 192.0, 0.0, 0.0, 0.0, 0.0, 0.0, 0.0, 0.0, 0.0, 0.0, 1.67752705401218E9, 0.0, 2023-02-27 14:44:14.012
237.0, 8013.413311649956, -187500.02235174447, -187500.02235174447, -187500.02235174447, -187500.02235174447, -187500.02235174447, -187500.02235174447, -187500.02235174447, 0.26, -0.01, 0.976, 192.0, 0.0, 0.0, 0.0, 0.0, 0.0, 0.0, 0.0, 0.0, 0.0, 1.677527054019741E9, 0.0, 2023-02-27 14:44:14.019
238.0, 8516.484024105552, -187500.02235174447, -187500.02235174447, -187500.02235174447, -187500.02235174447, -187500.02235174447, -187500.02235174447, -187500.02235174447, 0.26, -0.01, 0.976, 192.0, 0.0, 0.0, 0.0, 0.0, 0.0, 0.0, 0.0, 0.0, 0.0, 1.677527054019788E9, 0.0, 2023-02-27 14:44:14.019
239.0, 8465.924378147647, -187500.02235174447, -187500.02235174447, -187500.02235174447, -187500.02235174447, -187500.02235174447, -187500.02235174447, -187500.02235174447, 0.26, -0.01, 0.976, 192.0, 0.0, 0.0, 0.0, 0.0, 0.0, 0.0, 0.0, 0.0, 0.0, 1.67752705402765E9, 0.0, 2023-02-27 14:44:14.027
240.0, 7906.549621409134, -187500.02235174447, -187500.02235174447, -187500.02235174447, -187500.02235174447, -187500.02235174447, -187500.02235174447, -187500.02235174447, 0.26, -0.01, 0.976, 192.0, 0.0, 0.0, 0.0, 0.0, 0.0, 0.0, 0.0, 0.0, 0.0, 1.677527054027662E9, 0.0, 2023-02-27 14:44:14.027
241.0, 7918.172528525893, -187500.02235174447, -187500.02235174447, -187500.02235174447, -187500.02235174447, -187500.02235174447, -187500.02235174447, -187500.02235174447, 0.26, -0.01, 0.976, 192.0, 0.0, 0.0, 0.0, 0.0, 0.0, 0.0, 0.0, 0.0, 0.0, 1.677527054035702E9, 0.0, 2023-02-27 14:44:14.035
242.0, 8539.908652294715, -187500.02235174447, -187500.02235174447, -187500.02235174447, -187500.02235174447, -187500.02235174447, -187500.02235174447, -187500.02235174447, 0.26, -0.01, 0.976, 192.0, 0.0, 0.0, 0.0, 0.0, 0.0, 0.0, 0.0, 0.0, 0.0, 1.677527054035722E9, 0.0, 2023-02-27 14:44:14.035
243.0, 8544.82603607488, -187500.02235174447, -187500.02235174447, -187500.02235174447, -187500.02235174447, -187500.02235174447, -187500.02235174447, -187500.02235174447, 0.258, -0.006, 0.98, 192.0, 8.0, 16.0, 255.0, 208.0, 30.0, 160.0, 0.0, 0.0, 0.0, 1.677527054042335E9, 0.0, 2023-02-27 14:44:14.042
244.0, 7984.512506069244, -187500.02235174447, -187500.02235174447, -187500.02235174447, -187500.02235174447, -187500.02235174447, -187500.02235174447, -187500.02235174447, 0.258, -0.006, 0.98, 192.0, 0.0, 0.0, 0.0, 0.0, 0.0, 0.0, 0.0, 0.0, 0.0, 1.677527054042351E9, 0.0, 2023-02-27 14:44:14.042
245.0, 7824.094036113505, -187500.02235174447, -187500.02235174447, -187500.02235174447, -187500.02235174447, -187500.02235174447, -187500.02235174447, -187500.02235174447, 0.258, -0.006, 0.98, 192.0, 0.0, 0.0, 0.0, 0.0, 0.0, 0.0, 0.0, 0.0, 0.0, 1.677527054050397E9, 0.0, 2023-02-27 14:44:14.050
246.0, 8423.90309857167, -187500.02235174447, -187500.02235174447, -187500.02235174447, -187500.02235174447, -187500.02235174447, -187500.02235174447, -187500.02235174447, 0.258, -0.006, 0.98, 192.0, 0.0, 0.0, 0.0, 0.0, 0.0, 0.0, 0.0, 0.0, 0.0, 1.677527054050417E9, 0.0, 2023-02-27 14:44:14.050
247.0, 8714.922811379769, -187500.02235174447, -187500.02235174447, -187500.02235174447, -187500.02235174447, -187500.02235174447, -187500.02235174447, -187500.02235174447, 0.258, -0.006, 0.98, 192.0, 0.0, 0.0, 0.0, 0.0, 0.0, 0.0, 0.0, 0.0, 0.0, 1.677527054057409E9, 0.0, 2023-02-27 14:44:14.057
248.0, 8027.830186823629, -187500.02235174447, -187500.02235174447, -187500.02235174447, -187500.02235174447, -187500.02235174447, -187500.02235174447, -187500.02235174447, 0.258, -0.006, 0.98, 192.0, 0.0, 0.0, 0.0, 0.0, 0.0, 0.0, 0.0, 0.0, 0.0, 1.677527054057431E9, 0.0, 2023-02-27 14:44:14.057
249.0, 7832.520643773156, -187500.02235174447, -187500.02235174447, -187500.02235174447, -187500.02235174447, -187500.02235174447, -187500.02235174447, -187500.02235174447, 0.258, -0.006, 0.98, 192.0, 0.0, 0.0, 0.0, 0.0, 0.0, 0.0, 0.0, 0.0, 0.0, 1.677527054065453E9, 0.0, 2023-02-27 14:44:14.065
250.0, 8393.594133090273, -187500.02235174447, -187500.02235174447, -187500.02235174447, -187500.02235174447, -187500.02235174447, -187500.02235174447, -187500.02235174447, 0.258, -0.006, 0.98, 192.0, 0.0, 0.0, 0.0, 0.0, 0.0, 0.0, 0.0, 0.0, 0.0, 1.677527054071891E9, 0.0, 2023-02-27 14:44:14.071
251.0, 8694.403909969797, -187500.02235174447, -187500.02235174447, -187500.02235174447, -187500.02235174447, -187500.02235174447, -187500.02235174447, -187500.02235174447, 0.258, -0.006, 0.98, 192.0, 0.0, 0.0, 0.0, 0.0, 0.0, 0.0, 0.0, 0.0, 0.0, 1.677527054071915E9, 0.0, 2023-02-27 14:44:14.071
252.0, 8012.608648849565, -187500.02235174447, -187500.02235174447, -187500.02235174447, -187500.02235174447, -187500.02235174447, -187500.02235174447, -187500.02235174447, 0.258, -0.006, 0.98, 192.0, 0.0, 0.0, 0.0, 0.0, 0.0, 0.0, 0.0, 0.0, 0.0, 1.677527054079932E9, 0.0, 2023-02-27 14:44:14.079
253.0, 7693.7163107056995, -187500.02235174447, -187500.02235174447, -187500.02235174447, -187500.02235174447, -187500.02235174447, -187500.02235174447, -187500.02235174447, 0.256, -0.01, 0.984, 192.0, 8.0, 0.0, 255.0, 176.0, 30.0, 192.0, 0.0, 0.0, 0.0, 1.677527054079952E9, 0.0, 2023-02-27 14:44:14.079
254.0, 8152.932900539983, -187500.02235174447, -187500.02235174447, -187500.02235174447, -187500.02235174447, -187500.02235174447, -187500.02235174447, -187500.02235174447, 0.256, -0.01, 0.984, 192.0, 0.0, 0.0, 0.0, 0.0, 0.0, 0.0, 0.0, 0.0, 0.0, 1.677527054088296E9, 0.0, 2023-02-27 14:44:14.088
255.0, 8495.652198273207, -187500.02235174447, -187500.02235174447, -187500.02235174447, -187500.02235174447, -187500.02235174447, -187500.02235174447, -187500.02235174447, 0.256, -0.01, 0.984, 192.0, 0.0, 0.0, 0.0, 0.0, 0.0, 0.0, 0.0, 0.0, 0.0, 1.677527054088309E9, 0.0, 2023-02-27 14:44:14.088
0.0, 8325.533071223865, -187500.02235174447, -187500.02235174447, -187500.02235174447, -187500.02235174447, -187500.02235174447, -187500.02235174447, -187500.02235174447, 0.256, -0.01, 0.984, 192.0, 0.0, 0.0, 0.0, 0.0, 0.0, 0.0, 0.0, 0.0, 0.0, 1.67752705409504E9, 0.0, 2023-02-27 14:44:14.095
1.0, 7911.221136000292, -187500.02235174447, -187500.02235174447, -187500.02235174447, -187500.02235174447, -187500.02235174447, -187500.02235174447, -187500.02235174447, 0.256, -0.01, 0.984, 192.0, 0.0, 0.0, 0.0, 0.0, 0.0, 0.0, 0.0, 0.0, 0.0, 1.677527054095057E9, 0.0, 2023-02-27 14:44:14.095
2.0, 7969.313319839635, -187500.02235174447, -187500.02235174447, -187500.02235174447, -187500.02235174447, -187500.02235174447, -187500.02235174447, -187500.02235174447, 0.256, -0.01, 0.984, 192.0, 0.0, 0.0, 0.0, 0.0, 0.0, 0.0, 0.0, 0.0, 0.0, 1.677527054102545E9, 0.0, 2023-02-27 14:44:14.102
3.0, 8420.259764225455, -187500.02235174447, -187500.02235174447, -187500.02235174447, -187500.02235174447, -187500.02235174447, -187500.02235174447, -187500.02235174447, 0.256, -0.01, 0.984, 192.0, 0.0, 0.0, 0.0, 0.0, 0.0, 0.0, 0.0, 0.0, 0.0, 1.677527054102563E9, 0.0, 2023-02-27 14:44:14.102
4.0, 8174.1670577725245, -187500.02235174447, -187500.02235174447, -187500.02235174447, -187500.02235174447, -187500.02235174447, -187500.02235174447, -187500.02235174447, 0.256, -0.01, 0.984, 192.0, 0.0, 0.0, 0.0, 0.0, 0.0, 0.0, 0.0, 0.0, 0.0, 1.677527054110641E9, 0.0, 2023-02-27 14:44:14.110
5.0, 7744.365363641426, -187500.02235174447, -187500.02235174447, -187500.02235174447, -187500.02235174447, -187500.02235174447, -187500.02235174447, -187500.02235174447, 0.256, -0.01, 0.984, 192.0, 0.0, 0.0, 0.0, 0.0, 0.0, 0.0, 0.0, 0.0, 0.0, 1.677527054110661E9, 0.0, 2023-02-27 14:44:14.110
6.0, 7929.549566453644, -187500.02235174447, -187500.02235174447, -187500.02235174447, -187500.02235174447, -187500.02235174447, -187500.02235174447, -187500.02235174447, 0.256, -0.01, 0.984, 192.0, 0.0, 0.0, 0.0, 0.0, 0.0, 0.0, 0.0, 0.0, 0.0, 1.677527054117619E9, 0.0, 2023-02-27 14:44:14.117
7.0, 8395.739900557983, -187500.02235174447, -187500.02235174447, -187500.02235174447, -187500.02235174447, -187500.02235174447, -187500.02235174447, -187500.02235174447, 0.258, -0.01, 0.984, 192.0, 8.0, 16.0, 255.0, 176.0, 30.0, 192.0, 0.0, 0.0, 0.0, 1.67752705411764E9, 0.0, 2023-02-27 14:44:14.117
8.0, 8262.791724537818, -187500.02235174447, -187500.02235174447, -187500.02235174447, -187500.02235174447, -187500.02235174447, -187500.02235174447, -187500.02235174447, 0.258, -0.01, 0.984, 192.0, 0.0, 0.0, 0.0, 0.0, 0.0, 0.0, 0.0, 0.0, 0.0, 1.677527054124173E9, 0.0, 2023-02-27 14:44:14.124
9.0, 7757.418782403324, -187500.02235174447, -187500.02235174447, -187500.02235174447, -187500.02235174447, -187500.02235174447, -187500.02235174447, -187500.02235174447, 0.258, -0.01, 0.984, 192.0, 0.0, 0.0, 0.0, 0.0, 0.0, 0.0, 0.0, 0.0, 0.0, 1.677527054132287E9, 0.0, 2023-02-27 14:44:14.132
10.0, 7868.059917457094, -187500.02235174447, -187500.02235174447, -187500.02235174447, -187500.02235174447, -187500.02235174447, -187500.02235174447, -187500.02235174447, 0.258, -0.01, 0.984, 192.0, 0.0, 0.0, 0.0, 0.0, 0.0, 0.0, 0.0, 0.0, 0.0, 1.677527054132305E9, 0.0, 2023-02-27 14:44:14.132
11.0, 8477.01084339748, -187500.02235174447, -187500.02235174447, -187500.02235174447, -187500.02235174447, -187500.02235174447, -187500.02235174447, -187500.02235174447, 0.258, -0.01, 0.984, 192.0, 0.0, 0.0, 0.0, 0.0, 0.0, 0.0, 0.0, 0.0, 0.0, 1.677527054140212E9, 0.0, 2023-02-27 14:44:14.140
12.0, 8420.639743881196, -187500.02235174447, -187500.02235174447, -187500.02235174447, -187500.02235174447, -187500.02235174447, -187500.02235174447, -187500.02235174447, 0.258, -0.01, 0.984, 192.0, 0.0, 0.0, 0.0, 0.0, 0.0, 0.0, 0.0, 0.0, 0.0, 1.677527054140226E9, 0.0, 2023-02-27 14:44:14.140
13.0, 7737.369267626914, -187500.02235174447, -187500.02235174447, -187500.02235174447, -187500.02235174447, -187500.02235174447, -187500.02235174447, -187500.02235174447, 0.258, -0.01, 0.984, 192.0, 0.0, 0.0, 0.0, 0.0, 0.0, 0.0, 0.0, 0.0, 0.0, 1.677527054147314E9, 0.0, 2023-02-27 14:44:14.147
14.0, 7672.370394750881, -187500.02235174447, -187500.02235174447, -187500.02235174447, -187500.02235174447, -187500.02235174447, -187500.02235174447, -187500.02235174447, 0.258, -0.01, 0.984, 192.0, 0.0, 0.0, 0.0, 0.0, 0.0, 0.0, 0.0, 0.0, 0.0, 1.677527054147329E9, 0.0, 2023-02-27 14:44:14.147
15.0, 8331.523338737887, -187500.02235174447, -187500.02235174447, -187500.02235174447, -187500.02235174447, -187500.02235174447, -187500.02235174447, -187500.02235174447, 0.258, -0.01, 0.984, 192.0, 0.0, 0.0, 0.0, 0.0, 0.0, 0.0, 0.0, 0.0, 0.0, 1.677527054154947E9, 0.0, 2023-02-27 14:44:14.154
16.0, 8534.141902225245, -187500.02235174447, -187500.02235174447, -187500.02235174447, -187500.02235174447, -187500.02235174447, -187500.02235174447, -187500.02235174447, 0.258, -0.01, 0.984, 192.0, 0.0, 0.0, 0.0, 0.0, 0.0, 0.0, 0.0, 0.0, 0.0, 1.677527054154969E9, 0.0, 2023-02-27 14:44:14.154
17.0, 7932.052961832638, -187500.02235174447, -187500.02235174447, -187500.02235174447, -187500.02235174447, -187500.02235174447, -187500.02235174447, -187500.02235174447, 0.266, -0.012, 0.98, 192.0, 8.0, 80.0, 255.0, 160.0, 30.0, 160.0, 0.0, 0.0, 0.0, 1.677527054162918E9, 0.0, 2023-02-27 14:44:14.162
18.0, 7527.7769598694995, -187500.02235174447, -187500.02235174447, -187500.02235174447, -187500.02235174447, -187500.02235174447, -187500.02235174447, -187500.02235174447, 0.266, -0.012, 0.98, 192.0, 0.0, 0.0, 0.0, 0.0, 0.0, 0.0, 0.0, 0.0, 0.0, 1.677527054162939E9, 0.0, 2023-02-27 14:44:14.162
19.0, 8332.037428860358, -187500.02235174447, -187500.02235174447, -187500.02235174447, -187500.02235174447, -187500.02235174447, -187500.02235174447, -187500.02235174447, 0.266, -0.012, 0.98, 192.0, 0.0, 0.0, 0.0, 0.0, 0.0, 0.0, 0.0, 0.0, 0.0, 1.67752705417091E9, 0.0, 2023-02-27 14:44:14.170
20.0, 8996.979474661288, -187500.02235174447, -187500.02235174447, -187500.02235174447, -187500.02235174447, -187500.02235174447, -187500.02235174447, -187500.02235174447, 0.266, -0.012, 0.98, 192.0, 0.0, 0.0, 0.0, 0.0, 0.0, 0.0, 0.0, 0.0, 0.0, 1.677527054170927E9, 0.0, 2023-02-27 14:44:14.170
21.0, 7770.293387209581, -187500.02235174447, -187500.02235174447, -187500.02235174447, -187500.02235174447, -187500.02235174447, -187500.02235174447, -187500.02235174447, 0.266, -0.012, 0.98, 192.0, 0.0, 0.0, 0.0, 0.0, 0.0, 0.0, 0.0, 0.0, 0.0, 1.677527054177523E9, 0.0, 2023-02-27 14:44:14.177
22.0, 7353.7909810293895, -187500.02235174447, -187500.02235174447, -187500.02235174447, -187500.02235174447, -187500.02235174447, -187500.02235174447, -187500.02235174447, 0.266, -0.012, 0.98, 192.0, 0.0, 0.0, 0.0, 0.0, 0.0, 0.0, 0.0, 0.0, 0.0, 1.677527054177538E9, 0.0, 2023-02-27 14:44:14.177
23.0, 7870.65271981391, -187500.02235174447, -187500.02235174447, -187500.02235174447, -187500.02235174447, -187500.02235174447, -187500.02235174447, -187500.02235174447, 0.266, -0.012, 0.98, 192.0, 0.0, 0.0, 0.0, 0.0, 0.0, 0.0, 0.0, 0.0, 0.0, 1.677527054184503E9, 0.0, 2023-02-27 14:44:14.184
24.0, 8293.011283041393, -187500.02235174447, -187500.02235174447, -187500.02235174447, -187500.02235174447, -187500.02235174447, -187500.02235174447, -187500.02235174447, 0.266, -0.012, 0.98, 192.0, 0.0, 0.0, 0.0, 0.0, 0.0, 0.0, 0.0, 0.0, 0.0, 1.677527054192517E9, 0.0, 2023-02-27 14:44:14.192
25.0, 7981.718538012331, -187500.02235174447, -187500.02235174447, -187500.02235174447, -187500.02235174447, -187500.02235174447, -187500.02235174447, -187500.02235174447, 0.266, -0.012, 0.98, 192.0, 0.0, 0.0, 0.0, 0.0, 0.0, 0.0, 0.0, 0.0, 0.0, 1.677527054192536E9, 0.0, 2023-02-27 14:44:14.192
26.0, 7525.519433679514, -187500.02235174447, -187500.02235174447, -187500.02235174447, -187500.02235174447, -187500.02235174447, -187500.02235174447, -187500.02235174447, 0.266, -0.01, 0.978, 192.0, 8.0, 80.0, 255.0, 176.0, 30.0, 144.0, 0.0, 0.0, 0.0, 1.677527054200625E9, 0.0, 2023-02-27 14:44:14.200
27.0, 7827.73737045972, -187500.02235174447, -187500.02235174447, -187500.02235174447, -187500.02235174447, -187500.02235174447, -187500.02235174447, -187500.02235174447, 0.266, -0.01, 0.978, 192.0, 0.0, 0.0, 0.0, 0.0, 0.0, 0.0, 0.0, 0.0, 0.0, 1.677527054200649E9, 0.0, 2023-02-27 14:44:14.200
28.0, 8304.500079691421, -187500.02235174447, -187500.02235174447, -187500.02235174447, -187500.02235174447, -187500.02235174447, -187500.02235174447, -187500.02235174447, 0.266, -0.01, 0.978, 192.0, 0.0, 0.0, 0.0, 0.0, 0.0, 0.0, 0.0, 0.0, 0.0, 1.677527054207155E9, 0.0, 2023-02-27 14:44:14.207
29.0, 8134.313897408712, -187500.02235174447, -187500.02235174447, -187500.02235174447, -187500.02235174447, -187500.02235174447, -187500.02235174447, -187500.02235174447, 0.266, -0.01, 0.978, 192.0, 0.0, 0.0, 0.0, 0.0, 0.0, 0.0, 0.0, 0.0, 0.0, 1.677527054207171E9, 0.0, 2023-02-27 14:44:14.207
30.0, 7503.346503179849, -187500.02235174447, -187500.02235174447, -187500.02235174447, -187500.02235174447, -187500.02235174447, -187500.02235174447, -187500.02235174447, 0.266, -0.01, 0.978, 192.0, 0.0, 0.0, 0.0, 0.0, 0.0, 0.0, 0.0, 0.0, 0.0, 1.677527054216708E9, 0.0, 2023-02-27 14:44:14.216
31.0, 7747.025221231606, -187500.02235174447, -187500.02235174447, -187500.02235174447, -187500.02235174447, -187500.02235174447, -187500.02235174447, -187500.02235174447, 0.266, -0.01, 0.978, 192.0, 0.0, 0.0, 0.0, 0.0, 0.0, 0.0, 0.0, 0.0, 0.0, 1.677527054216723E9, 0.0, 2023-02-27 14:44:14.216
32.0, 8212.232078579913, -187500.02235174447, -187500.02235174447, -187500.02235174447, -187500.02235174447, -187500.02235174447, -187500.02235174447, -187500.02235174447, 0.266, -0.01, 0.978, 192.0, 0.0, 0.0, 0.0, 0.0, 0.0, 0.0, 0.0, 0.0, 0.0, 1.677527054223134E9, 0.0, 2023-02-27 14:44:14.223
33.0, 8107.17887963997, -187500.02235174447, -187500.02235174447, -187500.02235174447, -187500.02235174447, -187500.02235174447, -187500.02235174447, -187500.02235174447, 0.266, -0.01, 0.978, 192.0, 0.0, 0.0, 0.0, 0.0, 0.0, 0.0, 0.0, 0.0, 0.0, 1.67752705422315E9, 0.0, 2023-02-27 14:44:14.223
34.0, 7603.437614850714, -187500.02235174447, -187500.02235174447, -187500.02235174447, -187500.02235174447, -187500.02235174447, -187500.02235174447, -187500.02235174447, 0.266, -0.01, 0.978, 192.0, 0.0, 0.0, 0.0, 0.0, 0.0, 0.0, 0.0, 0.0, 0.0, 1.677527054230324E9, 0.0, 2023-02-27 14:44:14.230
35.0, 7800.40118699088, -187500.02235174447, -187500.02235174447, -187500.02235174447, -187500.02235174447, -187500.02235174447, -187500.02235174447, -187500.02235174447, 0.266, -0.01, 0.978, 192.0, 0.0, 0.0, 0.0, 0.0, 0.0, 0.0, 0.0, 0.0, 0.0, 1.677527054230341E9, 0.0, 2023-02-27 14:44:14.230
36.0, 8314.93834435205, -187500.02235174447, -187500.02235174447, -187500.02235174447, -187500.02235174447, -187500.02235174447, -187500.02235174447, -187500.02235174447, 0.262, -0.012, 0.98, 192.0, 8.0, 48.0, 255.0, 160.0, 30.0, 160.0, 0.0, 0.0, 0.0, 1.677527054237675E9, 0.0, 2023-02-27 14:44:14.237
37.0, 8114.264382632302, -187500.02235174447, -187500.02235174447, -187500.02235174447, -187500.02235174447, -187500.02235174447, -187500.02235174447, -187500.02235174447, 0.262, -0.012, 0.98, 192.0, 0.0, 0.0, 0.0, 0.0, 0.0, 0.0, 0.0, 0.0, 0.0, 1.677527054237701E9, 0.0, 2023-02-27 14:44:14.237
38.0, 7683.099232089428, -187500.02235174447, -187500.02235174447, -187500.02235174447, -187500.02235174447, -187500.02235174447, -187500.02235174447, -187500.02235174447, 0.262, -0.012, 0.98, 192.0, 0.0, 0.0, 0.0, 0.0, 0.0, 0.0, 0.0, 0.0, 0.0, 1.677527054244676E9, 0.0, 2023-02-27 14:44:14.244
39.0, 7455.513770045492, -187500.02235174447, -187500.02235174447, -187500.02235174447, -187500.02235174447, -187500.02235174447, -187500.02235174447, -187500.02235174447, 0.262, -0.012, 0.98, 192.0, 0.0, 0.0, 0.0, 0.0, 0.0, 0.0, 0.0, 0.0, 0.0, 1.677527054252698E9, 0.0, 2023-02-27 14:44:14.252
40.0, 7975.4824013093, -187500.02235174447, -187500.02235174447, -187500.02235174447, -187500.02235174447, -187500.02235174447, -187500.02235174447, -187500.02235174447, 0.262, -0.012, 0.98, 192.0, 0.0, 0.0, 0.0, 0.0, 0.0, 0.0, 0.0, 0.0, 0.0, 1.677527054252714E9, 0.0, 2023-02-27 14:44:14.252
41.0, 8240.261166126867, -187500.02235174447, -187500.02235174447, -187500.02235174447, -187500.02235174447, -187500.02235174447, -187500.02235174447, -187500.02235174447, 0.262, -0.012, 0.98, 192.0, 0.0, 0.0, 0.0, 0.0, 0.0, 0.0, 0.0, 0.0, 0.0, 1.677527054260001E9, 0.0, 2023-02-27 14:44:14.260
42.0, 7815.421559264846, -187500.02235174447, -187500.02235174447, -187500.02235174447, -187500.02235174447, -187500.02235174447, -187500.02235174447, -187500.02235174447, 0.262, -0.012, 0.98, 192.0, 0.0, 0.0, 0.0, 0.0, 0.0, 0.0, 0.0, 0.0, 0.0, 1.677527054260013E9, 0.0, 2023-02-27 14:44:14.260
43.0, 7715.732778994176, -187500.02235174447, -187500.02235174447, -187500.02235174447, -187500.02235174447, -187500.02235174447, -187500.02235174447, -187500.02235174447, 0.262, -0.012, 0.98, 192.0, 0.0, 0.0, 0.0, 0.0, 0.0, 0.0, 0.0, 0.0, 0.0, 1.677527054267447E9, 0.0, 2023-02-27 14:44:14.267
44.0, 8031.182948491925, -187500.02235174447, -187500.02235174447, -187500.02235174447, -187500.02235174447, -187500.02235174447, -187500.02235174447, -187500.02235174447, 0.262, -0.012, 0.98, 192.0, 0.0, 0.0, 0.0, 0.0, 0.0, 0.0, 0.0, 0.0, 0.0, 1.677527054267461E9, 0.0, 2023-02-27 14:44:14.267
45.0, 8299.158012766602, -187500.02235174447, -187500.02235174447, -187500.02235174447, -187500.02235174447, -187500.02235174447, -187500.02235174447, -187500.02235174447, 0.262, -0.012, 0.98, 192.0, 0.0, 0.0, 0.0, 0.0, 0.0, 0.0, 0.0, 0.0, 0.0, 1.677527054275372E9, 0.0, 2023-02-27 14:44:14.275
46.0, 7612.087739954918, -187500.02235174447, -187500.02235174447, -187500.02235174447, -187500.02235174447, -187500.02235174447, -187500.02235174447, -187500.02235174447, 0.262, -0.004, 0.978, 192.0, 8.0, 48.0, 255.0, 224.0, 30.0, 144.0, 0.0, 0.0, 0.0, 1.677527054275388E9, 0.0, 2023-02-27 14:44:14.275
47.0, 7255.622119381681, -187500.02235174447, -187500.02235174447, -187500.02235174447, -187500.02235174447, -187500.02235174447, -187500.02235174447, -187500.02235174447, 0.262, -0.004, 0.978, 192.0, 0.0, 0.0, 0.0, 0.0, 0.0, 0.0, 0.0, 0.0, 0.0, 1.677527054282547E9, 0.0, 2023-02-27 14:44:14.282
48.0, 7730.999020457151, -187500.02235174447, -187500.02235174447, -187500.02235174447, -187500.02235174447, -187500.02235174447, -187500.02235174447, -187500.02235174447, 0.262, -0.004, 0.978, 192.0, 0.0, 0.0, 0.0, 0.0, 0.0, 0.0, 0.0, 0.0, 0.0, 1.677527054282566E9, 0.0, 2023-02-27 14:44:14.282
49.0, 8077.808687425696, -187500.02235174447, -187500.02235174447, -187500.02235174447, -187500.02235174447, -187500.02235174447, -187500.02235174447, -187500.02235174447, 0.262, -0.004, 0.978, 192.0, 0.0, 0.0, 0.0, 0.0, 0.0, 0.0, 0.0, 0.0, 0.0, 1.677527054290018E9, 0.0, 2023-02-27 14:44:14.290
50.0, 7782.2292187487155, -187500.02235174447, -187500.02235174447, -187500.02235174447, -187500.02235174447, -187500.02235174447, -187500.02235174447, -187500.02235174447, 0.262, -0.004, 0.978, 192.0, 0.0, 0.0, 0.0, 0.0, 0.0, 0.0, 0.0, 0.0, 0.0, 1.67752705429004E9, 0.0, 2023-02-27 14:44:14.290
51.0, 7338.033001188398, -187500.02235174447, -187500.02235174447, -187500.02235174447, -187500.02235174447, -187500.02235174447, -187500.02235174447, -187500.02235174447, 0.262, -0.004, 0.978, 192.0, 0.0, 0.0, 0.0, 0.0, 0.0, 0.0, 0.0, 0.0, 0.0, 1.677527054298002E9, 0.0, 2023-02-27 14:44:14.298
52.0, 7622.391894148815, -187500.02235174447, -187500.02235174447, -187500.02235174447, -187500.02235174447, -187500.02235174447, -187500.02235174447, -187500.02235174447, 0.262, -0.004, 0.978, 192.0, 0.0, 0.0, 0.0, 0.0, 0.0, 0.0, 0.0, 0.0, 0.0, 1.677527054298018E9, 0.0, 2023-02-27 14:44:14.298
53.0, 8118.310048378712, -187500.02235174447, -187500.02235174447, -187500.02235174447, -187500.02235174447, -187500.02235174447, -187500.02235174447, -187500.02235174447, 0.262, -0.004, 0.978, 192.0, 0.0, 0.0, 0.0, 0.0, 0.0, 0.0, 0.0, 0.0, 0.0, 1.677527054305098E9, 0.0, 2023-02-27 14:44:14.305
54.0, 7870.004519224706, -187500.02235174447, -187500.02235174447, -187500.02235174447, -187500.02235174447, -187500.02235174447, -187500.02235174447, -187500.02235174447, 0.262, -0.004, 0.978, 192.0, 0.0, 0.0, 0.0, 0.0, 0.0, 0.0, 0.0, 0.0, 0.0, 1.677527054305114E9, 0.0, 2023-02-27 14:44:14.305
55.0, 7428.155234832197, -187500.02235174447, -187500.02235174447, -187500.02235174447, -187500.02235174447, -187500.02235174447, -187500.02235174447, -187500.02235174447, 0.262, -0.004, 0.978, 192.0, 0.0, 0.0, 0.0, 0.0, 0.0, 0.0, 0.0, 0.0, 0.0, 1.677527054312277E9, 0.0, 2023-02-27 14:44:14.312
56.0, 7507.012189270519, -187500.02235174447, -187500.02235174447, -187500.02235174447, -187500.02235174447, -187500.02235174447, -187500.02235174447, -187500.02235174447, 0.258, -0.006, 0.974, 192.0, 8.0, 16.0, 255.0, 208.0, 30.0, 112.0, 0.0, 0.0, 0.0, 1.677527054319699E9, 0.0, 2023-02-27 14:44:14.319
57.0, 8178.592703174675, -187500.02235174447, -187500.02235174447, -187500.02235174447, -187500.02235174447, -187500.02235174447, -187500.02235174447, -187500.02235174447, 0.258, -0.006, 0.974, 192.0, 0.0, 0.0, 0.0, 0.0, 0.0, 0.0, 0.0, 0.0, 0.0, 1.677527054319718E9, 0.0, 2023-02-27 14:44:14.319
58.0, 8533.650163847227, -187500.02235174447, -187500.02235174447, -187500.02235174447, -187500.02235174447, -187500.02235174447, -187500.02235174447, -187500.02235174447, 0.258, -0.006, 0.974, 192.0, 0.0, 0.0, 0.0, 0.0, 0.0, 0.0, 0.0, 0.0, 0.0, 1.677527054327705E9, 0.0, 2023-02-27 14:44:14.327
59.0, 7606.36569337436, -187500.02235174447, -187500.02235174447, -187500.02235174447, -187500.02235174447, -187500.02235174447, -187500.02235174447, -187500.02235174447, 0.258, -0.006, 0.974, 192.0, 0.0, 0.0, 0.0, 0.0, 0.0, 0.0, 0.0, 0.0, 0.0, 1.677527054327726E9, 0.0, 2023-02-27 14:44:14.327
60.0, 7229.492930113427, -187500.02235174447, -187500.02235174447, -187500.02235174447, -187500.02235174447, -187500.02235174447, -187500.02235174447, -187500.02235174447, 0.258, -0.006, 0.974, 192.0, 0.0, 0.0, 0.0, 0.0, 0.0, 0.0, 0.0, 0.0, 0.0, 1.677527054335688E9, 0.0, 2023-02-27 14:44:14.335
61.0, 7923.849871617541, -187500.02235174447, -187500.02235174447, -187500.02235174447, -187500.02235174447, -187500.02235174447, -187500.02235174447, -187500.02235174447, 0.258, -0.006, 0.974, 192.0, 0.0, 0.0, 0.0, 0.0, 0.0, 0.0, 0.0, 0.0, 0.0, 1.677527054335704E9, 0.0, 2023-02-27 14:44:14.335
62.0, 7937.685601435376, -187500.02235174447, -187500.02235174447, -187500.02235174447, -187500.02235174447, -187500.02235174447, -187500.02235174447, -187500.02235174447, 0.258, -0.006, 0.974, 192.0, 0.0, 0.0, 0.0, 0.0, 0.0, 0.0, 0.0, 0.0, 0.0, 1.677527054342446E9, 0.0, 2023-02-27 14:44:14.342
63.0, 7464.834447483355, -187500.02235174447, -187500.02235174447, -187500.02235174447, -187500.02235174447, -187500.02235174447, -187500.02235174447, -187500.02235174447, 0.258, -0.006, 0.974, 192.0, 0.0, 0.0, 0.0, 0.0, 0.0, 0.0, 0.0, 0.0, 0.0, 1.677527054342459E9, 0.0, 2023-02-27 14:44:14.342
64.0, 7247.53078788886, -187500.02235174447, -187500.02235174447, -187500.02235174447, -187500.02235174447, -187500.02235174447, -187500.02235174447, -187500.02235174447, 0.258, -0.006, 0.974, 192.0, 0.0, 0.0, 0.0, 0.0, 0.0, 0.0, 0.0, 0.0, 0.0, 1.677527054350348E9, 0.0, 2023-02-27 14:44:14.350
65.0, 7818.439044766313, -187500.02235174447, -187500.02235174447, -187500.02235174447, -187500.02235174447, -187500.02235174447, -187500.02235174447, -187500.02235174447, 0.258, -0.006, 0.974, 192.0, 0.0, 0.0, 0.0, 0.0, 0.0, 0.0, 0.0, 0.0, 0.0, 1.677527054350363E9, 0.0, 2023-02-27 14:44:14.350
66.0, 7970.095630895571, -187500.02235174447, -187500.02235174447, -187500.02235174447, -187500.02235174447, -187500.02235174447, -187500.02235174447, -187500.02235174447, 0.256, 0.002, 0.976, 192.0, 8.0, 0.0, 0.0, 16.0, 30.0, 128.0, 0.0, 0.0, 0.0, 1.677527054358325E9, 0.0, 2023-02-27 14:44:14.358
67.0, 7503.458261902126, -187500.02235174447, -187500.02235174447, -187500.02235174447, -187500.02235174447, -187500.02235174447, -187500.02235174447, -187500.02235174447, 0.256, 0.002, 0.976, 192.0, 0.0, 0.0, 0.0, 0.0, 0.0, 0.0, 0.0, 0.0, 0.0, 1.677527054358341E9, 0.0, 2023-02-27 14:44:14.358
68.0, 7228.57650859076, -187500.02235174447, -187500.02235174447, -187500.02235174447, -187500.02235174447, -187500.02235174447, -187500.02235174447, -187500.02235174447, 0.256, 0.002, 0.976, 192.0, 0.0, 0.0, 0.0, 0.0, 0.0, 0.0, 0.0, 0.0, 0.0, 1.67752705436556E9, 0.0, 2023-02-27 14:44:14.365
69.0, 7626.281097684038, -187500.02235174447, -187500.02235174447, -187500.02235174447, -187500.02235174447, -187500.02235174447, -187500.02235174447, -187500.02235174447, 0.256, 0.002, 0.976, 192.0, 0.0, 0.0, 0.0, 0.0, 0.0, 0.0, 0.0, 0.0, 0.0, 1.677527054365581E9, 0.0, 2023-02-27 14:44:14.365
70.0, 8031.518224658755, -187500.02235174447, -187500.02235174447, -187500.02235174447, -187500.02235174447, -187500.02235174447, -187500.02235174447, -187500.02235174447, 0.256, 0.002, 0.976, 192.0, 0.0, 0.0, 0.0, 0.0, 0.0, 0.0, 0.0, 0.0, 0.0, 1.677527054371881E9, 0.0, 2023-02-27 14:44:14.371
71.0, 7903.599191141033, -187500.02235174447, -187500.02235174447, -187500.02235174447, -187500.02235174447, -187500.02235174447, -187500.02235174447, -187500.02235174447, 0.256, 0.002, 0.976, 192.0, 0.0, 0.0, 0.0, 0.0, 0.0, 0.0, 0.0, 0.0, 0.0, 1.677527054379925E9, 0.0, 2023-02-27 14:44:14.379
72.0, 7183.291874324307, -187500.02235174447, -187500.02235174447, -187500.02235174447, -187500.02235174447, -187500.02235174447, -187500.02235174447, -187500.02235174447, 0.256, 0.002, 0.976, 192.0, 0.0, 0.0, 0.0, 0.0, 0.0, 0.0, 0.0, 0.0, 0.0, 1.677527054379942E9, 0.0, 2023-02-27 14:44:14.379
73.0, 7441.208653594095, -187500.02235174447, -187500.02235174447, -187500.02235174447, -187500.02235174447, -187500.02235174447, -187500.02235174447, -187500.02235174447, 0.256, 0.002, 0.976, 192.0, 0.0, 0.0, 0.0, 0.0, 0.0, 0.0, 0.0, 0.0, 0.0, 1.677527054387994E9, 0.0, 2023-02-27 14:44:14.387
74.0, 7885.2484089432255, -187500.02235174447, -187500.02235174447, -187500.02235174447, -187500.02235174447, -187500.02235174447, -187500.02235174447, -187500.02235174447, 0.256, 0.002, 0.976, 192.0, 0.0, 0.0, 0.0, 0.0, 0.0, 0.0, 0.0, 0.0, 0.0, 1.677527054388009E9, 0.0, 2023-02-27 14:44:14.388
75.0, 7722.058322675029, -187500.02235174447, -187500.02235174447, -187500.02235174447, -187500.02235174447, -187500.02235174447, -187500.02235174447, -187500.02235174447, 0.256, 0.002, 0.976, 192.0, 0.0, 0.0, 0.0, 0.0, 0.0, 0.0, 0.0, 0.0, 0.0, 1.677527054395053E9, 0.0, 2023-02-27 14:44:14.395
76.0, 7380.613074375758, -187500.02235174447, -187500.02235174447, -187500.02235174447, -187500.02235174447, -187500.02235174447, -187500.02235174447, -187500.02235174447, 0.254, -0.006, 0.972, 192.0, 7.0, 240.0, 255.0, 208.0, 30.0, 96.0, 0.0, 0.0, 0.0, 1.677527054395065E9, 0.0, 2023-02-27 14:44:14.395
77.0, 7512.577773639891, -187500.02235174447, -187500.02235174447, -187500.02235174447, -187500.02235174447, -187500.02235174447, -187500.02235174447, -187500.02235174447, 0.254, -0.006, 0.972, 192.0, 0.0, 0.0, 0.0, 0.0, 0.0, 0.0, 0.0, 0.0, 0.0, 1.677527054402645E9, 0.0, 2023-02-27 14:44:14.402
78.0, 7852.637213782932, -187500.02235174447, -187500.02235174447, -187500.02235174447, -187500.02235174447, -187500.02235174447, -187500.02235174447, -187500.02235174447, 0.254, -0.006, 0.972, 192.0, 0.0, 0.0, 0.0, 0.0, 0.0, 0.0, 0.0, 0.0, 0.0, 1.677527054402661E9, 0.0, 2023-02-27 14:44:14.402
79.0, 7774.20494248926, -187500.02235174447, -187500.02235174447, -187500.02235174447, -187500.02235174447, -187500.02235174447, -187500.02235174447, -187500.02235174447, 0.254, -0.006, 0.972, 192.0, 0.0, 0.0, 0.0, 0.0, 0.0, 0.0, 0.0, 0.0, 0.0, 1.677527054410739E9, 0.0, 2023-02-27 14:44:14.410
80.0, 7099.942219250467, -187500.02235174447, -187500.02235174447, -187500.02235174447, -187500.02235174447, -187500.02235174447, -187500.02235174447, -187500.02235174447, 0.254, -0.006, 0.972, 192.0, 0.0, 0.0, 0.0, 0.0, 0.0, 0.0, 0.0, 0.0, 0.0, 1.677527054410757E9, 0.0, 2023-02-27 14:44:14.410
81.0, 7254.012793780898, -187500.02235174447, -187500.02235174447, -187500.02235174447, -187500.02235174447, -187500.02235174447, -187500.02235174447, -187500.02235174447, 0.254, -0.006, 0.972, 192.0, 0.0, 0.0, 0.0, 0.0, 0.0, 0.0, 0.0, 0.0, 0.0, 1.677527054417765E9, 0.0, 2023-02-27 14:44:14.417
82.0, 7768.929930797807, -187500.02235174447, -187500.02235174447, -187500.02235174447, -187500.02235174447, -187500.02235174447, -187500.02235174447, -187500.02235174447, 0.254, -0.006, 0.972, 192.0, 0.0, 0.0, 0.0, 0.0, 0.0, 0.0, 0.0, 0.0, 0.0, 1.677527054417788E9, 0.0, 2023-02-27 14:44:14.417
83.0, 7772.461506421746, -187500.02235174447, -187500.02235174447, -187500.02235174447, -187500.02235174447, -187500.02235174447, -187500.02235174447, -187500.02235174447, 0.254, -0.006, 0.972, 192.0, 0.0, 0.0, 0.0, 0.0, 0.0, 0.0, 0.0, 0.0, 0.0, 1.677527054425255E9, 0.0, 2023-02-27 14:44:14.425
84.0, 7342.615108801736, -187500.02235174447, -187500.02235174447, -187500.02235174447, -187500.02235174447, -187500.02235174447, -187500.02235174447, -187500.02235174447, 0.254, -0.006, 0.972, 192.0, 0.0, 0.0, 0.0, 0.0, 0.0, 0.0, 0.0, 0.0, 0.0, 1.677527054425272E9, 0.0, 2023-02-27 14:44:14.425
85.0, 7323.347905081261, -187500.02235174447, -187500.02235174447, -187500.02235174447, -187500.02235174447, -187500.02235174447, -187500.02235174447, -187500.02235174447, 0.26, 0.0, 0.972, 192.0, 8.0, 32.0, 0.0, 0.0, 30.0, 96.0, 0.0, 0.0, 0.0, 1.677527054432342E9, 0.0, 2023-02-27 14:44:14.432
86.0, 7633.679525098744, -187500.02235174447, -187500.02235174447, -187500.02235174447, -187500.02235174447, -187500.02235174447, -187500.02235174447, -187500.02235174447, 0.26, 0.0, 0.972, 192.0, 0.0, 0.0, 0.0, 0.0, 0.0, 0.0, 0.0, 0.0, 0.0, 1.677527054440211E9, 0.0, 2023-02-27 14:44:14.440
87.0, 7758.692831837277, -187500.02235174447, -187500.02235174447, -187500.02235174447, -187500.02235174447, -187500.02235174447, -187500.02235174447, -187500.02235174447, 0.26, 0.0, 0.972, 192.0, 0.0, 0.0, 0.0, 0.0, 0.0, 0.0, 0.0, 0.0, 0.0, 1.677527054440224E9, 0.0, 2023-02-27 14:44:14.440
88.0, 7292.547201221848, -187500.02235174447, -187500.02235174447, -187500.02235174447, -187500.02235174447, -187500.02235174447, -187500.02235174447, -187500.02235174447, 0.26, 0.0, 0.972, 192.0, 0.0, 0.0, 0.0, 0.0, 0.0, 0.0, 0.0, 0.0, 0.0, 1.677527054447377E9, 0.0, 2023-02-27 14:44:14.447
89.0, 7121.154024738554, -187500.02235174447, -187500.02235174447, -187500.02235174447, -187500.02235174447, -187500.02235174447, -187500.02235174447, -187500.02235174447, 0.26, 0.0, 0.972, 192.0, 0.0, 0.0, 0.0, 0.0, 0.0, 0.0, 0.0, 0.0, 0.0, 1.677527054447398E9, 0.0, 2023-02-27 14:44:14.447
90.0, 7590.853582722376, -187500.02235174447, -187500.02235174447, -187500.02235174447, -187500.02235174447, -187500.02235174447, -187500.02235174447, -187500.02235174447, 0.26, 0.0, 0.972, 192.0, 0.0, 0.0, 0.0, 0.0, 0.0, 0.0, 0.0, 0.0, 0.0, 1.67752705445501E9, 0.0, 2023-02-27 14:44:14.455
91.0, 7862.874312743464, -187500.02235174447, -187500.02235174447, -187500.02235174447, -187500.02235174447, -187500.02235174447, -187500.02235174447, -187500.02235174447, 0.26, 0.0, 0.972, 192.0, 0.0, 0.0, 0.0, 0.0, 0.0, 0.0, 0.0, 0.0, 0.0, 1.677527054455033E9, 0.0, 2023-02-27 14:44:14.455
92.0, 7686.7872699245545, -187500.02235174447, -187500.02235174447, -187500.02235174447, -187500.02235174447, -187500.02235174447, -187500.02235174447, -187500.02235174447, 0.26, 0.0, 0.972, 192.0, 0.0, 0.0, 0.0, 0.0, 0.0, 0.0, 0.0, 0.0, 0.0, 1.677527054462807E9, 0.0, 2023-02-27 14:44:14.462
93.0, 7636.853472811398, -187500.02235174447, -187500.02235174447, -187500.02235174447, -187500.02235174447, -187500.02235174447, -187500.02235174447, -187500.02235174447, 0.26, 0.0, 0.972, 192.0, 0.0, 0.0, 0.0, 0.0, 0.0, 0.0, 0.0, 0.0, 0.0, 1.677527054462823E9, 0.0, 2023-02-27 14:44:14.462
94.0, 7321.8279864583, -187500.02235174447, -187500.02235174447, -187500.02235174447, -187500.02235174447, -187500.02235174447, -187500.02235174447, -187500.02235174447, 0.26, 0.0, 0.972, 192.0, 0.0, 0.0, 0.0, 0.0, 0.0, 0.0, 0.0, 0.0, 0.0, 1.677527054470921E9, 0.0, 2023-02-27 14:44:14.470
95.0, 7614.5911353339125, -187500.02235174447, -187500.02235174447, -187500.02235174447, -187500.02235174447, -187500.02235174447, -187500.02235174447, -187500.02235174447, 0.264, 0.0, 0.98, 192.0, 8.0, 64.0, 0.0, 0.0, 30.0, 160.0, 0.0, 0.0, 0.0, 1.677527054470935E9, 0.0, 2023-02-27 14:44:14.470
96.0, 7339.619975044725, -187500.02235174447, -187500.02235174447, -187500.02235174447, -187500.02235174447, -187500.02235174447, -187500.02235174447, -187500.02235174447, 0.264, 0.0, 0.98, 192.0, 0.0, 0.0, 0.0, 0.0, 0.0, 0.0, 0.0, 0.0, 0.0, 1.677527054477501E9, 0.0, 2023-02-27 14:44:14.477
97.0, 7068.359204335118, -187500.02235174447, -187500.02235174447, -187500.02235174447, -187500.02235174447, -187500.02235174447, -187500.02235174447, -187500.02235174447, 0.264, 0.0, 0.98, 192.0, 0.0, 0.0, 0.0, 0.0, 0.0, 0.0, 0.0, 0.0, 0.0, 1.677527054477516E9, 0.0, 2023-02-27 14:44:14.477
98.0, 7998.102366698071, -187500.02235174447, -187500.02235174447, -187500.02235174447, -187500.02235174447, -187500.02235174447, -187500.02235174447, -187500.02235174447, 0.264, 0.0, 0.98, 192.0, 0.0, 0.0, 0.0, 0.0, 0.0, 0.0, 0.0, 0.0, 0.0, 1.67752705448542E9, 0.0, 2023-02-27 14:44:14.485
99.0, 8020.230593708825, -187500.02235174447, -187500.02235174447, -187500.02235174447, -187500.02235174447, -187500.02235174447, -187500.02235174447, -187500.02235174447, 0.264, 0.0, 0.98, 192.0, 0.0, 0.0, 0.0, 0.0, 0.0, 0.0, 0.0, 0.0, 0.0, 1.677527054485435E9, 0.0, 2023-02-27 14:44:14.485
100.0, 7261.411221195605, -187500.02235174447, -187500.02235174447, -187500.02235174447, -187500.02235174447, -187500.02235174447, -187500.02235174447, -187500.02235174447, 0.264, 0.0, 0.98, 192.0, 0.0, 0.0, 0.0, 0.0, 0.0, 0.0, 0.0, 0.0, 0.0, 1.677527054492514E9, 0.0, 2023-02-27 14:44:14.492
101.0, 6926.716199721837, -187500.02235174447, -187500.02235174447, -187500.02235174447, -187500.02235174447, -187500.02235174447, -187500.02235174447, -187500.02235174447, 0.264, 0.0, 0.98, 192.0, 0.0, 0.0, 0.0, 0.0, 0.0, 0.0, 0.0, 0.0, 0.0, 1.677527054500599E9, 0.0, 2023-02-27 14:44:14.500
102.0, 7182.196638845997, -187500.02235174447, -187500.02235174447, -187500.02235174447, -187500.02235174447, -187500.02235174447, -187500.02235174447, -187500.02235174447, 0.264, 0.0, 0.98, 192.0, 0.0, 0.0, 0.0, 0.0, 0.0, 0.0, 0.0, 0.0, 0.0, 1.677527054500624E9, 0.0, 2023-02-27 14:44:14.500
103.0, 7704.847479444442, -187500.02235174447, -187500.02235174447, -187500.02235174447, -187500.02235174447, -187500.02235174447, -187500.02235174447, -187500.02235174447, 0.264, 0.0, 0.98, 192.0, 0.0, 0.0, 0.0, 0.0, 0.0, 0.0, 0.0, 0.0, 0.0, 1.677527054507163E9, 0.0, 2023-02-27 14:44:14.507
104.0, 7575.475582537125, -187500.02235174447, -187500.02235174447, -187500.02235174447, -187500.02235174447, -187500.02235174447, -187500.02235174447, -187500.02235174447, 0.264, 0.0, 0.98, 192.0, 0.0, 0.0, 0.0, 0.0, 0.0, 0.0, 0.0, 0.0, 0.0, 1.67752705450718E9, 0.0, 2023-02-27 14:44:14.507
105.0, 7046.745067446836, -187500.02235174447, -187500.02235174447, -187500.02235174447, -187500.02235174447, -187500.02235174447, -187500.02235174447, -187500.02235174447, 0.26, -0.004, 0.982, 192.0, 8.0, 32.0, 255.0, 224.0, 30.0, 176.0, 0.0, 0.0, 0.0, 1.677527054515214E9, 0.0, 2023-02-27 14:44:14.515
106.0, 7110.067559488722, -187500.02235174447, -187500.02235174447, -187500.02235174447, -187500.02235174447, -187500.02235174447, -187500.02235174447, -187500.02235174447, 0.26, -0.004, 0.982, 192.0, 0.0, 0.0, 0.0, 0.0, 0.0, 0.0, 0.0, 0.0, 0.0, 1.67752705451523E9, 0.0, 2023-02-27 14:44:14.515
107.0, 7560.835189918899, -187500.02235174447, -187500.02235174447, -187500.02235174447, -187500.02235174447, -187500.02235174447, -187500.02235174447, -187500.02235174447, 0.26, -0.004, 0.982, 192.0, 0.0, 0.0, 0.0, 0.0, 0.0, 0.0, 0.0, 0.0, 0.0, 1.677527054523036E9, 0.0, 2023-02-27 14:44:14.523
108.0, 7615.351094645393, -187500.02235174447, -187500.02235174447, -187500.02235174447, -187500.02235174447, -187500.02235174447, -187500.02235174447, -187500.02235174447, 0.26, -0.004, 0.982, 192.0, 0.0, 0.0, 0.0, 0.0, 0.0, 0.0, 0.0, 0.0, 0.0, 1.677527054523048E9, 0.0, 2023-02-27 14:44:14.523
109.0, 7160.18017055752, -187500.02235174447, -187500.02235174447, -187500.02235174447, -187500.02235174447, -187500.02235174447, -187500.02235174447, -187500.02235174447, 0.26, -0.004, 0.982, 192.0, 0.0, 0.0, 0.0, 0.0, 0.0, 0.0, 0.0, 0.0, 0.0, 1.677527054530223E9, 0.0, 2023-02-27 14:44:14.530
110.0, 6995.604276133094, -187500.02235174447, -187500.02235174447, -187500.02235174447, -187500.02235174447, -187500.02235174447, -187500.02235174447, -187500.02235174447, 0.26, -0.004, 0.982, 192.0, 0.0, 0.0, 0.0, 0.0, 0.0, 0.0, 0.0, 0.0, 0.0, 1.677527054530244E9, 0.0, 2023-02-27 14:44:14.530
111.0, 7678.226551798171, -187500.02235174447, -187500.02235174447, -187500.02235174447, -187500.02235174447, -187500.02235174447, -187500.02235174447, -187500.02235174447, 0.26, -0.004, 0.982, 192.0, 0.0, 0.0, 0.0, 0.0, 0.0, 0.0, 0.0, 0.0, 0.0, 1.677527054537738E9, 0.0, 2023-02-27 14:44:14.537
112.0, 7874.832496027053, -187500.02235174447, -187500.02235174447, -187500.02235174447, -187500.02235174447, -187500.02235174447, -187500.02235174447, -187500.02235174447, 0.26, -0.004, 0.982, 192.0, 0.0, 0.0, 0.0, 0.0, 0.0, 0.0, 0.0, 0.0, 0.0, 1.677527054537761E9, 0.0, 2023-02-27 14:44:14.537
113.0, 7433.989040135031, -187500.02235174447, -187500.02235174447, -187500.02235174447, -187500.02235174447, -187500.02235174447, -187500.02235174447, -187500.02235174447, 0.26, -0.004, 0.982, 192.0, 0.0, 0.0, 0.0, 0.0, 0.0, 0.0, 0.0, 0.0, 0.0, 1.677527054545744E9, 0.0, 2023-02-27 14:44:14.545
114.0, 6905.884373889491, -187500.02235174447, -187500.02235174447, -187500.02235174447, -187500.02235174447, -187500.02235174447, -187500.02235174447, -187500.02235174447, 0.26, -0.004, 0.982, 192.0, 0.0, 0.0, 0.0, 0.0, 0.0, 0.0, 0.0, 0.0, 0.0, 1.677527054545755E9, 0.0, 2023-02-27 14:44:14.545
115.0, 7293.6871401890685, -187500.02235174447, -187500.02235174447, -187500.02235174447, -187500.02235174447, -187500.02235174447, -187500.02235174447, -187500.02235174447, 0.258, -0.004, 0.984, 192.0, 8.0, 16.0, 255.0, 224.0, 30.0, 192.0, 0.0, 0.0, 0.0, 1.677527054552914E9, 0.0, 2023-02-27 14:44:14.552
116.0, 7577.777812216022, -187500.02235174447, -187500.02235174447, -187500.02235174447, -187500.02235174447, -187500.02235174447, -187500.02235174447, -187500.02235174447, 0.258, -0.004, 0.984, 192.0, 0.0, 0.0, 0.0, 0.0, 0.0, 0.0, 0.0, 0.0, 0.0, 1.677527054552927E9, 0.0, 2023-02-27 14:44:14.552
117.0, 7177.3463102991955, -187500.02235174447, -187500.02235174447, -187500.02235174447, -187500.02235174447, -187500.02235174447, -187500.02235174447, -187500.02235174447, 0.258, -0.004, 0.984, 192.0, 0.0, 0.0, 0.0, 0.0, 0.0, 0.0, 0.0, 0.0, 0.0, 1.677527054559382E9, 0.0, 2023-02-27 14:44:14.559
118.0, 7015.586735676138, -187500.02235174447, -187500.02235174447, -187500.02235174447, -187500.02235174447, -187500.02235174447, -187500.02235174447, -187500.02235174447, 0.258, -0.004, 0.984, 192.0, 0.0, 0.0, 0.0, 0.0, 0.0, 0.0, 0.0, 0.0, 0.0, 1.677527054567404E9, 0.0, 2023-02-27 14:44:14.567
119.0, 7271.067174800298, -187500.02235174447, -187500.02235174447, -187500.02235174447, -187500.02235174447, -187500.02235174447, -187500.02235174447, -187500.02235174447, 0.258, -0.004, 0.984, 192.0, 0.0, 0.0, 0.0, 0.0, 0.0, 0.0, 0.0, 0.0, 0.0, 1.677527054567418E9, 0.0, 2023-02-27 14:44:14.567
120.0, 7597.872030481342, -187500.02235174447, -187500.02235174447, -187500.02235174447, -187500.02235174447, -187500.02235174447, -187500.02235174447, -187500.02235174447, 0.258, -0.004, 0.984, 192.0, 0.0, 0.0, 0.0, 0.0, 0.0, 0.0, 0.0, 0.0, 0.0, 1.67752705457544E9, 0.0, 2023-02-27 14:44:14.575
121.0, 7352.807504273356, -187500.02235174447, -187500.02235174447, -187500.02235174447, -187500.02235174447, -187500.02235174447, -187500.02235174447, -187500.02235174447, 0.258, -0.004, 0.984, 192.0, 0.0, 0.0, 0.0, 0.0, 0.0, 0.0, 0.0, 0.0, 0.0, 1.677527054575458E9, 0.0, 2023-02-27 14:44:14.575
122.0, 7114.090873490677, -187500.02235174447, -187500.02235174447, -187500.02235174447, -187500.02235174447, -187500.02235174447, -187500.02235174447, -187500.02235174447, 0.258, -0.004, 0.984, 192.0, 0.0, 0.0, 0.0, 0.0, 0.0, 0.0, 0.0, 0.0, 0.0, 1.677527054582652E9, 0.0, 2023-02-27 14:44:14.582
123.0, 7201.463842566472, -187500.02235174447, -187500.02235174447, -187500.02235174447, -187500.02235174447, -187500.02235174447, -187500.02235174447, -187500.02235174447, 0.258, -0.004, 0.984, 192.0, 0.0, 0.0, 0.0, 0.0, 0.0, 0.0, 0.0, 0.0, 0.0, 1.677527054582675E9, 0.0, 2023-02-27 14:44:14.582
124.0, 7586.338530342404, -187500.02235174447, -187500.02235174447, -187500.02235174447, -187500.02235174447, -187500.02235174447, -187500.02235174447, -187500.02235174447, 0.258, -0.004, 0.984, 192.0, 0.0, 0.0, 0.0, 0.0, 0.0, 0.0, 0.0, 0.0, 0.0, 1.677527054590066E9, 0.0, 2023-02-27 14:44:14.590
125.0, 7353.701574051568, -187500.02235174447, -187500.02235174447, -187500.02235174447, -187500.02235174447, -187500.02235174447, -187500.02235174447, -187500.02235174447, 0.264, -0.01, 0.976, 192.0, 8.0, 64.0, 255.0, 176.0, 30.0, 128.0, 0.0, 0.0, 0.0, 1.677527054590084E9, 0.0, 2023-02-27 14:44:14.590
126.0, 6917.216708328332, -187500.02235174447, -187500.02235174447, -187500.02235174447, -187500.02235174447, -187500.02235174447, -187500.02235174447, -187500.02235174447, 0.264, -0.01, 0.976, 192.0, 0.0, 0.0, 0.0, 0.0, 0.0, 0.0, 0.0, 0.0, 0.0, 1.677527054598062E9, 0.0, 2023-02-27 14:44:14.598
127.0, 7160.761315913358, -187500.02235174447, -187500.02235174447, -187500.02235174447, -187500.02235174447, -187500.02235174447, -187500.02235174447, -187500.02235174447, 0.264, -0.01, 0.976, 192.0, 0.0, 0.0, 0.0, 0.0, 0.0, 0.0, 0.0, 0.0, 0.0, 1.677527054598078E9, 0.0, 2023-02-27 14:44:14.598
128.0, 7871.904417503407, -187500.02235174447, -187500.02235174447, -187500.02235174447, -187500.02235174447, -187500.02235174447, -187500.02235174447, -187500.02235174447, 0.264, -0.01, 0.976, 192.0, 0.0, 0.0, 0.0, 0.0, 0.0, 0.0, 0.0, 0.0, 0.0, 1.677527054606E9, 0.0, 2023-02-27 14:44:14.606
129.0, 7904.627371385976, -187500.02235174447, -187500.02235174447, -187500.02235174447, -187500.02235174447, -187500.02235174447, -187500.02235174447, -187500.02235174447, 0.264, -0.01, 0.976, 192.0, 0.0, 0.0, 0.0, 0.0, 0.0, 0.0, 0.0, 0.0, 0.0, 1.677527054606017E9, 0.0, 2023-02-27 14:44:14.606
130.0, 7071.264931114309, -187500.02235174447, -187500.02235174447, -187500.02235174447, -187500.02235174447, -187500.02235174447, -187500.02235174447, -187500.02235174447, 0.264, -0.01, 0.976, 192.0, 0.0, 0.0, 0.0, 0.0, 0.0, 0.0, 0.0, 0.0, 0.0, 1.677527054612591E9, 0.0, 2023-02-27 14:44:14.612
131.0, 6704.763377280638, -187500.02235174447, -187500.02235174447, -187500.02235174447, -187500.02235174447, -187500.02235174447, -187500.02235174447, -187500.02235174447, 0.264, -0.01, 0.976, 192.0, 0.0, 0.0, 0.0, 0.0, 0.0, 0.0, 0.0, 0.0, 0.0, 1.677527054612603E9, 0.0, 2023-02-27 14:44:14.612
132.0, 7302.583134482281, -187500.02235174447, -187500.02235174447, -187500.02235174447, -187500.02235174447, -187500.02235174447, -187500.02235174447, -187500.02235174447, 0.264, -0.01, 0.976, 192.0, 0.0, 0.0, 0.0, 0.0, 0.0, 0.0, 0.0, 0.0, 0.0, 1.677527054619667E9, 0.0, 2023-02-27 14:44:14.619
133.0, 7637.769894334066, -187500.02235174447, -187500.02235174447, -187500.02235174447, -187500.02235174447, -187500.02235174447, -187500.02235174447, -187500.02235174447, 0.264, -0.01, 0.976, 192.0, 0.0, 0.0, 0.0, 0.0, 0.0, 0.0, 0.0, 0.0, 0.0, 1.67752705462774E9, 0.0, 2023-02-27 14:44:14.627
134.0, 7232.555119103804, -187500.02235174447, -187500.02235174447, -187500.02235174447, -187500.02235174447, -187500.02235174447, -187500.02235174447, -187500.02235174447, 0.264, -0.008, 0.978, 192.0, 8.0, 64.0, 255.0, 192.0, 30.0, 144.0, 0.0, 0.0, 0.0, 1.677527054627761E9, 0.0, 2023-02-27 14:44:14.627
135.0, 6710.463072116741, -187500.02235174447, -187500.02235174447, -187500.02235174447, -187500.02235174447, -187500.02235174447, -187500.02235174447, -187500.02235174447, 0.264, -0.008, 0.978, 192.0, 0.0, 0.0, 0.0, 0.0, 0.0, 0.0, 0.0, 0.0, 0.0, 1.677527054636054E9, 0.0, 2023-02-27 14:44:14.636
136.0, 7502.161860723718, -187500.02235174447, -187500.02235174447, -187500.02235174447, -187500.02235174447, -187500.02235174447, -187500.02235174447, -187500.02235174447, 0.264, -0.008, 0.978, 192.0, 0.0, 0.0, 0.0, 0.0, 0.0, 0.0, 0.0, 0.0, 0.0, 1.67752705463607E9, 0.0, 2023-02-27 14:44:14.636
137.0, 7824.630477980433, -187500.02235174447, -187500.02235174447, -187500.02235174447, -187500.02235174447, -187500.02235174447, -187500.02235174447, -187500.02235174447, 0.264, -0.008, 0.978, 192.0, 0.0, 0.0, 0.0, 0.0, 0.0, 0.0, 0.0, 0.0, 0.0, 1.677527054642273E9, 0.0, 2023-02-27 14:44:14.642
138.0, 6908.119548335022, -187500.02235174447, -187500.02235174447, -187500.02235174447, -187500.02235174447, -187500.02235174447, -187500.02235174447, -187500.02235174447, 0.264, -0.008, 0.978, 192.0, 0.0, 0.0, 0.0, 0.0, 0.0, 0.0, 0.0, 0.0, 0.0, 1.677527054642284E9, 0.0, 2023-02-27 14:44:14.642
139.0, 6732.412485171853, -187500.02235174447, -187500.02235174447, -187500.02235174447, -187500.02235174447, -187500.02235174447, -187500.02235174447, -187500.02235174447, 0.264, -0.008, 0.978, 192.0, 0.0, 0.0, 0.0, 0.0, 0.0, 0.0, 0.0, 0.0, 0.0, 1.677527054650261E9, 0.0, 2023-02-27 14:44:14.650
140.0, 7142.03055405981, -187500.02235174447, -187500.02235174447, -187500.02235174447, -187500.02235174447, -187500.02235174447, -187500.02235174447, -187500.02235174447, 0.264, -0.008, 0.978, 192.0, 0.0, 0.0, 0.0, 0.0, 0.0, 0.0, 0.0, 0.0, 0.0, 1.677527054650276E9, 0.0, 2023-02-27 14:44:14.650
141.0, 7515.05881727443, -187500.02235174447, -187500.02235174447, -187500.02235174447, -187500.02235174447, -187500.02235174447, -187500.02235174447, -187500.02235174447, 0.264, -0.008, 0.978, 192.0, 0.0, 0.0, 0.0, 0.0, 0.0, 0.0, 0.0, 0.0, 0.0, 1.677527054658364E9, 0.0, 2023-02-27 14:44:14.658
142.0, 7080.764422507814, -187500.02235174447, -187500.02235174447, -187500.02235174447, -187500.02235174447, -187500.02235174447, -187500.02235174447, -187500.02235174447, 0.264, -0.008, 0.978, 192.0, 0.0, 0.0, 0.0, 0.0, 0.0, 0.0, 0.0, 0.0, 0.0, 1.677527054658385E9, 0.0, 2023-02-27 14:44:14.658
143.0, 7006.668389638471, -187500.02235174447, -187500.02235174447, -187500.02235174447, -187500.02235174447, -187500.02235174447, -187500.02235174447, -187500.02235174447, 0.264, -0.008, 0.978, 192.0, 0.0, 0.0, 0.0, 0.0, 0.0, 0.0, 0.0, 0.0, 0.0, 1.677527054665552E9, 0.0, 2023-02-27 14:44:14.665
