%OpenBCI Raw EEG Data
%Number of channels = 8
%Sample Rate = 250 Hz
%Board = OpenBCI_GUI$BoardCytonSerial
Sample Index, EXG Channel 0, EXG Channel 1, EXG Channel 2, EXG Channel 3, EXG Channel 4, EXG Channel 5, EXG Channel 6, EXG Channel 7, Accel Channel 0, Accel Channel 1, Accel Channel 2, Other, Other, Other, Other, Other, Other, Other, Analog Channel 0, Analog Channel 1, Analog Channel 2, Timestamp, Other, Timestamp (Formatted)
216.0, -1036.5845008593203, 187500.0, 187500.0, 187500.0, -187500.02235174447, -187500.02235174447, -187500.02235174447, -187500.02235174447, 0.168, -0.02, 0.988, 192.0, 5.0, 64.0, 255.0, 96.0, 30.0, 224.0, 0.0, 0.0, 0.0, 1.677618432411395E9, 0.0, 2023-02-28 16:07:12.411
217.0, -1846.522312941827, 187500.0, 187500.0, 187500.0, -187500.02235174447, -187500.02235174447, -187500.02235174447, -187500.02235174447, 0.168, -0.02, 0.988, 192.0, 0.0, 0.0, 0.0, 0.0, 0.0, 0.0, 0.0, 0.0, 0.0, 1.677618432411415E9, 0.0, 2023-02-28 16:07:12.411
218.0, -1466.319139757054, 187500.0, 187500.0, 187500.0, -187500.02235174447, -187500.02235174447, -187500.02235174447, -187500.02235174447, 0.168, -0.02, 0.988, 192.0, 0.0, 0.0, 0.0, 0.0, 0.0, 0.0, 0.0, 0.0, 0.0, 1.677618432411425E9, 0.0, 2023-02-28 16:07:12.411
219.0, -574.4621842458469, 187500.0, 187500.0, 187500.0, -187500.02235174447, -187500.02235174447, -187500.02235174447, -187500.02235174447, 0.168, -0.02, 0.988, 192.0, 0.0, 0.0, 0.0, 0.0, 0.0, 0.0, 0.0, 0.0, 0.0, 1.677618432411435E9, 0.0, 2023-02-28 16:07:12.411
0.0, 0.0, 0.0, 0.0, 0.0, 0.0, 0.0, 0.0, 0.0, 0.17, -0.028, 0.978, 192.0, 5.0, 80.0, 255.0, 32.0, 30.0, 144.0, 0.0, 0.0, 0.0, 1.677618432490228E9, 0.0, 2023-02-28 16:07:12.490
1.0, 5071.342595975709, 187500.0, 187500.0, 187500.0, -187500.02235174447, -187500.02235174447, -187500.02235174447, -187500.02235174447, 0.17, -0.028, 0.978, 192.0, 0.0, 0.0, 0.0, 0.0, 0.0, 0.0, 0.0, 0.0, 0.0, 1.677618432499864E9, 0.0, 2023-02-28 16:07:12.499
2.0, 4791.856383306549, 187500.0, 187500.0, 187500.0, -187500.02235174447, -187500.02235174447, -187500.02235174447, -187500.02235174447, 0.17, -0.028, 0.978, 192.0, 0.0, 0.0, 0.0, 0.0, 0.0, 0.0, 0.0, 0.0, 0.0, 1.677618432505976E9, 0.0, 2023-02-28 16:07:12.505
3.0, 3987.5959143156906, 187500.0, 187500.0, 187500.0, -187500.02235174447, -187500.02235174447, -187500.02235174447, -187500.02235174447, 0.17, -0.028, 0.978, 192.0, 0.0, 0.0, 0.0, 0.0, 0.0, 0.0, 0.0, 0.0, 0.0, 1.677618432505998E9, 0.0, 2023-02-28 16:07:12.505
4.0, 4535.638336615364, 187500.0, 187500.0, 187500.0, -187500.02235174447, -187500.02235174447, -187500.02235174447, -187500.02235174447, 0.17, -0.028, 0.978, 192.0, 0.0, 0.0, 0.0, 0.0, 0.0, 0.0, 0.0, 0.0, 0.0, 1.677618432515546E9, 0.0, 2023-02-28 16:07:12.515
5.0, 5349.085372577354, 187500.0, 187500.0, 187500.0, -187500.02235174447, -187500.02235174447, -187500.02235174447, -187500.02235174447, 0.17, -0.028, 0.978, 192.0, 0.0, 0.0, 0.0, 0.0, 0.0, 0.0, 0.0, 0.0, 0.0, 1.677618432515564E9, 0.0, 2023-02-28 16:07:12.515
6.0, 5156.569797583795, 187500.0, 187500.0, 187500.0, -187500.02235174447, -187500.02235174447, -187500.02235174447, -187500.02235174447, 0.17, -0.028, 0.978, 192.0, 0.0, 0.0, 0.0, 0.0, 0.0, 0.0, 0.0, 0.0, 0.0, 1.677618432521673E9, 0.0, 2023-02-28 16:07:12.521
7.0, 4309.013999583006, 187500.0, 187500.0, 187500.0, -187500.02235174447, -187500.02235174447, -187500.02235174447, -187500.02235174447, 0.178, -0.018000000000000002, 0.992, 192.0, 5.0, 144.0, 255.0, 112.0, 31.0, 0.0, 0.0, 0.0, 0.0, 1.677618432521689E9, 0.0, 2023-02-28 16:07:12.521
8.0, 4265.651615339711, 187500.0, 187500.0, 187500.0, -187500.02235174447, -187500.02235174447, -187500.02235174447, -187500.02235174447, 0.178, -0.018000000000000002, 0.992, 192.0, 0.0, 0.0, 0.0, 0.0, 0.0, 0.0, 0.0, 0.0, 0.0, 1.677618432528258E9, 0.0, 2023-02-28 16:07:12.528
9.0, 5238.46658926804, 187500.0, 187500.0, 187500.0, -187500.02235174447, -187500.02235174447, -187500.02235174447, -187500.02235174447, 0.178, -0.018000000000000002, 0.992, 192.0, 0.0, 0.0, 0.0, 0.0, 0.0, 0.0, 0.0, 0.0, 0.0, 1.67761843252827E9, 0.0, 2023-02-28 16:07:12.528
10.0, 5521.3949705833165, 187500.0, 187500.0, 187500.0, -187500.02235174447, -187500.02235174447, -187500.02235174447, -187500.02235174447, 0.178, -0.018000000000000002, 0.992, 192.0, 0.0, 0.0, 0.0, 0.0, 0.0, 0.0, 0.0, 0.0, 0.0, 1.677618432536296E9, 0.0, 2023-02-28 16:07:12.536
11.0, 4493.0582634280045, 187500.0, 187500.0, 187500.0, -187500.02235174447, -187500.02235174447, -187500.02235174447, -187500.02235174447, 0.178, -0.018000000000000002, 0.992, 192.0, 0.0, 0.0, 0.0, 0.0, 0.0, 0.0, 0.0, 0.0, 0.0, 1.677618432536312E9, 0.0, 2023-02-28 16:07:12.536
12.0, 4389.256762177559, 187500.0, 187500.0, 187500.0, -187500.02235174447, -187500.02235174447, -187500.02235174447, -187500.02235174447, 0.178, -0.018000000000000002, 0.992, 192.0, 0.0, 0.0, 0.0, 0.0, 0.0, 0.0, 0.0, 0.0, 0.0, 1.677618432544294E9, 0.0, 2023-02-28 16:07:12.544
13.0, 5340.368192239785, 187500.0, 187500.0, 187500.0, -187500.02235174447, -187500.02235174447, -187500.02235174447, -187500.02235174447, 0.178, -0.018000000000000002, 0.992, 192.0, 0.0, 0.0, 0.0, 0.0, 0.0, 0.0, 0.0, 0.0, 0.0, 1.677618432544314E9, 0.0, 2023-02-28 16:07:12.544
14.0, 5650.833922723999, 187500.0, 187500.0, 187500.0, -187500.02235174447, -187500.02235174447, -187500.02235174447, -187500.02235174447, 0.178, -0.018000000000000002, 0.992, 192.0, 0.0, 0.0, 0.0, 0.0, 0.0, 0.0, 0.0, 0.0, 0.0, 1.677618432551459E9, 0.0, 2023-02-28 16:07:12.551
15.0, 4420.526852670533, 187500.0, 187500.0, 187500.0, -187500.02235174447, -187500.02235174447, -187500.02235174447, -187500.02235174447, 0.178, -0.018000000000000002, 0.992, 192.0, 0.0, 0.0, 0.0, 0.0, 0.0, 0.0, 0.0, 0.0, 0.0, 1.67761843255147E9, 0.0, 2023-02-28 16:07:12.551
16.0, 4070.833810667254, 187500.0, 187500.0, 187500.0, -187500.02235174447, -187500.02235174447, -187500.02235174447, -187500.02235174447, 0.178, -0.018000000000000002, 0.992, 192.0, 0.0, 0.0, 0.0, 0.0, 0.0, 0.0, 0.0, 0.0, 0.0, 1.677618432558085E9, 0.0, 2023-02-28 16:07:12.558
17.0, 5073.443659954508, 187500.0, 187500.0, 187500.0, -187500.02235174447, -187500.02235174447, -187500.02235174447, -187500.02235174447, 0.176, -0.022, 0.99, 192.0, 5.0, 128.0, 255.0, 80.0, 30.0, 240.0, 0.0, 0.0, 0.0, 1.677618432565991E9, 0.0, 2023-02-28 16:07:12.565
18.0, 5407.065797694421, 187500.0, 187500.0, 187500.0, -187500.02235174447, -187500.02235174447, -187500.02235174447, -187500.02235174447, 0.176, -0.022, 0.99, 192.0, 0.0, 0.0, 0.0, 0.0, 0.0, 0.0, 0.0, 0.0, 0.0, 1.677618432566005E9, 0.0, 2023-02-28 16:07:12.566
19.0, 4639.350430887989, 187500.0, 187500.0, 187500.0, -187500.02235174447, -187500.02235174447, -187500.02235174447, -187500.02235174447, 0.176, -0.022, 0.99, 192.0, 0.0, 0.0, 0.0, 0.0, 0.0, 0.0, 0.0, 0.0, 0.0, 1.677618432574114E9, 0.0, 2023-02-28 16:07:12.574
20.0, 4157.715041365032, 187500.0, 187500.0, 187500.0, -187500.02235174447, -187500.02235174447, -187500.02235174447, -187500.02235174447, 0.176, -0.022, 0.99, 192.0, 0.0, 0.0, 0.0, 0.0, 0.0, 0.0, 0.0, 0.0, 0.0, 1.677618432574127E9, 0.0, 2023-02-28 16:07:12.574
21.0, 4950.330251494676, 187500.0, 187500.0, 187500.0, -187500.02235174447, -187500.02235174447, -187500.02235174447, -187500.02235174447, 0.176, -0.022, 0.99, 192.0, 0.0, 0.0, 0.0, 0.0, 0.0, 0.0, 0.0, 0.0, 0.0, 1.677618432580547E9, 0.0, 2023-02-28 16:07:12.580
22.0, 5522.75842699509, 187500.0, 187500.0, 187500.0, -187500.02235174447, -187500.02235174447, -187500.02235174447, -187500.02235174447, 0.176, -0.022, 0.99, 192.0, 0.0, 0.0, 0.0, 0.0, 0.0, 0.0, 0.0, 0.0, 0.0, 1.677618432580566E9, 0.0, 2023-02-28 16:07:12.580
23.0, 4992.820917704215, 187500.0, 187500.0, 187500.0, -187500.02235174447, -187500.02235174447, -187500.02235174447, -187500.02235174447, 0.176, -0.022, 0.99, 192.0, 0.0, 0.0, 0.0, 0.0, 0.0, 0.0, 0.0, 0.0, 0.0, 1.677618432590158E9, 0.0, 2023-02-28 16:07:12.590
24.0, 4496.254562885113, 187500.0, 187500.0, 187500.0, -187500.02235174447, -187500.02235174447, -187500.02235174447, -187500.02235174447, 0.176, -0.022, 0.99, 192.0, 0.0, 0.0, 0.0, 0.0, 0.0, 0.0, 0.0, 0.0, 0.0, 1.67761843259018E9, 0.0, 2023-02-28 16:07:12.590
25.0, 4972.41377501652, 187500.0, 187500.0, 187500.0, -187500.02235174447, -187500.02235174447, -187500.02235174447, -187500.02235174447, 0.176, -0.022, 0.99, 192.0, 0.0, 0.0, 0.0, 0.0, 0.0, 0.0, 0.0, 0.0, 0.0, 1.677618432598454E9, 0.0, 2023-02-28 16:07:12.598
26.0, 5751.305014050605, 187500.0, 187500.0, 187500.0, -187500.02235174447, -187500.02235174447, -187500.02235174447, -187500.02235174447, 0.176, -0.022, 0.99, 192.0, 0.0, 0.0, 0.0, 0.0, 0.0, 0.0, 0.0, 0.0, 0.0, 1.677618432598467E9, 0.0, 2023-02-28 16:07:12.598
27.0, 5477.60790319537, 187500.0, 187500.0, 187500.0, -187500.02235174447, -187500.02235174447, -187500.02235174447, -187500.02235174447, 0.18, -0.022, 0.994, 192.0, 5.0, 160.0, 255.0, 80.0, 31.0, 16.0, 0.0, 0.0, 0.0, 1.677618432603664E9, 0.0, 2023-02-28 16:07:12.603
28.0, 4654.504913628687, 187500.0, 187500.0, 187500.0, -187500.02235174447, -187500.02235174447, -187500.02235174447, -187500.02235174447, 0.18, -0.022, 0.994, 192.0, 0.0, 0.0, 0.0, 0.0, 0.0, 0.0, 0.0, 0.0, 0.0, 1.677618432603678E9, 0.0, 2023-02-28 16:07:12.603
29.0, 4401.39375941679, 187500.0, 187500.0, 187500.0, -187500.02235174447, -187500.02235174447, -187500.02235174447, -187500.02235174447, 0.18, -0.022, 0.994, 192.0, 0.0, 0.0, 0.0, 0.0, 0.0, 0.0, 0.0, 0.0, 0.0, 1.677618432611441E9, 0.0, 2023-02-28 16:07:12.611
30.0, 5174.361786170219, 187500.0, 187500.0, 187500.0, -187500.02235174447, -187500.02235174447, -187500.02235174447, -187500.02235174447, 0.18, -0.022, 0.994, 192.0, 0.0, 0.0, 0.0, 0.0, 0.0, 0.0, 0.0, 0.0, 0.0, 1.677618432611453E9, 0.0, 2023-02-28 16:07:12.611
31.0, 5395.241724877564, 187500.0, 187500.0, 187500.0, -187500.02235174447, -187500.02235174447, -187500.02235174447, -187500.02235174447, 0.18, -0.022, 0.994, 192.0, 0.0, 0.0, 0.0, 0.0, 0.0, 0.0, 0.0, 0.0, 0.0, 1.677618432618435E9, 0.0, 2023-02-28 16:07:12.618
32.0, 4341.33462206538, 187500.0, 187500.0, 187500.0, -187500.02235174447, -187500.02235174447, -187500.02235174447, -187500.02235174447, 0.18, -0.022, 0.994, 192.0, 0.0, 0.0, 0.0, 0.0, 0.0, 0.0, 0.0, 0.0, 0.0, 1.677618432626185E9, 0.0, 2023-02-28 16:07:12.626
33.0, 4452.981585619639, 187500.0, 187500.0, 187500.0, -187500.02235174447, -187500.02235174447, -187500.02235174447, -187500.02235174447, 0.18, -0.022, 0.994, 192.0, 0.0, 0.0, 0.0, 0.0, 0.0, 0.0, 0.0, 0.0, 0.0, 1.677618432626206E9, 0.0, 2023-02-28 16:07:12.626
34.0, 5892.813908197154, 187500.0, 187500.0, 187500.0, -187500.02235174447, -187500.02235174447, -187500.02235174447, -187500.02235174447, 0.18, -0.022, 0.994, 192.0, 0.0, 0.0, 0.0, 0.0, 0.0, 0.0, 0.0, 0.0, 0.0, 1.677618432633187E9, 0.0, 2023-02-28 16:07:12.633
35.0, 5887.002454638774, 187500.0, 187500.0, 187500.0, -187500.02235174447, -187500.02235174447, -187500.02235174447, -187500.02235174447, 0.18, -0.022, 0.994, 192.0, 0.0, 0.0, 0.0, 0.0, 0.0, 0.0, 0.0, 0.0, 0.0, 1.677618432633204E9, 0.0, 2023-02-28 16:07:12.633
36.0, 4702.449405485321, 187500.0, 187500.0, 187500.0, -187500.02235174447, -187500.02235174447, -187500.02235174447, -187500.02235174447, 0.18, -0.022, 0.994, 192.0, 0.0, 0.0, 0.0, 0.0, 0.0, 0.0, 0.0, 0.0, 0.0, 1.677618432640878E9, 0.0, 2023-02-28 16:07:12.640
37.0, 4348.286014590981, 187500.0, 187500.0, 187500.0, -187500.02235174447, -187500.02235174447, -187500.02235174447, -187500.02235174447, 0.176, -0.02, 0.994, 192.0, 5.0, 128.0, 255.0, 96.0, 31.0, 16.0, 0.0, 0.0, 0.0, 1.677618432640892E9, 0.0, 2023-02-28 16:07:12.640
38.0, 4866.019471409259, 187500.0, 187500.0, 187500.0, -187500.02235174447, -187500.02235174447, -187500.02235174447, -187500.02235174447, 0.176, -0.02, 0.994, 192.0, 0.0, 0.0, 0.0, 0.0, 0.0, 0.0, 0.0, 0.0, 0.0, 1.677618432648775E9, 0.0, 2023-02-28 16:07:12.648
39.0, 5584.896276580844, 187500.0, 187500.0, 187500.0, -187500.02235174447, -187500.02235174447, -187500.02235174447, -187500.02235174447, 0.176, -0.02, 0.994, 192.0, 0.0, 0.0, 0.0, 0.0, 0.0, 0.0, 0.0, 0.0, 0.0, 1.677618432648795E9, 0.0, 2023-02-28 16:07:12.648
40.0, 4998.542964284774, 187500.0, 187500.0, 187500.0, -187500.02235174447, -187500.02235174447, -187500.02235174447, -187500.02235174447, 0.176, -0.02, 0.994, 192.0, 0.0, 0.0, 0.0, 0.0, 0.0, 0.0, 0.0, 0.0, 0.0, 1.677618432656899E9, 0.0, 2023-02-28 16:07:12.656
41.0, 4502.848327499429, 187500.0, 187500.0, 187500.0, -187500.02235174447, -187500.02235174447, -187500.02235174447, -187500.02235174447, 0.176, -0.02, 0.994, 192.0, 0.0, 0.0, 0.0, 0.0, 0.0, 0.0, 0.0, 0.0, 0.0, 1.677618432656919E9, 0.0, 2023-02-28 16:07:12.656
42.0, 5213.834966878291, 187500.0, 187500.0, 187500.0, -187500.02235174447, -187500.02235174447, -187500.02235174447, -187500.02235174447, 0.176, -0.02, 0.994, 192.0, 0.0, 0.0, 0.0, 0.0, 0.0, 0.0, 0.0, 0.0, 0.0, 1.677618432663441E9, 0.0, 2023-02-28 16:07:12.663
43.0, 5937.718562807866, 187500.0, 187500.0, 187500.0, -187500.02235174447, -187500.02235174447, -187500.02235174447, -187500.02235174447, 0.176, -0.02, 0.994, 192.0, 0.0, 0.0, 0.0, 0.0, 0.0, 0.0, 0.0, 0.0, 0.0, 1.677618432663459E9, 0.0, 2023-02-28 16:07:12.663
44.0, 5341.888110862746, 187500.0, 187500.0, 187500.0, -187500.02235174447, -187500.02235174447, -187500.02235174447, -187500.02235174447, 0.176, -0.02, 0.994, 192.0, 0.0, 0.0, 0.0, 0.0, 0.0, 0.0, 0.0, 0.0, 0.0, 1.677618432671519E9, 0.0, 2023-02-28 16:07:12.671
45.0, 4384.764061542041, 187500.0, 187500.0, 187500.0, -187500.02235174447, -187500.02235174447, -187500.02235174447, -187500.02235174447, 0.176, -0.02, 0.994, 192.0, 0.0, 0.0, 0.0, 0.0, 0.0, 0.0, 0.0, 0.0, 0.0, 1.677618432671531E9, 0.0, 2023-02-28 16:07:12.671
46.0, 5236.410228778152, 187500.0, 187500.0, 187500.0, -187500.02235174447, -187500.02235174447, -187500.02235174447, -187500.02235174447, 0.176, -0.02, 0.994, 192.0, 0.0, 0.0, 0.0, 0.0, 0.0, 0.0, 0.0, 0.0, 0.0, 1.67761843267849E9, 0.0, 2023-02-28 16:07:12.678
47.0, 5617.172195574307, 187500.0, 187500.0, 187500.0, -187500.02235174447, -187500.02235174447, -187500.02235174447, -187500.02235174447, 0.184, -0.024, 0.996, 192.0, 5.0, 192.0, 255.0, 64.0, 31.0, 32.0, 0.0, 0.0, 0.0, 1.677618432686356E9, 0.0, 2023-02-28 16:07:12.686
48.0, 5156.234521416965, 187500.0, 187500.0, 187500.0, -187500.02235174447, -187500.02235174447, -187500.02235174447, -187500.02235174447, 0.184, -0.024, 0.996, 192.0, 0.0, 0.0, 0.0, 0.0, 0.0, 0.0, 0.0, 0.0, 0.0, 1.677618432686378E9, 0.0, 2023-02-28 16:07:12.686
49.0, 4749.164551396912, 187500.0, 187500.0, 187500.0, -187500.02235174447, -187500.02235174447, -187500.02235174447, -187500.02235174447, 0.184, -0.024, 0.996, 192.0, 0.0, 0.0, 0.0, 0.0, 0.0, 0.0, 0.0, 0.0, 0.0, 1.677618432693154E9, 0.0, 2023-02-28 16:07:12.693
50.0, 5129.613593770694, 187500.0, 187500.0, 187500.0, -187500.02235174447, -187500.02235174447, -187500.02235174447, -187500.02235174447, 0.184, -0.024, 0.996, 192.0, 0.0, 0.0, 0.0, 0.0, 0.0, 0.0, 0.0, 0.0, 0.0, 1.677618432693168E9, 0.0, 2023-02-28 16:07:12.693
51.0, 5756.200046086317, 187500.0, 187500.0, 187500.0, -187500.02235174447, -187500.02235174447, -187500.02235174447, -187500.02235174447, 0.184, -0.024, 0.996, 192.0, 0.0, 0.0, 0.0, 0.0, 0.0, 0.0, 0.0, 0.0, 0.0, 1.677618432700989E9, 0.0, 2023-02-28 16:07:12.700
52.0, 5298.1680987081645, 187500.0, 187500.0, 187500.0, -187500.02235174447, -187500.02235174447, -187500.02235174447, -187500.02235174447, 0.184, -0.024, 0.996, 192.0, 0.0, 0.0, 0.0, 0.0, 0.0, 0.0, 0.0, 0.0, 0.0, 1.677618432701015E9, 0.0, 2023-02-28 16:07:12.701
53.0, 4998.65472300705, 187500.0, 187500.0, 187500.0, -187500.02235174447, -187500.02235174447, -187500.02235174447, -187500.02235174447, 0.184, -0.024, 0.996, 192.0, 0.0, 0.0, 0.0, 0.0, 0.0, 0.0, 0.0, 0.0, 0.0, 1.677618432709206E9, 0.0, 2023-02-28 16:07:12.709
54.0, 5106.948924893013, 187500.0, 187500.0, 187500.0, -187500.02235174447, -187500.02235174447, -187500.02235174447, -187500.02235174447, 0.184, -0.024, 0.996, 192.0, 0.0, 0.0, 0.0, 0.0, 0.0, 0.0, 0.0, 0.0, 0.0, 1.677618432709229E9, 0.0, 2023-02-28 16:07:12.709
55.0, 5270.541342561405, 187500.0, 187500.0, 187500.0, -187500.02235174447, -187500.02235174447, -187500.02235174447, -187500.02235174447, 0.184, -0.024, 0.996, 192.0, 0.0, 0.0, 0.0, 0.0, 0.0, 0.0, 0.0, 0.0, 0.0, 1.677618432715684E9, 0.0, 2023-02-28 16:07:12.715
56.0, 5619.742646186668, 187500.0, 187500.0, 187500.0, -187500.02235174447, -187500.02235174447, -187500.02235174447, -187500.02235174447, 0.184, -0.024, 0.996, 192.0, 0.0, 0.0, 0.0, 0.0, 0.0, 0.0, 0.0, 0.0, 0.0, 1.677618432715701E9, 0.0, 2023-02-28 16:07:12.715
57.0, 4465.699728214709, 187500.0, 187500.0, 187500.0, -187500.02235174447, -187500.02235174447, -187500.02235174447, -187500.02235174447, 0.18, -0.024, 0.99, 192.0, 5.0, 160.0, 255.0, 64.0, 30.0, 240.0, 0.0, 0.0, 0.0, 1.67761843272365E9, 0.0, 2023-02-28 16:07:12.723
58.0, 4622.63132603542, 187500.0, 187500.0, 187500.0, -187500.02235174447, -187500.02235174447, -187500.02235174447, -187500.02235174447, 0.18, -0.024, 0.99, 192.0, 0.0, 0.0, 0.0, 0.0, 0.0, 0.0, 0.0, 0.0, 0.0, 1.677618432723668E9, 0.0, 2023-02-28 16:07:12.723
59.0, 5771.242770104739, 187500.0, 187500.0, 187500.0, -187500.02235174447, -187500.02235174447, -187500.02235174447, -187500.02235174447, 0.18, -0.024, 0.99, 192.0, 0.0, 0.0, 0.0, 0.0, 0.0, 0.0, 0.0, 0.0, 0.0, 1.677618432731711E9, 0.0, 2023-02-28 16:07:12.731
60.0, 5783.1338981549625, 187500.0, 187500.0, 187500.0, -187500.02235174447, -187500.02235174447, -187500.02235174447, -187500.02235174447, 0.18, -0.024, 0.99, 192.0, 0.0, 0.0, 0.0, 0.0, 0.0, 0.0, 0.0, 0.0, 0.0, 1.677618432731727E9, 0.0, 2023-02-28 16:07:12.731
61.0, 4804.708636368351, 187500.0, 187500.0, 187500.0, -187500.02235174447, -187500.02235174447, -187500.02235174447, -187500.02235174447, 0.18, -0.024, 0.99, 192.0, 0.0, 0.0, 0.0, 0.0, 0.0, 0.0, 0.0, 0.0, 0.0, 1.677618432738882E9, 0.0, 2023-02-28 16:07:12.738
62.0, 4651.710945571774, 187500.0, 187500.0, 187500.0, -187500.02235174447, -187500.02235174447, -187500.02235174447, -187500.02235174447, 0.18, -0.024, 0.99, 192.0, 0.0, 0.0, 0.0, 0.0, 0.0, 0.0, 0.0, 0.0, 0.0, 1.677618432738899E9, 0.0, 2023-02-28 16:07:12.738
63.0, 5976.94587432693, 187500.0, 187500.0, 187500.0, -187500.02235174447, -187500.02235174447, -187500.02235174447, -187500.02235174447, 0.18, -0.024, 0.99, 192.0, 0.0, 0.0, 0.0, 0.0, 0.0, 0.0, 0.0, 0.0, 0.0, 1.677618432746046E9, 0.0, 2023-02-28 16:07:12.746
64.0, 6419.063379652904, 187500.0, 187500.0, 187500.0, -187500.02235174447, -187500.02235174447, -187500.02235174447, -187500.02235174447, 0.18, -0.024, 0.99, 192.0, 0.0, 0.0, 0.0, 0.0, 0.0, 0.0, 0.0, 0.0, 0.0, 1.677618432754188E9, 0.0, 2023-02-28 16:07:12.754
65.0, 4695.498012959721, 187500.0, 187500.0, 187500.0, -187500.02235174447, -187500.02235174447, -187500.02235174447, -187500.02235174447, 0.18, -0.024, 0.99, 192.0, 0.0, 0.0, 0.0, 0.0, 0.0, 0.0, 0.0, 0.0, 0.0, 1.677618432754199E9, 0.0, 2023-02-28 16:07:12.754
66.0, 4490.778385493563, 187500.0, 187500.0, 187500.0, -187500.02235174447, -187500.02235174447, -187500.02235174447, -187500.02235174447, 0.178, -0.018000000000000002, 0.99, 192.0, 5.0, 144.0, 255.0, 112.0, 30.0, 240.0, 0.0, 0.0, 0.0, 1.677618432761262E9, 0.0, 2023-02-28 16:07:12.761
67.0, 5502.530098263037, 187500.0, 187500.0, 187500.0, -187500.02235174447, -187500.02235174447, -187500.02235174447, -187500.02235174447, 0.178, -0.018000000000000002, 0.99, 192.0, 0.0, 0.0, 0.0, 0.0, 0.0, 0.0, 0.0, 0.0, 0.0, 1.677618432761275E9, 0.0, 2023-02-28 16:07:12.761
68.0, 6221.295144712347, 187500.0, 187500.0, 187500.0, -187500.02235174447, -187500.02235174447, -187500.02235174447, -187500.02235174447, 0.178, -0.018000000000000002, 0.99, 192.0, 0.0, 0.0, 0.0, 0.0, 0.0, 0.0, 0.0, 0.0, 0.0, 1.677618432768762E9, 0.0, 2023-02-28 16:07:12.768
69.0, 5529.240432887129, 187500.0, 187500.0, 187500.0, -187500.02235174447, -187500.02235174447, -187500.02235174447, -187500.02235174447, 0.178, -0.018000000000000002, 0.99, 192.0, 0.0, 0.0, 0.0, 0.0, 0.0, 0.0, 0.0, 0.0, 0.0, 1.677618432768774E9, 0.0, 2023-02-28 16:07:12.768
70.0, 5142.8458264882365, 187500.0, 187500.0, 187500.0, -187500.02235174447, -187500.02235174447, -187500.02235174447, -187500.02235174447, 0.178, -0.018000000000000002, 0.99, 192.0, 0.0, 0.0, 0.0, 0.0, 0.0, 0.0, 0.0, 0.0, 0.0, 1.677618432776755E9, 0.0, 2023-02-28 16:07:12.776
71.0, 5366.340919296851, 187500.0, 187500.0, 187500.0, -187500.02235174447, -187500.02235174447, -187500.02235174447, -187500.02235174447, 0.178, -0.018000000000000002, 0.99, 192.0, 0.0, 0.0, 0.0, 0.0, 0.0, 0.0, 0.0, 0.0, 0.0, 1.677618432776775E9, 0.0, 2023-02-28 16:07:12.776
72.0, 5771.756860227211, 187500.0, 187500.0, 187500.0, -187500.02235174447, -187500.02235174447, -187500.02235174447, -187500.02235174447, 0.178, -0.018000000000000002, 0.99, 192.0, 0.0, 0.0, 0.0, 0.0, 0.0, 0.0, 0.0, 0.0, 0.0, 1.677618432783825E9, 0.0, 2023-02-28 16:07:12.783
73.0, 5730.495539962714, 187500.0, 187500.0, 187500.0, -187500.02235174447, -187500.02235174447, -187500.02235174447, -187500.02235174447, 0.178, -0.018000000000000002, 0.99, 192.0, 0.0, 0.0, 0.0, 0.0, 0.0, 0.0, 0.0, 0.0, 0.0, 1.677618432783853E9, 0.0, 2023-02-28 16:07:12.783
74.0, 5083.8595728706805, 187500.0, 187500.0, 187500.0, -187500.02235174447, -187500.02235174447, -187500.02235174447, -187500.02235174447, 0.178, -0.018000000000000002, 0.99, 192.0, 0.0, 0.0, 0.0, 0.0, 0.0, 0.0, 0.0, 0.0, 0.0, 1.677618432792221E9, 0.0, 2023-02-28 16:07:12.792
75.0, 4737.698106491341, 187500.0, 187500.0, 187500.0, -187500.02235174447, -187500.02235174447, -187500.02235174447, -187500.02235174447, 0.178, -0.018000000000000002, 0.99, 192.0, 0.0, 0.0, 0.0, 0.0, 0.0, 0.0, 0.0, 0.0, 0.0, 1.677618432792245E9, 0.0, 2023-02-28 16:07:12.792
76.0, 5759.552807754613, 187500.0, 187500.0, 187500.0, -187500.02235174447, -187500.02235174447, -187500.02235174447, -187500.02235174447, 0.178, -0.02, 0.994, 192.0, 5.0, 144.0, 255.0, 96.0, 31.0, 16.0, 0.0, 0.0, 0.0, 1.677618432799359E9, 0.0, 2023-02-28 16:07:12.799
77.0, 5834.654669124445, 187500.0, 187500.0, 187500.0, -187500.02235174447, -187500.02235174447, -187500.02235174447, -187500.02235174447, 0.178, -0.02, 0.994, 192.0, 0.0, 0.0, 0.0, 0.0, 0.0, 0.0, 0.0, 0.0, 0.0, 1.677618432799378E9, 0.0, 2023-02-28 16:07:12.799
78.0, 4962.199027800444, 187500.0, 187500.0, 187500.0, -187500.02235174447, -187500.02235174447, -187500.02235174447, -187500.02235174447, 0.178, -0.02, 0.994, 192.0, 0.0, 0.0, 0.0, 0.0, 0.0, 0.0, 0.0, 0.0, 0.0, 1.677618432806384E9, 0.0, 2023-02-28 16:07:12.806
79.0, 4869.528695288742, 187500.0, 187500.0, 187500.0, -187500.02235174447, -187500.02235174447, -187500.02235174447, -187500.02235174447, 0.178, -0.02, 0.994, 192.0, 0.0, 0.0, 0.0, 0.0, 0.0, 0.0, 0.0, 0.0, 0.0, 1.677618432813069E9, 0.0, 2023-02-28 16:07:12.813
80.0, 5923.1899289119165, 187500.0, 187500.0, 187500.0, -187500.02235174447, -187500.02235174447, -187500.02235174447, -187500.02235174447, 0.178, -0.02, 0.994, 192.0, 0.0, 0.0, 0.0, 0.0, 0.0, 0.0, 0.0, 0.0, 0.0, 1.677618432813083E9, 0.0, 2023-02-28 16:07:12.813
81.0, 6279.297921573869, 187500.0, 187500.0, 187500.0, -187500.02235174447, -187500.02235174447, -187500.02235174447, -187500.02235174447, 0.178, -0.02, 0.994, 192.0, 0.0, 0.0, 0.0, 0.0, 0.0, 0.0, 0.0, 0.0, 0.0, 1.677618432821042E9, 0.0, 2023-02-28 16:07:12.821
82.0, 5067.43104069603, 187500.0, 187500.0, 187500.0, -187500.02235174447, -187500.02235174447, -187500.02235174447, -187500.02235174447, 0.178, -0.02, 0.994, 192.0, 0.0, 0.0, 0.0, 0.0, 0.0, 0.0, 0.0, 0.0, 0.0, 1.677618432821061E9, 0.0, 2023-02-28 16:07:12.821
83.0, 5129.233614114954, 187500.0, 187500.0, 187500.0, -187500.02235174447, -187500.02235174447, -187500.02235174447, -187500.02235174447, 0.178, -0.02, 0.994, 192.0, 0.0, 0.0, 0.0, 0.0, 0.0, 0.0, 0.0, 0.0, 0.0, 1.6776184328291E9, 0.0, 2023-02-28 16:07:12.829
84.0, 5860.649747925967, 187500.0, 187500.0, 187500.0, -187500.02235174447, -187500.02235174447, -187500.02235174447, -187500.02235174447, 0.178, -0.02, 0.994, 192.0, 0.0, 0.0, 0.0, 0.0, 0.0, 0.0, 0.0, 0.0, 0.0, 1.67761843282912E9, 0.0, 2023-02-28 16:07:12.829
85.0, 5970.41916494598, 187500.0, 187500.0, 187500.0, -187500.02235174447, -187500.02235174447, -187500.02235174447, -187500.02235174447, 0.178, -0.02, 0.994, 192.0, 0.0, 0.0, 0.0, 0.0, 0.0, 0.0, 0.0, 0.0, 0.0, 1.677618432836083E9, 0.0, 2023-02-28 16:07:12.836
86.0, 5260.058374411867, 187500.0, 187500.0, 187500.0, -187500.02235174447, -187500.02235174447, -187500.02235174447, -187500.02235174447, 0.176, -0.024, 0.992, 192.0, 5.0, 128.0, 255.0, 64.0, 31.0, 0.0, 0.0, 0.0, 0.0, 1.677618432836102E9, 0.0, 2023-02-28 16:07:12.836
87.0, 4854.86595092606, 187500.0, 187500.0, 187500.0, -187500.02235174447, -187500.02235174447, -187500.02235174447, -187500.02235174447, 0.176, -0.024, 0.992, 192.0, 0.0, 0.0, 0.0, 0.0, 0.0, 0.0, 0.0, 0.0, 0.0, 1.677618432843579E9, 0.0, 2023-02-28 16:07:12.843
88.0, 5752.064973362086, 187500.0, 187500.0, 187500.0, -187500.02235174447, -187500.02235174447, -187500.02235174447, -187500.02235174447, 0.176, -0.024, 0.992, 192.0, 0.0, 0.0, 0.0, 0.0, 0.0, 0.0, 0.0, 0.0, 0.0, 1.677618432843594E9, 0.0, 2023-02-28 16:07:12.843
89.0, 6295.704102004064, 187500.0, 187500.0, 187500.0, -187500.02235174447, -187500.02235174447, -187500.02235174447, -187500.02235174447, 0.176, -0.024, 0.992, 192.0, 0.0, 0.0, 0.0, 0.0, 0.0, 0.0, 0.0, 0.0, 0.0, 1.677618432851568E9, 0.0, 2023-02-28 16:07:12.851
90.0, 5549.692279063735, 187500.0, 187500.0, 187500.0, -187500.02235174447, -187500.02235174447, -187500.02235174447, -187500.02235174447, 0.176, -0.024, 0.992, 192.0, 0.0, 0.0, 0.0, 0.0, 0.0, 0.0, 0.0, 0.0, 0.0, 1.677618432851584E9, 0.0, 2023-02-28 16:07:12.851
91.0, 5037.032668236812, 187500.0, 187500.0, 187500.0, -187500.02235174447, -187500.02235174447, -187500.02235174447, -187500.02235174447, 0.176, -0.024, 0.992, 192.0, 0.0, 0.0, 0.0, 0.0, 0.0, 0.0, 0.0, 0.0, 0.0, 1.677618432859664E9, 0.0, 2023-02-28 16:07:12.859
92.0, 6020.352962059136, 187500.0, 187500.0, 187500.0, -187500.02235174447, -187500.02235174447, -187500.02235174447, -187500.02235174447, 0.176, -0.024, 0.992, 192.0, 0.0, 0.0, 0.0, 0.0, 0.0, 0.0, 0.0, 0.0, 0.0, 1.677618432859681E9, 0.0, 2023-02-28 16:07:12.859
93.0, 6081.283817444303, 187500.0, 187500.0, 187500.0, -187500.02235174447, -187500.02235174447, -187500.02235174447, -187500.02235174447, 0.176, -0.024, 0.992, 192.0, 0.0, 0.0, 0.0, 0.0, 0.0, 0.0, 0.0, 0.0, 0.0, 1.677618432865829E9, 0.0, 2023-02-28 16:07:12.865
94.0, 5484.402833509784, 187500.0, 187500.0, 187500.0, -187500.02235174447, -187500.02235174447, -187500.02235174447, -187500.02235174447, 0.176, -0.024, 0.992, 192.0, 0.0, 0.0, 0.0, 0.0, 0.0, 0.0, 0.0, 0.0, 0.0, 1.677618432873344E9, 0.0, 2023-02-28 16:07:12.873
95.0, 4738.636879758463, 187500.0, 187500.0, 187500.0, -187500.02235174447, -187500.02235174447, -187500.02235174447, -187500.02235174447, 0.176, -0.024, 0.992, 192.0, 0.0, 0.0, 0.0, 0.0, 0.0, 0.0, 0.0, 0.0, 0.0, 1.677618432873362E9, 0.0, 2023-02-28 16:07:12.873
96.0, 5323.336162964841, 187500.0, 187500.0, 187500.0, -187500.02235174447, -187500.02235174447, -187500.02235174447, -187500.02235174447, 0.176, -0.022, 0.996, 192.0, 5.0, 128.0, 255.0, 80.0, 31.0, 32.0, 0.0, 0.0, 0.0, 1.677618432881229E9, 0.0, 2023-02-28 16:07:12.881
97.0, 6298.7439392499855, 187500.0, 187500.0, 187500.0, -187500.02235174447, -187500.02235174447, -187500.02235174447, -187500.02235174447, 0.176, -0.022, 0.996, 192.0, 0.0, 0.0, 0.0, 0.0, 0.0, 0.0, 0.0, 0.0, 0.0, 1.677618432881248E9, 0.0, 2023-02-28 16:07:12.881
98.0, 5897.641884999501, 187500.0, 187500.0, 187500.0, -187500.02235174447, -187500.02235174447, -187500.02235174447, -187500.02235174447, 0.176, -0.022, 0.996, 192.0, 0.0, 0.0, 0.0, 0.0, 0.0, 0.0, 0.0, 0.0, 0.0, 1.677618432889294E9, 0.0, 2023-02-28 16:07:12.889
99.0, 5125.813797213292, 187500.0, 187500.0, 187500.0, -187500.02235174447, -187500.02235174447, -187500.02235174447, -187500.02235174447, 0.176, -0.022, 0.996, 192.0, 0.0, 0.0, 0.0, 0.0, 0.0, 0.0, 0.0, 0.0, 0.0, 1.67761843288931E9, 0.0, 2023-02-28 16:07:12.889
100.0, 5889.6399604845, 187500.0, 187500.0, 187500.0, -187500.02235174447, -187500.02235174447, -187500.02235174447, -187500.02235174447, 0.176, -0.022, 0.996, 192.0, 0.0, 0.0, 0.0, 0.0, 0.0, 0.0, 0.0, 0.0, 0.0, 1.677618432895912E9, 0.0, 2023-02-28 16:07:12.895
101.0, 5954.147094982516, 187500.0, 187500.0, 187500.0, -187500.02235174447, -187500.02235174447, -187500.02235174447, -187500.02235174447, 0.176, -0.022, 0.996, 192.0, 0.0, 0.0, 0.0, 0.0, 0.0, 0.0, 0.0, 0.0, 0.0, 1.677618432895927E9, 0.0, 2023-02-28 16:07:12.895
102.0, 5914.6739142744445, 187500.0, 187500.0, 187500.0, -187500.02235174447, -187500.02235174447, -187500.02235174447, -187500.02235174447, 0.176, -0.022, 0.996, 192.0, 0.0, 0.0, 0.0, 0.0, 0.0, 0.0, 0.0, 0.0, 0.0, 1.677618432903931E9, 0.0, 2023-02-28 16:07:12.903
103.0, 5026.639107065094, 187500.0, 187500.0, 187500.0, -187500.02235174447, -187500.02235174447, -187500.02235174447, -187500.02235174447, 0.176, -0.022, 0.996, 192.0, 0.0, 0.0, 0.0, 0.0, 0.0, 0.0, 0.0, 0.0, 0.0, 1.677618432903961E9, 0.0, 2023-02-28 16:07:12.903
104.0, 5211.711551155037, 187500.0, 187500.0, 187500.0, -187500.02235174447, -187500.02235174447, -187500.02235174447, -187500.02235174447, 0.176, -0.022, 0.996, 192.0, 0.0, 0.0, 0.0, 0.0, 0.0, 0.0, 0.0, 0.0, 0.0, 1.677618432911931E9, 0.0, 2023-02-28 16:07:12.911
105.0, 6089.710425103954, 187500.0, 187500.0, 187500.0, -187500.02235174447, -187500.02235174447, -187500.02235174447, -187500.02235174447, 0.176, -0.022, 0.996, 192.0, 0.0, 0.0, 0.0, 0.0, 0.0, 0.0, 0.0, 0.0, 0.0, 1.67761843291195E9, 0.0, 2023-02-28 16:07:12.911
106.0, 6193.288408909847, 187500.0, 187500.0, 187500.0, -187500.02235174447, -187500.02235174447, -187500.02235174447, -187500.02235174447, 0.168, -0.022, 0.994, 192.0, 5.0, 64.0, 255.0, 80.0, 31.0, 16.0, 0.0, 0.0, 0.0, 1.677618432920743E9, 0.0, 2023-02-28 16:07:12.920
107.0, 5498.663246472269, 187500.0, 187500.0, 187500.0, -187500.02235174447, -187500.02235174447, -187500.02235174447, -187500.02235174447, 0.168, -0.022, 0.994, 192.0, 0.0, 0.0, 0.0, 0.0, 0.0, 0.0, 0.0, 0.0, 0.0, 1.677618432920762E9, 0.0, 2023-02-28 16:07:12.920
108.0, 5146.377402112174, 187500.0, 187500.0, 187500.0, -187500.02235174447, -187500.02235174447, -187500.02235174447, -187500.02235174447, 0.168, -0.022, 0.994, 192.0, 0.0, 0.0, 0.0, 0.0, 0.0, 0.0, 0.0, 0.0, 0.0, 1.677618432925587E9, 0.0, 2023-02-28 16:07:12.925
109.0, 5988.747595399332, 187500.0, 187500.0, 187500.0, -187500.02235174447, -187500.02235174447, -187500.02235174447, -187500.02235174447, 0.168, -0.022, 0.994, 192.0, 0.0, 0.0, 0.0, 0.0, 0.0, 0.0, 0.0, 0.0, 0.0, 1.677618432933536E9, 0.0, 2023-02-28 16:07:12.933
110.0, 6551.385706828321, 187500.0, 187500.0, 187500.0, -187500.02235174447, -187500.02235174447, -187500.02235174447, -187500.02235174447, 0.168, -0.022, 0.994, 192.0, 0.0, 0.0, 0.0, 0.0, 0.0, 0.0, 0.0, 0.0, 0.0, 1.677618432933548E9, 0.0, 2023-02-28 16:07:12.933
111.0, 5520.612659527381, 187500.0, 187500.0, 187500.0, -187500.02235174447, -187500.02235174447, -187500.02235174447, -187500.02235174447, 0.168, -0.022, 0.994, 192.0, 0.0, 0.0, 0.0, 0.0, 0.0, 0.0, 0.0, 0.0, 0.0, 1.677618432941453E9, 0.0, 2023-02-28 16:07:12.941
112.0, 4932.426504185975, 187500.0, 187500.0, 187500.0, -187500.02235174447, -187500.02235174447, -187500.02235174447, -187500.02235174447, 0.168, -0.022, 0.994, 192.0, 0.0, 0.0, 0.0, 0.0, 0.0, 0.0, 0.0, 0.0, 0.0, 1.677618432941471E9, 0.0, 2023-02-28 16:07:12.941
113.0, 6064.452953869457, 187500.0, 187500.0, 187500.0, -187500.02235174447, -187500.02235174447, -187500.02235174447, -187500.02235174447, 0.168, -0.022, 0.994, 192.0, 0.0, 0.0, 0.0, 0.0, 0.0, 0.0, 0.0, 0.0, 0.0, 1.677618432948519E9, 0.0, 2023-02-28 16:07:12.948
114.0, 6262.332947532291, 187500.0, 187500.0, 187500.0, -187500.02235174447, -187500.02235174447, -187500.02235174447, -187500.02235174447, 0.168, -0.022, 0.994, 192.0, 0.0, 0.0, 0.0, 0.0, 0.0, 0.0, 0.0, 0.0, 0.0, 1.677618432948564E9, 0.0, 2023-02-28 16:07:12.948
115.0, 5940.17725469795, 187500.0, 187500.0, 187500.0, -187500.02235174447, -187500.02235174447, -187500.02235174447, -187500.02235174447, 0.168, -0.022, 0.994, 192.0, 0.0, 0.0, 0.0, 0.0, 0.0, 0.0, 0.0, 0.0, 0.0, 1.677618432956234E9, 0.0, 2023-02-28 16:07:12.956
116.0, 5082.7419856479155, 187500.0, 187500.0, 187500.0, -187500.02235174447, -187500.02235174447, -187500.02235174447, -187500.02235174447, 0.17200000000000001, -0.022, 0.996, 192.0, 5.0, 96.0, 255.0, 80.0, 31.0, 32.0, 0.0, 0.0, 0.0, 1.677618432956251E9, 0.0, 2023-02-28 16:07:12.956
117.0, 5583.376357957883, 187500.0, 187500.0, 187500.0, -187500.02235174447, -187500.02235174447, -187500.02235174447, -187500.02235174447, 0.17200000000000001, -0.022, 0.996, 192.0, 0.0, 0.0, 0.0, 0.0, 0.0, 0.0, 0.0, 0.0, 0.0, 1.677618432964173E9, 0.0, 2023-02-28 16:07:12.964
118.0, 6715.983952997202, 187500.0, 187500.0, 187500.0, -187500.02235174447, -187500.02235174447, -187500.02235174447, -187500.02235174447, 0.17200000000000001, -0.022, 0.996, 192.0, 0.0, 0.0, 0.0, 0.0, 0.0, 0.0, 0.0, 0.0, 0.0, 1.677618432964188E9, 0.0, 2023-02-28 16:07:12.964
119.0, 5990.2228105333825, 187500.0, 187500.0, 187500.0, -187500.02235174447, -187500.02235174447, -187500.02235174447, -187500.02235174447, 0.17200000000000001, -0.022, 0.996, 192.0, 0.0, 0.0, 0.0, 0.0, 0.0, 0.0, 0.0, 0.0, 0.0, 1.677618432971228E9, 0.0, 2023-02-28 16:07:12.971
120.0, 5346.447866731628, 187500.0, 187500.0, 187500.0, -187500.02235174447, -187500.02235174447, -187500.02235174447, -187500.02235174447, 0.17200000000000001, -0.022, 0.996, 192.0, 0.0, 0.0, 0.0, 0.0, 0.0, 0.0, 0.0, 0.0, 0.0, 1.677618432971245E9, 0.0, 2023-02-28 16:07:12.971
121.0, 5666.547199076081, 187500.0, 187500.0, 187500.0, -187500.02235174447, -187500.02235174447, -187500.02235174447, -187500.02235174447, 0.17200000000000001, -0.022, 0.996, 192.0, 0.0, 0.0, 0.0, 0.0, 0.0, 0.0, 0.0, 0.0, 0.0, 1.677618432978665E9, 0.0, 2023-02-28 16:07:12.978
122.0, 6165.013452173884, 187500.0, 187500.0, 187500.0, -187500.02235174447, -187500.02235174447, -187500.02235174447, -187500.02235174447, 0.17200000000000001, -0.022, 0.996, 192.0, 0.0, 0.0, 0.0, 0.0, 0.0, 0.0, 0.0, 0.0, 0.0, 1.677618432978678E9, 0.0, 2023-02-28 16:07:12.978
123.0, 6164.9687486849725, 187500.0, 187500.0, 187500.0, -187500.02235174447, -187500.02235174447, -187500.02235174447, -187500.02235174447, 0.17200000000000001, -0.022, 0.996, 192.0, 0.0, 0.0, 0.0, 0.0, 0.0, 0.0, 0.0, 0.0, 0.0, 1.677618432985768E9, 0.0, 2023-02-28 16:07:12.985
124.0, 5405.322361626907, 187500.0, 187500.0, 187500.0, -187500.02235174447, -187500.02235174447, -187500.02235174447, -187500.02235174447, 0.17200000000000001, -0.022, 0.996, 192.0, 0.0, 0.0, 0.0, 0.0, 0.0, 0.0, 0.0, 0.0, 0.0, 1.67761843298579E9, 0.0, 2023-02-28 16:07:12.985
125.0, 5493.723510947646, 187500.0, 187500.0, 187500.0, -187500.02235174447, -187500.02235174447, -187500.02235174447, -187500.02235174447, 0.17400000000000002, -0.022, 0.994, 192.0, 5.0, 112.0, 255.0, 80.0, 31.0, 16.0, 0.0, 0.0, 0.0, 1.677618432993848E9, 0.0, 2023-02-28 16:07:12.993
126.0, 6329.432884387123, 187500.0, 187500.0, 187500.0, -187500.02235174447, -187500.02235174447, -187500.02235174447, -187500.02235174447, 0.17400000000000002, -0.022, 0.994, 192.0, 0.0, 0.0, 0.0, 0.0, 0.0, 0.0, 0.0, 0.0, 0.0, 1.677618433000868E9, 0.0, 2023-02-28 16:07:13.000
127.0, 6186.5605338288, 187500.0, 187500.0, 187500.0, -187500.02235174447, -187500.02235174447, -187500.02235174447, -187500.02235174447, 0.17400000000000002, -0.022, 0.994, 192.0, 0.0, 0.0, 0.0, 0.0, 0.0, 0.0, 0.0, 0.0, 0.0, 1.677618433000891E9, 0.0, 2023-02-28 16:07:13.000
128.0, 5812.884070024976, 187500.0, 187500.0, 187500.0, -187500.02235174447, -187500.02235174447, -187500.02235174447, -187500.02235174447, 0.17400000000000002, -0.022, 0.994, 192.0, 0.0, 0.0, 0.0, 0.0, 0.0, 0.0, 0.0, 0.0, 0.0, 1.677618433008342E9, 0.0, 2023-02-28 16:07:13.008
129.0, 5684.048614984586, 187500.0, 187500.0, 187500.0, -187500.02235174447, -187500.02235174447, -187500.02235174447, -187500.02235174447, 0.17400000000000002, -0.022, 0.994, 192.0, 0.0, 0.0, 0.0, 0.0, 0.0, 0.0, 0.0, 0.0, 0.0, 1.677618433008358E9, 0.0, 2023-02-28 16:07:13.008
130.0, 5879.604027224068, 187500.0, 187500.0, 187500.0, -187500.02235174447, -187500.02235174447, -187500.02235174447, -187500.02235174447, 0.17400000000000002, -0.022, 0.994, 192.0, 0.0, 0.0, 0.0, 0.0, 0.0, 0.0, 0.0, 0.0, 0.0, 1.677618433016371E9, 0.0, 2023-02-28 16:07:13.016
131.0, 6337.412457157667, 187500.0, 187500.0, 187500.0, -187500.02235174447, -187500.02235174447, -187500.02235174447, -187500.02235174447, 0.17400000000000002, -0.022, 0.994, 192.0, 0.0, 0.0, 0.0, 0.0, 0.0, 0.0, 0.0, 0.0, 0.0, 1.677618433016386E9, 0.0, 2023-02-28 16:07:13.016
132.0, 5424.276640925007, 187500.0, 187500.0, 187500.0, -187500.02235174447, -187500.02235174447, -187500.02235174447, -187500.02235174447, 0.17400000000000002, -0.022, 0.994, 192.0, 0.0, 0.0, 0.0, 0.0, 0.0, 0.0, 0.0, 0.0, 0.0, 1.677618433024421E9, 0.0, 2023-02-28 16:07:13.024
133.0, 5289.473270115051, 187500.0, 187500.0, 187500.0, -187500.02235174447, -187500.02235174447, -187500.02235174447, -187500.02235174447, 0.17400000000000002, -0.022, 0.994, 192.0, 0.0, 0.0, 0.0, 0.0, 0.0, 0.0, 0.0, 0.0, 0.0, 1.677618433024435E9, 0.0, 2023-02-28 16:07:13.024
134.0, 6152.340013067725, 187500.0, 187500.0, 187500.0, -187500.02235174447, -187500.02235174447, -187500.02235174447, -187500.02235174447, 0.17400000000000002, -0.022, 0.994, 192.0, 0.0, 0.0, 0.0, 0.0, 0.0, 0.0, 0.0, 0.0, 0.0, 1.677618433030981E9, 0.0, 2023-02-28 16:07:13.030
135.0, 6605.365169687888, 187500.0, 187500.0, 187500.0, -187500.02235174447, -187500.02235174447, -187500.02235174447, -187500.02235174447, 0.178, -0.028, 0.996, 192.0, 5.0, 144.0, 255.0, 32.0, 31.0, 32.0, 0.0, 0.0, 0.0, 1.677618433031005E9, 0.0, 2023-02-28 16:07:13.031
136.0, 5778.909418452909, 187500.0, 187500.0, 187500.0, -187500.02235174447, -187500.02235174447, -187500.02235174447, -187500.02235174447, 0.178, -0.028, 0.996, 192.0, 0.0, 0.0, 0.0, 0.0, 0.0, 0.0, 0.0, 0.0, 0.0, 1.677618433039102E9, 0.0, 2023-02-28 16:07:13.039
137.0, 5464.956815833666, 187500.0, 187500.0, 187500.0, -187500.02235174447, -187500.02235174447, -187500.02235174447, -187500.02235174447, 0.178, -0.028, 0.996, 192.0, 0.0, 0.0, 0.0, 0.0, 0.0, 0.0, 0.0, 0.0, 0.0, 1.67761843303912E9, 0.0, 2023-02-28 16:07:13.039
138.0, 6524.2059855706675, 187500.0, 187500.0, 187500.0, -187500.02235174447, -187500.02235174447, -187500.02235174447, -187500.02235174447, 0.178, -0.028, 0.996, 192.0, 0.0, 0.0, 0.0, 0.0, 0.0, 0.0, 0.0, 0.0, 0.0, 1.677618433047995E9, 0.0, 2023-02-28 16:07:13.047
139.0, 7102.5573733517385, 187500.0, 187500.0, 187500.0, -187500.02235174447, -187500.02235174447, -187500.02235174447, -187500.02235174447, 0.178, -0.028, 0.996, 192.0, 0.0, 0.0, 0.0, 0.0, 0.0, 0.0, 0.0, 0.0, 0.0, 1.677618433048009E9, 0.0, 2023-02-28 16:07:13.048
140.0, 6043.554072803745, 187500.0, 187500.0, 187500.0, -187500.02235174447, -187500.02235174447, -187500.02235174447, -187500.02235174447, 0.178, -0.028, 0.996, 192.0, 0.0, 0.0, 0.0, 0.0, 0.0, 0.0, 0.0, 0.0, 0.0, 1.677618433054133E9, 0.0, 2023-02-28 16:07:13.054
141.0, 4908.308971918699, 187500.0, 187500.0, 187500.0, -187500.02235174447, -187500.02235174447, -187500.02235174447, -187500.02235174447, 0.178, -0.028, 0.996, 192.0, 0.0, 0.0, 0.0, 0.0, 0.0, 0.0, 0.0, 0.0, 0.0, 1.677618433060557E9, 0.0, 2023-02-28 16:07:13.060
142.0, 5631.097332369964, 187500.0, 187500.0, 187500.0, -187500.02235174447, -187500.02235174447, -187500.02235174447, -187500.02235174447, 0.178, -0.028, 0.996, 192.0, 0.0, 0.0, 0.0, 0.0, 0.0, 0.0, 0.0, 0.0, 0.0, 1.677618433060568E9, 0.0, 2023-02-28 16:07:13.060
143.0, 6654.829580167482, 187500.0, 187500.0, 187500.0, -187500.02235174447, -187500.02235174447, -187500.02235174447, -187500.02235174447, 0.178, -0.028, 0.996, 192.0, 0.0, 0.0, 0.0, 0.0, 0.0, 0.0, 0.0, 0.0, 0.0, 1.677618433068757E9, 0.0, 2023-02-28 16:07:13.068
144.0, 6229.9452698165505, 187500.0, 187500.0, 187500.0, -187500.02235174447, -187500.02235174447, -187500.02235174447, -187500.02235174447, 0.178, -0.028, 0.996, 192.0, 0.0, 0.0, 0.0, 0.0, 0.0, 0.0, 0.0, 0.0, 0.0, 1.677618433068773E9, 0.0, 2023-02-28 16:07:13.068
145.0, 5544.663136561291, 187500.0, 187500.0, 187500.0, -187500.02235174447, -187500.02235174447, -187500.02235174447, -187500.02235174447, 0.18, -0.024, 0.998, 192.0, 5.0, 160.0, 255.0, 64.0, 31.0, 48.0, 0.0, 0.0, 0.0, 1.677618433076659E9, 0.0, 2023-02-28 16:07:13.076
146.0, 6035.015706421817, 187500.0, 187500.0, 187500.0, -187500.02235174447, -187500.02235174447, -187500.02235174447, -187500.02235174447, 0.18, -0.024, 0.998, 192.0, 0.0, 0.0, 0.0, 0.0, 0.0, 0.0, 0.0, 0.0, 0.0, 1.677618433076683E9, 0.0, 2023-02-28 16:07:13.076
147.0, 6590.635370091841, 187500.0, 187500.0, 187500.0, -187500.02235174447, -187500.02235174447, -187500.02235174447, -187500.02235174447, 0.18, -0.024, 0.998, 192.0, 0.0, 0.0, 0.0, 0.0, 0.0, 0.0, 0.0, 0.0, 0.0, 1.677618433083731E9, 0.0, 2023-02-28 16:07:13.083
148.0, 6363.184018514636, 187500.0, 187500.0, 187500.0, -187500.02235174447, -187500.02235174447, -187500.02235174447, -187500.02235174447, 0.18, -0.024, 0.998, 192.0, 0.0, 0.0, 0.0, 0.0, 0.0, 0.0, 0.0, 0.0, 0.0, 1.677618433083751E9, 0.0, 2023-02-28 16:07:13.083
149.0, 5832.374791190004, 187500.0, 187500.0, 187500.0, -187500.02235174447, -187500.02235174447, -187500.02235174447, -187500.02235174447, 0.18, -0.024, 0.998, 192.0, 0.0, 0.0, 0.0, 0.0, 0.0, 0.0, 0.0, 0.0, 0.0, 1.677618433091351E9, 0.0, 2023-02-28 16:07:13.091
150.0, 5910.650600272489, 187500.0, 187500.0, 187500.0, -187500.02235174447, -187500.02235174447, -187500.02235174447, -187500.02235174447, 0.18, -0.024, 0.998, 192.0, 0.0, 0.0, 0.0, 0.0, 0.0, 0.0, 0.0, 0.0, 0.0, 1.677618433091367E9, 0.0, 2023-02-28 16:07:13.091
151.0, 6568.618901803363, 187500.0, 187500.0, 187500.0, -187500.02235174447, -187500.02235174447, -187500.02235174447, -187500.02235174447, 0.18, -0.024, 0.998, 192.0, 0.0, 0.0, 0.0, 0.0, 0.0, 0.0, 0.0, 0.0, 0.0, 1.677618433099325E9, 0.0, 2023-02-28 16:07:13.099
152.0, 6659.277577314088, 187500.0, 187500.0, 187500.0, -187500.02235174447, -187500.02235174447, -187500.02235174447, -187500.02235174447, 0.18, -0.024, 0.998, 192.0, 0.0, 0.0, 0.0, 0.0, 0.0, 0.0, 0.0, 0.0, 0.0, 1.677618433099337E9, 0.0, 2023-02-28 16:07:13.099
153.0, 5705.305123961583, 187500.0, 187500.0, 187500.0, -187500.02235174447, -187500.02235174447, -187500.02235174447, -187500.02235174447, 0.18, -0.024, 0.998, 192.0, 0.0, 0.0, 0.0, 0.0, 0.0, 0.0, 0.0, 0.0, 0.0, 1.677618433107445E9, 0.0, 2023-02-28 16:07:13.107
154.0, 5795.561468072113, 187500.0, 187500.0, 187500.0, -187500.02235174447, -187500.02235174447, -187500.02235174447, -187500.02235174447, 0.18, -0.024, 0.998, 192.0, 0.0, 0.0, 0.0, 0.0, 0.0, 0.0, 0.0, 0.0, 0.0, 1.677618433107458E9, 0.0, 2023-02-28 16:07:13.107
155.0, 6331.0869134768145, 187500.0, 187500.0, 187500.0, -187500.02235174447, -187500.02235174447, -187500.02235174447, -187500.02235174447, 0.182, -0.026000000000000002, 0.996, 192.0, 5.0, 176.0, 255.0, 48.0, 31.0, 32.0, 0.0, 0.0, 0.0, 1.677618433113428E9, 0.0, 2023-02-28 16:07:13.113
156.0, 6974.258360178275, 187500.0, 187500.0, 187500.0, -187500.02235174447, -187500.02235174447, -187500.02235174447, -187500.02235174447, 0.182, -0.026000000000000002, 0.996, 192.0, 0.0, 0.0, 0.0, 0.0, 0.0, 0.0, 0.0, 0.0, 0.0, 1.677618433120917E9, 0.0, 2023-02-28 16:07:13.120
157.0, 6409.31801907039, 187500.0, 187500.0, 187500.0, -187500.02235174447, -187500.02235174447, -187500.02235174447, -187500.02235174447, 0.182, -0.026000000000000002, 0.996, 192.0, 0.0, 0.0, 0.0, 0.0, 0.0, 0.0, 0.0, 0.0, 0.0, 1.677618433120936E9, 0.0, 2023-02-28 16:07:13.120
158.0, 5188.018702032412, 187500.0, 187500.0, 187500.0, -187500.02235174447, -187500.02235174447, -187500.02235174447, -187500.02235174447, 0.182, -0.026000000000000002, 0.996, 192.0, 0.0, 0.0, 0.0, 0.0, 0.0, 0.0, 0.0, 0.0, 0.0, 1.677618433129054E9, 0.0, 2023-02-28 16:07:13.129
159.0, 6120.488777218911, 187500.0, 187500.0, 187500.0, -187500.02235174447, -187500.02235174447, -187500.02235174447, -187500.02235174447, 0.182, -0.026000000000000002, 0.996, 192.0, 0.0, 0.0, 0.0, 0.0, 0.0, 0.0, 0.0, 0.0, 0.0, 1.677618433129075E9, 0.0, 2023-02-28 16:07:13.129
160.0, 7000.0522732797, 187500.0, 187500.0, 187500.0, -187500.02235174447, -187500.02235174447, -187500.02235174447, -187500.02235174447, 0.182, -0.026000000000000002, 0.996, 192.0, 0.0, 0.0, 0.0, 0.0, 0.0, 0.0, 0.0, 0.0, 0.0, 1.677618433136109E9, 0.0, 2023-02-28 16:07:13.136
161.0, 6294.474756059022, 187500.0, 187500.0, 187500.0, -187500.02235174447, -187500.02235174447, -187500.02235174447, -187500.02235174447, 0.182, -0.026000000000000002, 0.996, 192.0, 0.0, 0.0, 0.0, 0.0, 0.0, 0.0, 0.0, 0.0, 0.0, 1.677618433136126E9, 0.0, 2023-02-28 16:07:13.136
162.0, 5311.556793636893, 187500.0, 187500.0, 187500.0, -187500.02235174447, -187500.02235174447, -187500.02235174447, -187500.02235174447, 0.182, -0.026000000000000002, 0.996, 192.0, 0.0, 0.0, 0.0, 0.0, 0.0, 0.0, 0.0, 0.0, 0.0, 1.677618433144125E9, 0.0, 2023-02-28 16:07:13.144
163.0, 6176.479897079456, 187500.0, 187500.0, 187500.0, -187500.02235174447, -187500.02235174447, -187500.02235174447, -187500.02235174447, 0.182, -0.026000000000000002, 0.996, 192.0, 0.0, 0.0, 0.0, 0.0, 0.0, 0.0, 0.0, 0.0, 0.0, 1.677618433144144E9, 0.0, 2023-02-28 16:07:13.144
164.0, 6973.341938655608, 187500.0, 187500.0, 187500.0, -187500.02235174447, -187500.02235174447, -187500.02235174447, -187500.02235174447, 0.182, -0.026000000000000002, 0.996, 192.0, 0.0, 0.0, 0.0, 0.0, 0.0, 0.0, 0.0, 0.0, 0.0, 1.677618433151618E9, 0.0, 2023-02-28 16:07:13.151
165.0, 6566.182561657734, 187500.0, 187500.0, 187500.0, -187500.02235174447, -187500.02235174447, -187500.02235174447, -187500.02235174447, 0.18, -0.022, 0.998, 192.0, 5.0, 160.0, 255.0, 80.0, 31.0, 48.0, 0.0, 0.0, 0.0, 1.677618433151633E9, 0.0, 2023-02-28 16:07:13.151
166.0, 5796.857869250521, 187500.0, 187500.0, 187500.0, -187500.02235174447, -187500.02235174447, -187500.02235174447, -187500.02235174447, 0.18, -0.022, 0.998, 192.0, 0.0, 0.0, 0.0, 0.0, 0.0, 0.0, 0.0, 0.0, 0.0, 1.677618433159576E9, 0.0, 2023-02-28 16:07:13.159
167.0, 6346.330803195335, 187500.0, 187500.0, 187500.0, -187500.02235174447, -187500.02235174447, -187500.02235174447, -187500.02235174447, 0.18, -0.022, 0.998, 192.0, 0.0, 0.0, 0.0, 0.0, 0.0, 0.0, 0.0, 0.0, 0.0, 1.677618433159603E9, 0.0, 2023-02-28 16:07:13.159
168.0, 7153.407591987561, 187500.0, 187500.0, 187500.0, -187500.02235174447, -187500.02235174447, -187500.02235174447, -187500.02235174447, 0.18, -0.022, 0.998, 192.0, 0.0, 0.0, 0.0, 0.0, 0.0, 0.0, 0.0, 0.0, 0.0, 1.677618433166151E9, 0.0, 2023-02-28 16:07:13.166
169.0, 6379.657254178197, 187500.0, 187500.0, 187500.0, -187500.02235174447, -187500.02235174447, -187500.02235174447, -187500.02235174447, 0.18, -0.022, 0.998, 192.0, 0.0, 0.0, 0.0, 0.0, 0.0, 0.0, 0.0, 0.0, 0.0, 1.677618433166171E9, 0.0, 2023-02-28 16:07:13.166
170.0, 5538.158778924797, 187500.0, 187500.0, 187500.0, -187500.02235174447, -187500.02235174447, -187500.02235174447, -187500.02235174447, 0.18, -0.022, 0.998, 192.0, 0.0, 0.0, 0.0, 0.0, 0.0, 0.0, 0.0, 0.0, 0.0, 1.677618433173174E9, 0.0, 2023-02-28 16:07:13.173
171.0, 5892.813908197154, 187500.0, 187500.0, 187500.0, -187500.02235174447, -187500.02235174447, -187500.02235174447, -187500.02235174447, 0.18, -0.022, 0.998, 192.0, 0.0, 0.0, 0.0, 0.0, 0.0, 0.0, 0.0, 0.0, 0.0, 1.67761843318141E9, 0.0, 2023-02-28 16:07:13.181
172.0, 6957.159275669966, 187500.0, 187500.0, 187500.0, -187500.02235174447, -187500.02235174447, -187500.02235174447, -187500.02235174447, 0.18, -0.022, 0.998, 192.0, 0.0, 0.0, 0.0, 0.0, 0.0, 0.0, 0.0, 0.0, 0.0, 1.677618433181424E9, 0.0, 2023-02-28 16:07:13.181
173.0, 6735.072342762035, 187500.0, 187500.0, 187500.0, -187500.02235174447, -187500.02235174447, -187500.02235174447, -187500.02235174447, 0.18, -0.022, 0.998, 192.0, 0.0, 0.0, 0.0, 0.0, 0.0, 0.0, 0.0, 0.0, 0.0, 1.677618433189387E9, 0.0, 2023-02-28 16:07:13.189
174.0, 6039.91073845753, 187500.0, 187500.0, 187500.0, -187500.02235174447, -187500.02235174447, -187500.02235174447, -187500.02235174447, 0.18, -0.022, 0.998, 192.0, 0.0, 0.0, 0.0, 0.0, 0.0, 0.0, 0.0, 0.0, 0.0, 1.677618433189404E9, 0.0, 2023-02-28 16:07:13.189
175.0, 6040.782456491287, 187500.0, 187500.0, 187500.0, -187500.02235174447, -187500.02235174447, -187500.02235174447, -187500.02235174447, 0.184, -0.022, 1.002, 192.0, 5.0, 192.0, 255.0, 80.0, 31.0, 80.0, 0.0, 0.0, 0.0, 1.677618433195739E9, 0.0, 2023-02-28 16:07:13.195
176.0, 6848.485094128263, 187500.0, 187500.0, 187500.0, -187500.02235174447, -187500.02235174447, -187500.02235174447, -187500.02235174447, 0.184, -0.022, 1.002, 192.0, 0.0, 0.0, 0.0, 0.0, 0.0, 0.0, 0.0, 0.0, 0.0, 1.677618433195754E9, 0.0, 2023-02-28 16:07:13.195
177.0, 7120.930507294001, 187500.0, 187500.0, 187500.0, -187500.02235174447, -187500.02235174447, -187500.02235174447, -187500.02235174447, 0.184, -0.022, 1.002, 192.0, 0.0, 0.0, 0.0, 0.0, 0.0, 0.0, 0.0, 0.0, 0.0, 1.677618433204314E9, 0.0, 2023-02-28 16:07:13.204
178.0, 6048.002069950351, 187500.0, 187500.0, 187500.0, -187500.02235174447, -187500.02235174447, -187500.02235174447, -187500.02235174447, 0.184, -0.022, 1.002, 192.0, 0.0, 0.0, 0.0, 0.0, 0.0, 0.0, 0.0, 0.0, 0.0, 1.677618433204333E9, 0.0, 2023-02-28 16:07:13.204
179.0, 5857.744021146777, 187500.0, 187500.0, 187500.0, -187500.02235174447, -187500.02235174447, -187500.02235174447, -187500.02235174447, 0.184, -0.022, 1.002, 192.0, 0.0, 0.0, 0.0, 0.0, 0.0, 0.0, 0.0, 0.0, 0.0, 1.677618433211916E9, 0.0, 2023-02-28 16:07:13.211
180.0, 6694.794499253571, 187500.0, 187500.0, 187500.0, -187500.02235174447, -187500.02235174447, -187500.02235174447, -187500.02235174447, 0.184, -0.022, 1.002, 192.0, 0.0, 0.0, 0.0, 0.0, 0.0, 0.0, 0.0, 0.0, 0.0, 1.677618433211937E9, 0.0, 2023-02-28 16:07:13.211
181.0, 7009.261191995286, 187500.0, 187500.0, 187500.0, -187500.02235174447, -187500.02235174447, -187500.02235174447, -187500.02235174447, 0.184, -0.022, 1.002, 192.0, 0.0, 0.0, 0.0, 0.0, 0.0, 0.0, 0.0, 0.0, 0.0, 1.677618433218981E9, 0.0, 2023-02-28 16:07:13.218
182.0, 6211.661542852109, 187500.0, 187500.0, 187500.0, -187500.02235174447, -187500.02235174447, -187500.02235174447, -187500.02235174447, 0.184, -0.022, 1.002, 192.0, 0.0, 0.0, 0.0, 0.0, 0.0, 0.0, 0.0, 0.0, 0.0, 1.677618433218996E9, 0.0, 2023-02-28 16:07:13.218
183.0, 5892.88096343052, 187500.0, 187500.0, 187500.0, -187500.02235174447, -187500.02235174447, -187500.02235174447, -187500.02235174447, 0.184, -0.022, 1.002, 192.0, 0.0, 0.0, 0.0, 0.0, 0.0, 0.0, 0.0, 0.0, 0.0, 1.677618433226657E9, 0.0, 2023-02-28 16:07:13.226
184.0, 6932.281784091209, 187500.0, 187500.0, 187500.0, -187500.02235174447, -187500.02235174447, -187500.02235174447, -187500.02235174447, 0.18, -0.022, 0.998, 192.0, 5.0, 160.0, 255.0, 80.0, 31.0, 48.0, 0.0, 0.0, 0.0, 1.67761843322667E9, 0.0, 2023-02-28 16:07:13.226
185.0, 7009.1047297841, 187500.0, 187500.0, 187500.0, -187500.02235174447, -187500.02235174447, -187500.02235174447, -187500.02235174447, 0.18, -0.022, 0.998, 192.0, 0.0, 0.0, 0.0, 0.0, 0.0, 0.0, 0.0, 0.0, 0.0, 1.677618433233644E9, 0.0, 2023-02-28 16:07:13.233
186.0, 6374.136373297736, 187500.0, 187500.0, 187500.0, -187500.02235174447, -187500.02235174447, -187500.02235174447, -187500.02235174447, 0.18, -0.022, 0.998, 192.0, 0.0, 0.0, 0.0, 0.0, 0.0, 0.0, 0.0, 0.0, 0.0, 1.677618433233669E9, 0.0, 2023-02-28 16:07:13.233
187.0, 6156.02805090285, 187500.0, 187500.0, 187500.0, -187500.02235174447, -187500.02235174447, -187500.02235174447, -187500.02235174447, 0.18, -0.022, 0.998, 192.0, 0.0, 0.0, 0.0, 0.0, 0.0, 0.0, 0.0, 0.0, 0.0, 1.677618433241494E9, 0.0, 2023-02-28 16:07:13.241
188.0, 6393.73885318504, 187500.0, 187500.0, 187500.0, -187500.02235174447, -187500.02235174447, -187500.02235174447, -187500.02235174447, 0.18, -0.022, 0.998, 192.0, 0.0, 0.0, 0.0, 0.0, 0.0, 0.0, 0.0, 0.0, 0.0, 1.677618433248587E9, 0.0, 2023-02-28 16:07:13.248
189.0, 7077.9704544509, 187500.0, 187500.0, 187500.0, -187500.02235174447, -187500.02235174447, -187500.02235174447, -187500.02235174447, 0.18, -0.022, 0.998, 192.0, 0.0, 0.0, 0.0, 0.0, 0.0, 0.0, 0.0, 0.0, 0.0, 1.677618433248607E9, 0.0, 2023-02-28 16:07:13.248
190.0, 6768.398793744897, 187500.0, 187500.0, 187500.0, -187500.02235174447, -187500.02235174447, -187500.02235174447, -187500.02235174447, 0.18, -0.022, 0.998, 192.0, 0.0, 0.0, 0.0, 0.0, 0.0, 0.0, 0.0, 0.0, 0.0, 1.677618433256137E9, 0.0, 2023-02-28 16:07:13.256
191.0, 6263.4281830106, 187500.0, 187500.0, 187500.0, -187500.02235174447, -187500.02235174447, -187500.02235174447, -187500.02235174447, 0.18, -0.022, 0.998, 192.0, 0.0, 0.0, 0.0, 0.0, 0.0, 0.0, 0.0, 0.0, 0.0, 1.677618433256159E9, 0.0, 2023-02-28 16:07:13.256
192.0, 6043.889348970574, 187500.0, 187500.0, 187500.0, -187500.02235174447, -187500.02235174447, -187500.02235174447, -187500.02235174447, 0.18, -0.022, 0.998, 192.0, 0.0, 0.0, 0.0, 0.0, 0.0, 0.0, 0.0, 0.0, 0.0, 1.677618433264186E9, 0.0, 2023-02-28 16:07:13.264
193.0, 6994.218467976865, 187500.0, 187500.0, 187500.0, -187500.02235174447, -187500.02235174447, -187500.02235174447, -187500.02235174447, 0.18, -0.022, 0.998, 192.0, 0.0, 0.0, 0.0, 0.0, 0.0, 0.0, 0.0, 0.0, 0.0, 1.677618433264198E9, 0.0, 2023-02-28 16:07:13.264
194.0, 6859.526855889185, 187500.0, 187500.0, 187500.0, -187500.02235174447, -187500.02235174447, -187500.02235174447, -187500.02235174447, 0.178, -0.018000000000000002, 1.002, 192.0, 5.0, 144.0, 255.0, 112.0, 31.0, 80.0, 0.0, 0.0, 0.0, 1.677618433272247E9, 0.0, 2023-02-28 16:07:13.272
195.0, 6065.235264925393, 187500.0, 187500.0, 187500.0, -187500.02235174447, -187500.02235174447, -187500.02235174447, -187500.02235174447, 0.178, -0.018000000000000002, 1.002, 192.0, 0.0, 0.0, 0.0, 0.0, 0.0, 0.0, 0.0, 0.0, 0.0, 1.677618433272261E9, 0.0, 2023-02-28 16:07:13.272
196.0, 6401.852536422317, 187500.0, 187500.0, 187500.0, -187500.02235174447, -187500.02235174447, -187500.02235174447, -187500.02235174447, 0.178, -0.018000000000000002, 1.002, 192.0, 0.0, 0.0, 0.0, 0.0, 0.0, 0.0, 0.0, 0.0, 0.0, 1.677618433278725E9, 0.0, 2023-02-28 16:07:13.278
197.0, 7194.646560507604, 187500.0, 187500.0, 187500.0, -187500.02235174447, -187500.02235174447, -187500.02235174447, -187500.02235174447, 0.178, -0.018000000000000002, 1.002, 192.0, 0.0, 0.0, 0.0, 0.0, 0.0, 0.0, 0.0, 0.0, 0.0, 1.677618433278748E9, 0.0, 2023-02-28 16:07:13.278
198.0, 6784.514401497174, 187500.0, 187500.0, 187500.0, -187500.02235174447, -187500.02235174447, -187500.02235174447, -187500.02235174447, 0.178, -0.018000000000000002, 1.002, 192.0, 0.0, 0.0, 0.0, 0.0, 0.0, 0.0, 0.0, 0.0, 0.0, 1.677618433286763E9, 0.0, 2023-02-28 16:07:13.286
199.0, 6090.649198371077, 187500.0, 187500.0, 187500.0, -187500.02235174447, -187500.02235174447, -187500.02235174447, -187500.02235174447, 0.178, -0.018000000000000002, 1.002, 192.0, 0.0, 0.0, 0.0, 0.0, 0.0, 0.0, 0.0, 0.0, 0.0, 1.677618433286787E9, 0.0, 2023-02-28 16:07:13.286
200.0, 6429.211071635613, 187500.0, 187500.0, 187500.0, -187500.02235174447, -187500.02235174447, -187500.02235174447, -187500.02235174447, 0.178, -0.018000000000000002, 1.002, 192.0, 0.0, 0.0, 0.0, 0.0, 0.0, 0.0, 0.0, 0.0, 0.0, 1.67761843329482E9, 0.0, 2023-02-28 16:07:13.294
201.0, 7293.217753555507, 187500.0, 187500.0, 187500.0, -187500.02235174447, -187500.02235174447, -187500.02235174447, -187500.02235174447, 0.178, -0.018000000000000002, 1.002, 192.0, 0.0, 0.0, 0.0, 0.0, 0.0, 0.0, 0.0, 0.0, 0.0, 1.677618433294847E9, 0.0, 2023-02-28 16:07:13.294
202.0, 7131.122902765621, 187500.0, 187500.0, 187500.0, -187500.02235174447, -187500.02235174447, -187500.02235174447, -187500.02235174447, 0.178, -0.018000000000000002, 1.002, 192.0, 0.0, 0.0, 0.0, 0.0, 0.0, 0.0, 0.0, 0.0, 0.0, 1.677618433300742E9, 0.0, 2023-02-28 16:07:13.300
203.0, 6438.218824651101, 187500.0, 187500.0, 187500.0, -187500.02235174447, -187500.02235174447, -187500.02235174447, -187500.02235174447, 0.178, -0.018000000000000002, 1.002, 192.0, 0.0, 0.0, 0.0, 0.0, 0.0, 0.0, 0.0, 0.0, 0.0, 1.677618433308461E9, 0.0, 2023-02-28 16:07:13.308
204.0, 6154.798704957808, 187500.0, 187500.0, 187500.0, -187500.02235174447, -187500.02235174447, -187500.02235174447, -187500.02235174447, 0.178, -0.018000000000000002, 0.998, 192.0, 5.0, 144.0, 255.0, 112.0, 31.0, 48.0, 0.0, 0.0, 0.0, 1.677618433308476E9, 0.0, 2023-02-28 16:07:13.308
205.0, 6884.806678868137, 187500.0, 187500.0, 187500.0, -187500.02235174447, -187500.02235174447, -187500.02235174447, -187500.02235174447, 0.178, -0.018000000000000002, 0.998, 192.0, 0.0, 0.0, 0.0, 0.0, 0.0, 0.0, 0.0, 0.0, 0.0, 1.677618433316479E9, 0.0, 2023-02-28 16:07:13.316
206.0, 7158.6155484456485, 187500.0, 187500.0, 187500.0, -187500.02235174447, -187500.02235174447, -187500.02235174447, -187500.02235174447, 0.178, -0.018000000000000002, 0.998, 192.0, 0.0, 0.0, 0.0, 0.0, 0.0, 0.0, 0.0, 0.0, 0.0, 1.6776184333165E9, 0.0, 2023-02-28 16:07:13.316
207.0, 6470.47239190011, 187500.0, 187500.0, 187500.0, -187500.02235174447, -187500.02235174447, -187500.02235174447, -187500.02235174447, 0.178, -0.018000000000000002, 0.998, 192.0, 0.0, 0.0, 0.0, 0.0, 0.0, 0.0, 0.0, 0.0, 0.0, 1.677618433326048E9, 0.0, 2023-02-28 16:07:13.326
208.0, 6069.973834749918, 187500.0, 187500.0, 187500.0, -187500.02235174447, -187500.02235174447, -187500.02235174447, -187500.02235174447, 0.178, -0.018000000000000002, 0.998, 192.0, 0.0, 0.0, 0.0, 0.0, 0.0, 0.0, 0.0, 0.0, 0.0, 1.677618433326067E9, 0.0, 2023-02-28 16:07:13.326
209.0, 6862.298472201643, 187500.0, 187500.0, 187500.0, -187500.02235174447, -187500.02235174447, -187500.02235174447, -187500.02235174447, 0.178, -0.018000000000000002, 0.998, 192.0, 0.0, 0.0, 0.0, 0.0, 0.0, 0.0, 0.0, 0.0, 0.0, 1.67761843333102E9, 0.0, 2023-02-28 16:07:13.331
210.0, 7439.778141948956, 187500.0, 187500.0, 187500.0, -187500.02235174447, -187500.02235174447, -187500.02235174447, -187500.02235174447, 0.178, -0.018000000000000002, 0.998, 192.0, 0.0, 0.0, 0.0, 0.0, 0.0, 0.0, 0.0, 0.0, 0.0, 1.67761843333105E9, 0.0, 2023-02-28 16:07:13.331
211.0, 6847.9263005168805, 187500.0, 187500.0, 187500.0, -187500.02235174447, -187500.02235174447, -187500.02235174447, -187500.02235174447, 0.178, -0.018000000000000002, 0.998, 192.0, 0.0, 0.0, 0.0, 0.0, 0.0, 0.0, 0.0, 0.0, 0.0, 1.67761843333906E9, 0.0, 2023-02-28 16:07:13.339
212.0, 6260.85773239824, 187500.0, 187500.0, 187500.0, -187500.02235174447, -187500.02235174447, -187500.02235174447, -187500.02235174447, 0.178, -0.018000000000000002, 0.998, 192.0, 0.0, 0.0, 0.0, 0.0, 0.0, 0.0, 0.0, 0.0, 0.0, 1.677618433339074E9, 0.0, 2023-02-28 16:07:13.339
213.0, 6929.353705567563, 187500.0, 187500.0, 187500.0, -187500.02235174447, -187500.02235174447, -187500.02235174447, -187500.02235174447, 0.178, -0.018000000000000002, 0.998, 192.0, 0.0, 0.0, 0.0, 0.0, 0.0, 0.0, 0.0, 0.0, 0.0, 1.67761843334718E9, 0.0, 2023-02-28 16:07:13.347
214.0, 7298.313951291318, 187500.0, 187500.0, 187500.0, -187500.02235174447, -187500.02235174447, -187500.02235174447, -187500.02235174447, 0.17400000000000002, -0.018000000000000002, 0.996, 192.0, 5.0, 112.0, 255.0, 112.0, 31.0, 32.0, 0.0, 0.0, 0.0, 1.677618433347194E9, 0.0, 2023-02-28 16:07:13.347
215.0, 6877.02827179769, 187500.0, 187500.0, 187500.0, -187500.02235174447, -187500.02235174447, -187500.02235174447, -187500.02235174447, 0.17400000000000002, -0.018000000000000002, 0.996, 192.0, 0.0, 0.0, 0.0, 0.0, 0.0, 0.0, 0.0, 0.0, 0.0, 1.677618433354231E9, 0.0, 2023-02-28 16:07:13.354
216.0, 6325.946012252094, 187500.0, 187500.0, 187500.0, -187500.02235174447, -187500.02235174447, -187500.02235174447, -187500.02235174447, 0.17400000000000002, -0.018000000000000002, 0.996, 192.0, 0.0, 0.0, 0.0, 0.0, 0.0, 0.0, 0.0, 0.0, 0.0, 1.677618433354247E9, 0.0, 2023-02-28 16:07:13.354
217.0, 6543.383782313322, 187500.0, 187500.0, 187500.0, -187500.02235174447, -187500.02235174447, -187500.02235174447, -187500.02235174447, 0.17400000000000002, -0.018000000000000002, 0.996, 192.0, 0.0, 0.0, 0.0, 0.0, 0.0, 0.0, 0.0, 0.0, 0.0, 1.677618433360743E9, 0.0, 2023-02-28 16:07:13.360
218.0, 7347.756010026456, 187500.0, 187500.0, 187500.0, -187500.02235174447, -187500.02235174447, -187500.02235174447, -187500.02235174447, 0.17400000000000002, -0.018000000000000002, 0.996, 192.0, 0.0, 0.0, 0.0, 0.0, 0.0, 0.0, 0.0, 0.0, 0.0, 1.677618433368647E9, 0.0, 2023-02-28 16:07:13.368
219.0, 7085.5923993101605, 187500.0, 187500.0, 187500.0, -187500.02235174447, -187500.02235174447, -187500.02235174447, -187500.02235174447, 0.17400000000000002, -0.018000000000000002, 0.996, 192.0, 0.0, 0.0, 0.0, 0.0, 0.0, 0.0, 0.0, 0.0, 0.0, 1.677618433368667E9, 0.0, 2023-02-28 16:07:13.368
220.0, 6282.114241375237, 187500.0, 187500.0, 187500.0, -187500.02235174447, -187500.02235174447, -187500.02235174447, -187500.02235174447, 0.17400000000000002, -0.018000000000000002, 0.996, 192.0, 0.0, 0.0, 0.0, 0.0, 0.0, 0.0, 0.0, 0.0, 0.0, 1.677618433376673E9, 0.0, 2023-02-28 16:07:13.376
221.0, 6665.759583206128, 187500.0, 187500.0, 187500.0, -187500.02235174447, -187500.02235174447, -187500.02235174447, -187500.02235174447, 0.17400000000000002, -0.018000000000000002, 0.996, 192.0, 0.0, 0.0, 0.0, 0.0, 0.0, 0.0, 0.0, 0.0, 0.0, 1.677618433376698E9, 0.0, 2023-02-28 16:07:13.376
222.0, 7383.429394177127, 187500.0, 187500.0, 187500.0, -187500.02235174447, -187500.02235174447, -187500.02235174447, -187500.02235174447, 0.17400000000000002, -0.018000000000000002, 0.996, 192.0, 0.0, 0.0, 0.0, 0.0, 0.0, 0.0, 0.0, 0.0, 0.0, 1.67761843338383E9, 0.0, 2023-02-28 16:07:13.383
223.0, 7148.199635529475, 187500.0, 187500.0, 187500.0, -187500.02235174447, -187500.02235174447, -187500.02235174447, -187500.02235174447, 0.17400000000000002, -0.018000000000000002, 0.996, 192.0, 0.0, 0.0, 0.0, 0.0, 0.0, 0.0, 0.0, 0.0, 0.0, 1.677618433383842E9, 0.0, 2023-02-28 16:07:13.383
224.0, 6523.937764637204, 187500.0, 187500.0, 187500.0, -187500.02235174447, -187500.02235174447, -187500.02235174447, -187500.02235174447, 0.176, -0.014, 1.0, 192.0, 5.0, 128.0, 255.0, 144.0, 31.0, 64.0, 0.0, 0.0, 0.0, 1.677618433391361E9, 0.0, 2023-02-28 16:07:13.391
225.0, 6662.943263404759, 187500.0, 187500.0, 187500.0, -187500.02235174447, -187500.02235174447, -187500.02235174447, -187500.02235174447, 0.176, -0.014, 1.0, 192.0, 0.0, 0.0, 0.0, 0.0, 0.0, 0.0, 0.0, 0.0, 0.0, 1.677618433391377E9, 0.0, 2023-02-28 16:07:13.391
226.0, 7149.786609385802, 187500.0, 187500.0, 187500.0, -187500.02235174447, -187500.02235174447, -187500.02235174447, -187500.02235174447, 0.176, -0.014, 1.0, 192.0, 0.0, 0.0, 0.0, 0.0, 0.0, 0.0, 0.0, 0.0, 0.0, 1.677618433399291E9, 0.0, 2023-02-28 16:07:13.399
227.0, 7300.68323620358, 187500.0, 187500.0, 187500.0, -187500.02235174447, -187500.02235174447, -187500.02235174447, -187500.02235174447, 0.176, -0.014, 1.0, 192.0, 0.0, 0.0, 0.0, 0.0, 0.0, 0.0, 0.0, 0.0, 0.0, 1.677618433399305E9, 0.0, 2023-02-28 16:07:13.399
228.0, 6481.894133316771, 187500.0, 187500.0, 187500.0, -187500.02235174447, -187500.02235174447, -187500.02235174447, -187500.02235174447, 0.176, -0.014, 1.0, 192.0, 0.0, 0.0, 0.0, 0.0, 0.0, 0.0, 0.0, 0.0, 0.0, 1.677618433407383E9, 0.0, 2023-02-28 16:07:13.407
229.0, 6277.420375039623, 187500.0, 187500.0, 187500.0, -187500.02235174447, -187500.02235174447, -187500.02235174447, -187500.02235174447, 0.176, -0.014, 1.0, 192.0, 0.0, 0.0, 0.0, 0.0, 0.0, 0.0, 0.0, 0.0, 0.0, 1.677618433407398E9, 0.0, 2023-02-28 16:07:13.407
230.0, 7302.806651926834, 187500.0, 187500.0, 187500.0, -187500.02235174447, -187500.02235174447, -187500.02235174447, -187500.02235174447, 0.176, -0.014, 1.0, 192.0, 0.0, 0.0, 0.0, 0.0, 0.0, 0.0, 0.0, 0.0, 0.0, 1.67761843341399E9, 0.0, 2023-02-28 16:07:13.413
231.0, 7641.055600768996, 187500.0, 187500.0, 187500.0, -187500.02235174447, -187500.02235174447, -187500.02235174447, -187500.02235174447, 0.176, -0.014, 1.0, 192.0, 0.0, 0.0, 0.0, 0.0, 0.0, 0.0, 0.0, 0.0, 0.0, 1.677618433414019E9, 0.0, 2023-02-28 16:07:13.414
232.0, 6882.6162079115165, 187500.0, 187500.0, 187500.0, -187500.02235174447, -187500.02235174447, -187500.02235174447, -187500.02235174447, 0.176, -0.014, 1.0, 192.0, 0.0, 0.0, 0.0, 0.0, 0.0, 0.0, 0.0, 0.0, 0.0, 1.677618433421826E9, 0.0, 2023-02-28 16:07:13.421
233.0, 6678.924760690304, 187500.0, 187500.0, 187500.0, -187500.02235174447, -187500.02235174447, -187500.02235174447, -187500.02235174447, 0.176, -0.014, 1.0, 192.0, 0.0, 0.0, 0.0, 0.0, 0.0, 0.0, 0.0, 0.0, 0.0, 1.677618433428925E9, 0.0, 2023-02-28 16:07:13.428
234.0, 6764.710755909772, 187500.0, 187500.0, 187500.0, -187500.02235174447, -187500.02235174447, -187500.02235174447, -187500.02235174447, 0.176, -0.02, 0.998, 192.0, 5.0, 128.0, 255.0, 96.0, 31.0, 48.0, 0.0, 0.0, 0.0, 1.677618433428942E9, 0.0, 2023-02-28 16:07:13.428
235.0, 7405.17764153214, 187500.0, 187500.0, 187500.0, -187500.02235174447, -187500.02235174447, -187500.02235174447, -187500.02235174447, 0.176, -0.02, 0.998, 192.0, 0.0, 0.0, 0.0, 0.0, 0.0, 0.0, 0.0, 0.0, 0.0, 1.677618433437079E9, 0.0, 2023-02-28 16:07:13.437
236.0, 6928.4596357893515, 187500.0, 187500.0, 187500.0, -187500.02235174447, -187500.02235174447, -187500.02235174447, -187500.02235174447, 0.176, -0.02, 0.998, 192.0, 0.0, 0.0, 0.0, 0.0, 0.0, 0.0, 0.0, 0.0, 0.0, 1.677618433437103E9, 0.0, 2023-02-28 16:07:13.437
237.0, 6395.348178785823, 187500.0, 187500.0, 187500.0, -187500.02235174447, -187500.02235174447, -187500.02235174447, -187500.02235174447, 0.176, -0.02, 0.998, 192.0, 0.0, 0.0, 0.0, 0.0, 0.0, 0.0, 0.0, 0.0, 0.0, 1.677618433443596E9, 0.0, 2023-02-28 16:07:13.443
238.0, 7267.848523598734, 187500.0, 187500.0, 187500.0, -187500.02235174447, -187500.02235174447, -187500.02235174447, -187500.02235174447, 0.176, -0.02, 0.998, 192.0, 0.0, 0.0, 0.0, 0.0, 0.0, 0.0, 0.0, 0.0, 0.0, 1.67761843344362E9, 0.0, 2023-02-28 16:07:13.443
239.0, 7723.041799431062, 187500.0, 187500.0, 187500.0, -187500.02235174447, -187500.02235174447, -187500.02235174447, -187500.02235174447, 0.176, -0.02, 0.998, 192.0, 0.0, 0.0, 0.0, 0.0, 0.0, 0.0, 0.0, 0.0, 0.0, 1.677618433451423E9, 0.0, 2023-02-28 16:07:13.451
240.0, 7017.307819999197, 187500.0, 187500.0, 187500.0, -187500.02235174447, -187500.02235174447, -187500.02235174447, -187500.02235174447, 0.176, -0.02, 0.998, 192.0, 0.0, 0.0, 0.0, 0.0, 0.0, 0.0, 0.0, 0.0, 0.0, 1.677618433451434E9, 0.0, 2023-02-28 16:07:13.451
241.0, 6193.8472025212295, 187500.0, 187500.0, 187500.0, -187500.02235174447, -187500.02235174447, -187500.02235174447, -187500.02235174447, 0.176, -0.02, 0.998, 192.0, 0.0, 0.0, 0.0, 0.0, 0.0, 0.0, 0.0, 0.0, 0.0, 1.67761843345963E9, 0.0, 2023-02-28 16:07:13.459
242.0, 6641.843216638949, 187500.0, 187500.0, 187500.0, -187500.02235174447, -187500.02235174447, -187500.02235174447, -187500.02235174447, 0.176, -0.02, 0.998, 192.0, 0.0, 0.0, 0.0, 0.0, 0.0, 0.0, 0.0, 0.0, 0.0, 1.67761843345965E9, 0.0, 2023-02-28 16:07:13.459
243.0, 7576.526114526524, 187500.0, 187500.0, 187500.0, -187500.02235174447, -187500.02235174447, -187500.02235174447, -187500.02235174447, 0.17400000000000002, -0.022, 0.998, 192.0, 5.0, 112.0, 255.0, 80.0, 31.0, 48.0, 0.0, 0.0, 0.0, 1.677618433466717E9, 0.0, 2023-02-28 16:07:13.466
244.0, 7633.634821609834, 187500.0, 187500.0, 187500.0, -187500.02235174447, -187500.02235174447, -187500.02235174447, -187500.02235174447, 0.17400000000000002, -0.022, 0.998, 192.0, 0.0, 0.0, 0.0, 0.0, 0.0, 0.0, 0.0, 0.0, 0.0, 1.677618433466732E9, 0.0, 2023-02-28 16:07:13.466
245.0, 6473.04284251247, 187500.0, 187500.0, 187500.0, -187500.02235174447, -187500.02235174447, -187500.02235174447, -187500.02235174447, 0.17400000000000002, -0.022, 0.998, 192.0, 0.0, 0.0, 0.0, 0.0, 0.0, 0.0, 0.0, 0.0, 0.0, 1.677618433474268E9, 0.0, 2023-02-28 16:07:13.474
246.0, 6530.464474018154, 187500.0, 187500.0, 187500.0, -187500.02235174447, -187500.02235174447, -187500.02235174447, -187500.02235174447, 0.17400000000000002, -0.022, 0.998, 192.0, 0.0, 0.0, 0.0, 0.0, 0.0, 0.0, 0.0, 0.0, 0.0, 1.677618433474287E9, 0.0, 2023-02-28 16:07:13.474
247.0, 7488.415537883704, 187500.0, 187500.0, 187500.0, -187500.02235174447, -187500.02235174447, -187500.02235174447, -187500.02235174447, 0.17400000000000002, -0.022, 0.998, 192.0, 0.0, 0.0, 0.0, 0.0, 0.0, 0.0, 0.0, 0.0, 0.0, 1.677618433481115E9, 0.0, 2023-02-28 16:07:13.481
248.0, 7690.005921126119, 187500.0, 187500.0, 187500.0, -187500.02235174447, -187500.02235174447, -187500.02235174447, -187500.02235174447, 0.17400000000000002, -0.022, 0.998, 192.0, 0.0, 0.0, 0.0, 0.0, 0.0, 0.0, 0.0, 0.0, 0.0, 1.677618433481131E9, 0.0, 2023-02-28 16:07:13.481
249.0, 6480.776546094006, 187500.0, 187500.0, 187500.0, -187500.02235174447, -187500.02235174447, -187500.02235174447, -187500.02235174447, 0.17400000000000002, -0.022, 0.998, 192.0, 0.0, 0.0, 0.0, 0.0, 0.0, 0.0, 0.0, 0.0, 0.0, 1.6776184334894E9, 0.0, 2023-02-28 16:07:13.489
250.0, 6717.123891964423, 187500.0, 187500.0, 187500.0, -187500.02235174447, -187500.02235174447, -187500.02235174447, -187500.02235174447, 0.17400000000000002, -0.022, 0.998, 192.0, 0.0, 0.0, 0.0, 0.0, 0.0, 0.0, 0.0, 0.0, 0.0, 1.677618433496007E9, 0.0, 2023-02-28 16:07:13.496
251.0, 7812.471128996745, 187500.0, 187500.0, 187500.0, -187500.02235174447, -187500.02235174447, -187500.02235174447, -187500.02235174447, 0.17400000000000002, -0.022, 0.998, 192.0, 0.0, 0.0, 0.0, 0.0, 0.0, 0.0, 0.0, 0.0, 0.0, 1.677618433496039E9, 0.0, 2023-02-28 16:07:13.496
252.0, 7488.929628006176, 187500.0, 187500.0, 187500.0, -187500.02235174447, -187500.02235174447, -187500.02235174447, -187500.02235174447, 0.17400000000000002, -0.022, 0.998, 192.0, 0.0, 0.0, 0.0, 0.0, 0.0, 0.0, 0.0, 0.0, 0.0, 1.677618433503853E9, 0.0, 2023-02-28 16:07:13.503
253.0, 6852.843684297048, 187500.0, 187500.0, 187500.0, -187500.02235174447, -187500.02235174447, -187500.02235174447, -187500.02235174447, 0.17400000000000002, -0.02, 0.996, 192.0, 5.0, 112.0, 255.0, 96.0, 31.0, 32.0, 0.0, 0.0, 0.0, 1.677618433503878E9, 0.0, 2023-02-28 16:07:13.503
254.0, 6377.600893688309, 187500.0, 187500.0, 187500.0, -187500.02235174447, -187500.02235174447, -187500.02235174447, -187500.02235174447, 0.17400000000000002, -0.02, 0.996, 192.0, 0.0, 0.0, 0.0, 0.0, 0.0, 0.0, 0.0, 0.0, 0.0, 1.677618433511848E9, 0.0, 2023-02-28 16:07:13.511
255.0, 7064.559407777716, 187500.0, 187500.0, 187500.0, -187500.02235174447, -187500.02235174447, -187500.02235174447, -187500.02235174447, 0.17400000000000002, -0.02, 0.996, 192.0, 0.0, 0.0, 0.0, 0.0, 0.0, 0.0, 0.0, 0.0, 0.0, 1.677618433511866E9, 0.0, 2023-02-28 16:07:13.511
0.0, 7820.853033167486, 187500.0, 187500.0, 187500.0, -187500.02235174447, -187500.02235174447, -187500.02235174447, -187500.02235174447, 0.17400000000000002, -0.02, 0.996, 192.0, 0.0, 0.0, 0.0, 0.0, 0.0, 0.0, 0.0, 0.0, 0.0, 1.677618433518934E9, 0.0, 2023-02-28 16:07:13.518
1.0, 7015.2738112537645, 187500.0, 187500.0, 187500.0, -187500.02235174447, -187500.02235174447, -187500.02235174447, -187500.02235174447, 0.17400000000000002, -0.02, 0.996, 192.0, 0.0, 0.0, 0.0, 0.0, 0.0, 0.0, 0.0, 0.0, 0.0, 1.677618433518945E9, 0.0, 2023-02-28 16:07:13.518
2.0, 6459.94472026166, 187500.0, 187500.0, 187500.0, -187500.02235174447, -187500.02235174447, -187500.02235174447, -187500.02235174447, 0.17400000000000002, -0.02, 0.996, 192.0, 0.0, 0.0, 0.0, 0.0, 0.0, 0.0, 0.0, 0.0, 0.0, 1.677618433526559E9, 0.0, 2023-02-28 16:07:13.526
3.0, 7105.016065241822, 187500.0, 187500.0, 187500.0, -187500.02235174447, -187500.02235174447, -187500.02235174447, -187500.02235174447, 0.17400000000000002, -0.02, 0.996, 192.0, 0.0, 0.0, 0.0, 0.0, 0.0, 0.0, 0.0, 0.0, 0.0, 1.677618433526579E9, 0.0, 2023-02-28 16:07:13.526
4.0, 7858.605129552499, 187500.0, 187500.0, 187500.0, -187500.02235174447, -187500.02235174447, -187500.02235174447, -187500.02235174447, 0.17400000000000002, -0.02, 0.996, 192.0, 0.0, 0.0, 0.0, 0.0, 0.0, 0.0, 0.0, 0.0, 0.0, 1.677618433534531E9, 0.0, 2023-02-28 16:07:13.534
5.0, 7263.15465726312, 187500.0, 187500.0, 187500.0, -187500.02235174447, -187500.02235174447, -187500.02235174447, -187500.02235174447, 0.17400000000000002, -0.02, 0.996, 192.0, 0.0, 0.0, 0.0, 0.0, 0.0, 0.0, 0.0, 0.0, 0.0, 1.677618433534552E9, 0.0, 2023-02-28 16:07:13.534
6.0, 6248.184293292081, 187500.0, 187500.0, 187500.0, -187500.02235174447, -187500.02235174447, -187500.02235174447, -187500.02235174447, 0.17400000000000002, -0.02, 0.996, 192.0, 0.0, 0.0, 0.0, 0.0, 0.0, 0.0, 0.0, 0.0, 0.0, 1.67761843354253E9, 0.0, 2023-02-28 16:07:13.542
7.0, 6982.796726560203, 187500.0, 187500.0, 187500.0, -187500.02235174447, -187500.02235174447, -187500.02235174447, -187500.02235174447, 0.17400000000000002, -0.02, 0.994, 192.0, 5.0, 112.0, 255.0, 96.0, 31.0, 16.0, 0.0, 0.0, 0.0, 1.677618433542553E9, 0.0, 2023-02-28 16:07:13.542
8.0, 7937.573842713099, 187500.0, 187500.0, 187500.0, -187500.02235174447, -187500.02235174447, -187500.02235174447, -187500.02235174447, 0.17400000000000002, -0.02, 0.994, 192.0, 0.0, 0.0, 0.0, 0.0, 0.0, 0.0, 0.0, 0.0, 0.0, 1.677618433548929E9, 0.0, 2023-02-28 16:07:13.548
9.0, 7603.83994625091, 187500.0, 187500.0, 187500.0, -187500.02235174447, -187500.02235174447, -187500.02235174447, -187500.02235174447, 0.17400000000000002, -0.02, 0.994, 192.0, 0.0, 0.0, 0.0, 0.0, 0.0, 0.0, 0.0, 0.0, 0.0, 1.677618433556126E9, 0.0, 2023-02-28 16:07:13.556
10.0, 6621.2349082511555, 187500.0, 187500.0, 187500.0, -187500.02235174447, -187500.02235174447, -187500.02235174447, -187500.02235174447, 0.17400000000000002, -0.02, 0.994, 192.0, 0.0, 0.0, 0.0, 0.0, 0.0, 0.0, 0.0, 0.0, 0.0, 1.677618433556139E9, 0.0, 2023-02-28 16:07:13.556
11.0, 6782.279227051643, 187500.0, 187500.0, 187500.0, -187500.02235174447, -187500.02235174447, -187500.02235174447, -187500.02235174447, 0.17400000000000002, -0.02, 0.994, 192.0, 0.0, 0.0, 0.0, 0.0, 0.0, 0.0, 0.0, 0.0, 0.0, 1.677618433564173E9, 0.0, 2023-02-28 16:07:13.564
12.0, 7638.909833301286, 187500.0, 187500.0, 187500.0, -187500.02235174447, -187500.02235174447, -187500.02235174447, -187500.02235174447, 0.17400000000000002, -0.02, 0.994, 192.0, 0.0, 0.0, 0.0, 0.0, 0.0, 0.0, 0.0, 0.0, 0.0, 1.677618433564193E9, 0.0, 2023-02-28 16:07:13.564
13.0, 7410.98909509052, 187500.0, 187500.0, 187500.0, -187500.02235174447, -187500.02235174447, -187500.02235174447, -187500.02235174447, 0.17400000000000002, -0.02, 0.994, 192.0, 0.0, 0.0, 0.0, 0.0, 0.0, 0.0, 0.0, 0.0, 0.0, 1.677618433572244E9, 0.0, 2023-02-28 16:07:13.572
14.0, 6598.63729460684, 187500.0, 187500.0, 187500.0, -187500.02235174447, -187500.02235174447, -187500.02235174447, -187500.02235174447, 0.17400000000000002, -0.02, 0.994, 192.0, 0.0, 0.0, 0.0, 0.0, 0.0, 0.0, 0.0, 0.0, 0.0, 1.677618433572266E9, 0.0, 2023-02-28 16:07:13.572
15.0, 6818.019666435679, 187500.0, 187500.0, 187500.0, -187500.02235174447, -187500.02235174447, -187500.02235174447, -187500.02235174447, 0.17400000000000002, -0.02, 0.994, 192.0, 0.0, 0.0, 0.0, 0.0, 0.0, 0.0, 0.0, 0.0, 0.0, 1.677618433578755E9, 0.0, 2023-02-28 16:07:13.578
16.0, 7869.468077357778, 187500.0, 187500.0, 187500.0, -187500.02235174447, -187500.02235174447, -187500.02235174447, -187500.02235174447, 0.17400000000000002, -0.02, 0.994, 192.0, 0.0, 0.0, 0.0, 0.0, 0.0, 0.0, 0.0, 0.0, 0.0, 1.677618433578818E9, 0.0, 2023-02-28 16:07:13.578
17.0, 7856.727583018253, 187500.0, 187500.0, 187500.0, -187500.02235174447, -187500.02235174447, -187500.02235174447, -187500.02235174447, 0.176, -0.024, 0.994, 192.0, 5.0, 128.0, 255.0, 64.0, 31.0, 16.0, 0.0, 0.0, 0.0, 1.677618433586675E9, 0.0, 2023-02-28 16:07:13.586
18.0, 6751.81379935906, 187500.0, 187500.0, 187500.0, -187500.02235174447, -187500.02235174447, -187500.02235174447, -187500.02235174447, 0.176, -0.024, 0.994, 192.0, 0.0, 0.0, 0.0, 0.0, 0.0, 0.0, 0.0, 0.0, 0.0, 1.677618433586698E9, 0.0, 2023-02-28 16:07:13.586
19.0, 6587.751995057106, 187500.0, 187500.0, 187500.0, -187500.02235174447, -187500.02235174447, -187500.02235174447, -187500.02235174447, 0.176, -0.024, 0.994, 192.0, 0.0, 0.0, 0.0, 0.0, 0.0, 0.0, 0.0, 0.0, 0.0, 1.677618433594907E9, 0.0, 2023-02-28 16:07:13.594
20.0, 7466.488476573048, 187500.0, 187500.0, 187500.0, -187500.02235174447, -187500.02235174447, -187500.02235174447, -187500.02235174447, 0.176, -0.024, 0.994, 192.0, 0.0, 0.0, 0.0, 0.0, 0.0, 0.0, 0.0, 0.0, 0.0, 1.677618433594918E9, 0.0, 2023-02-28 16:07:13.594
21.0, 8069.225617554858, 187500.0, 187500.0, 187500.0, -187500.02235174447, -187500.02235174447, -187500.02235174447, -187500.02235174447, 0.176, -0.024, 0.994, 192.0, 0.0, 0.0, 0.0, 0.0, 0.0, 0.0, 0.0, 0.0, 0.0, 1.677618433601993E9, 0.0, 2023-02-28 16:07:13.601
22.0, 7056.0657448847, 187500.0, 187500.0, 187500.0, -187500.02235174447, -187500.02235174447, -187500.02235174447, -187500.02235174447, 0.176, -0.024, 0.994, 192.0, 0.0, 0.0, 0.0, 0.0, 0.0, 0.0, 0.0, 0.0, 0.0, 1.677618433602053E9, 0.0, 2023-02-28 16:07:13.602
23.0, 6357.26080623398, 187500.0, 187500.0, 187500.0, -187500.02235174447, -187500.02235174447, -187500.02235174447, -187500.02235174447, 0.176, -0.024, 0.994, 192.0, 0.0, 0.0, 0.0, 0.0, 0.0, 0.0, 0.0, 0.0, 0.0, 1.677618433608361E9, 0.0, 2023-02-28 16:07:13.608
24.0, 7431.597403478313, 187500.0, 187500.0, 187500.0, -187500.02235174447, -187500.02235174447, -187500.02235174447, -187500.02235174447, 0.176, -0.024, 0.994, 192.0, 0.0, 0.0, 0.0, 0.0, 0.0, 0.0, 0.0, 0.0, 0.0, 1.677618433616432E9, 0.0, 2023-02-28 16:07:13.616
25.0, 7815.712131942765, 187500.0, 187500.0, 187500.0, -187500.02235174447, -187500.02235174447, -187500.02235174447, -187500.02235174447, 0.176, -0.024, 0.994, 192.0, 0.0, 0.0, 0.0, 0.0, 0.0, 0.0, 0.0, 0.0, 0.0, 1.677618433616448E9, 0.0, 2023-02-28 16:07:13.616
26.0, 7352.695745551079, 187500.0, 187500.0, 187500.0, -187500.02235174447, -187500.02235174447, -187500.02235174447, -187500.02235174447, 0.176, -0.024, 0.994, 192.0, 0.0, 0.0, 0.0, 0.0, 0.0, 0.0, 0.0, 0.0, 0.0, 1.677618433624579E9, 0.0, 2023-02-28 16:07:13.624
27.0, 6629.281536255066, 187500.0, 187500.0, 187500.0, -187500.02235174447, -187500.02235174447, -187500.02235174447, -187500.02235174447, 0.17200000000000001, -0.024, 0.994, 192.0, 5.0, 96.0, 255.0, 64.0, 31.0, 16.0, 0.0, 0.0, 0.0, 1.677618433624635E9, 0.0, 2023-02-28 16:07:13.624
28.0, 7310.8756316752, 187500.0, 187500.0, 187500.0, -187500.02235174447, -187500.02235174447, -187500.02235174447, -187500.02235174447, 0.17200000000000001, -0.024, 0.994, 192.0, 0.0, 0.0, 0.0, 0.0, 0.0, 0.0, 0.0, 0.0, 0.0, 1.677618433631541E9, 0.0, 2023-02-28 16:07:13.631
29.0, 8166.768630357818, 187500.0, 187500.0, 187500.0, -187500.02235174447, -187500.02235174447, -187500.02235174447, -187500.02235174447, 0.17200000000000001, -0.024, 0.994, 192.0, 0.0, 0.0, 0.0, 0.0, 0.0, 0.0, 0.0, 0.0, 0.0, 1.677618433631561E9, 0.0, 2023-02-28 16:07:13.631
30.0, 7287.652169186136, 187500.0, 187500.0, 187500.0, -187500.02235174447, -187500.02235174447, -187500.02235174447, -187500.02235174447, 0.17200000000000001, -0.024, 0.994, 192.0, 0.0, 0.0, 0.0, 0.0, 0.0, 0.0, 0.0, 0.0, 0.0, 1.677618433639094E9, 0.0, 2023-02-28 16:07:13.639
31.0, 6484.062252528936, 187500.0, 187500.0, 187500.0, -187500.02235174447, -187500.02235174447, -187500.02235174447, -187500.02235174447, 0.17200000000000001, -0.024, 0.994, 192.0, 0.0, 0.0, 0.0, 0.0, 0.0, 0.0, 0.0, 0.0, 0.0, 1.677618433639115E9, 0.0, 2023-02-28 16:07:13.639
32.0, 7009.372950717563, 187500.0, 187500.0, 187500.0, -187500.02235174447, -187500.02235174447, -187500.02235174447, -187500.02235174447, 0.17200000000000001, -0.024, 0.994, 192.0, 0.0, 0.0, 0.0, 0.0, 0.0, 0.0, 0.0, 0.0, 0.0, 1.677618433647087E9, 0.0, 2023-02-28 16:07:13.647
33.0, 7832.610050750977, 187500.0, 187500.0, 187500.0, -187500.02235174447, -187500.02235174447, -187500.02235174447, -187500.02235174447, 0.17200000000000001, -0.024, 0.994, 192.0, 0.0, 0.0, 0.0, 0.0, 0.0, 0.0, 0.0, 0.0, 0.0, 1.677618433647109E9, 0.0, 2023-02-28 16:07:13.647
34.0, 7420.063903339375, 187500.0, 187500.0, 187500.0, -187500.02235174447, -187500.02235174447, -187500.02235174447, -187500.02235174447, 0.17200000000000001, -0.024, 0.994, 192.0, 0.0, 0.0, 0.0, 0.0, 0.0, 0.0, 0.0, 0.0, 0.0, 1.677618433655102E9, 0.0, 2023-02-28 16:07:13.655
35.0, 6647.364097519409, 187500.0, 187500.0, 187500.0, -187500.02235174447, -187500.02235174447, -187500.02235174447, -187500.02235174447, 0.17200000000000001, -0.024, 0.994, 192.0, 0.0, 0.0, 0.0, 0.0, 0.0, 0.0, 0.0, 0.0, 0.0, 1.677618433655113E9, 0.0, 2023-02-28 16:07:13.655
36.0, 7180.743775456403, 187500.0, 187500.0, 187500.0, -187500.02235174447, -187500.02235174447, -187500.02235174447, -187500.02235174447, 0.17200000000000001, -0.024, 0.996, 192.0, 5.0, 96.0, 255.0, 64.0, 31.0, 32.0, 0.0, 0.0, 0.0, 1.677618433661768E9, 0.0, 2023-02-28 16:07:13.661
37.0, 8015.603782606577, 187500.0, 187500.0, 187500.0, -187500.02235174447, -187500.02235174447, -187500.02235174447, -187500.02235174447, 0.17200000000000001, -0.024, 0.996, 192.0, 0.0, 0.0, 0.0, 0.0, 0.0, 0.0, 0.0, 0.0, 0.0, 1.677618433661789E9, 0.0, 2023-02-28 16:07:13.661
38.0, 7760.592730115978, 187500.0, 187500.0, 187500.0, -187500.02235174447, -187500.02235174447, -187500.02235174447, -187500.02235174447, 0.17200000000000001, -0.024, 0.996, 192.0, 0.0, 0.0, 0.0, 0.0, 0.0, 0.0, 0.0, 0.0, 0.0, 1.677618433668876E9, 0.0, 2023-02-28 16:07:13.668
39.0, 6662.295062815555, 187500.0, 187500.0, 187500.0, -187500.02235174447, -187500.02235174447, -187500.02235174447, -187500.02235174447, 0.17200000000000001, -0.024, 0.996, 192.0, 0.0, 0.0, 0.0, 0.0, 0.0, 0.0, 0.0, 0.0, 0.0, 1.677618433676701E9, 0.0, 2023-02-28 16:07:13.676
40.0, 6747.745781868194, 187500.0, 187500.0, 187500.0, -187500.02235174447, -187500.02235174447, -187500.02235174447, -187500.02235174447, 0.17200000000000001, -0.024, 0.996, 192.0, 0.0, 0.0, 0.0, 0.0, 0.0, 0.0, 0.0, 0.0, 0.0, 1.67761843367672E9, 0.0, 2023-02-28 16:07:13.676
41.0, 7772.148581999372, 187500.0, 187500.0, 187500.0, -187500.02235174447, -187500.02235174447, -187500.02235174447, -187500.02235174447, 0.17200000000000001, -0.024, 0.996, 192.0, 0.0, 0.0, 0.0, 0.0, 0.0, 0.0, 0.0, 0.0, 0.0, 1.677618433683652E9, 0.0, 2023-02-28 16:07:13.683
42.0, 7886.790679310642, 187500.0, 187500.0, 187500.0, -187500.02235174447, -187500.02235174447, -187500.02235174447, -187500.02235174447, 0.17200000000000001, -0.024, 0.996, 192.0, 0.0, 0.0, 0.0, 0.0, 0.0, 0.0, 0.0, 0.0, 0.0, 1.677618433683729E9, 0.0, 2023-02-28 16:07:13.683
43.0, 7008.925915828457, 187500.0, 187500.0, 187500.0, -187500.02235174447, -187500.02235174447, -187500.02235174447, -187500.02235174447, 0.17200000000000001, -0.024, 0.996, 192.0, 0.0, 0.0, 0.0, 0.0, 0.0, 0.0, 0.0, 0.0, 0.0, 1.677618433691596E9, 0.0, 2023-02-28 16:07:13.691
44.0, 6921.530595008207, 187500.0, 187500.0, 187500.0, -187500.02235174447, -187500.02235174447, -187500.02235174447, -187500.02235174447, 0.17200000000000001, -0.024, 0.996, 192.0, 0.0, 0.0, 0.0, 0.0, 0.0, 0.0, 0.0, 0.0, 0.0, 1.677618433691613E9, 0.0, 2023-02-28 16:07:13.691
45.0, 7586.696158253689, 187500.0, 187500.0, 187500.0, -187500.02235174447, -187500.02235174447, -187500.02235174447, -187500.02235174447, 0.17200000000000001, -0.024, 0.996, 192.0, 0.0, 0.0, 0.0, 0.0, 0.0, 0.0, 0.0, 0.0, 0.0, 1.677618433699303E9, 0.0, 2023-02-28 16:07:13.699
46.0, 7743.359535140937, 187500.0, 187500.0, 187500.0, -187500.02235174447, -187500.02235174447, -187500.02235174447, -187500.02235174447, 0.176, -0.022, 0.998, 192.0, 5.0, 128.0, 255.0, 80.0, 31.0, 48.0, 0.0, 0.0, 0.0, 1.677618433699338E9, 0.0, 2023-02-28 16:07:13.699
47.0, 7142.276423248819, 187500.0, 187500.0, 187500.0, -187500.02235174447, -187500.02235174447, -187500.02235174447, -187500.02235174447, 0.176, -0.022, 0.998, 192.0, 0.0, 0.0, 0.0, 0.0, 0.0, 0.0, 0.0, 0.0, 0.0, 1.677618433707244E9, 0.0, 2023-02-28 16:07:13.707
48.0, 6710.418368627831, 187500.0, 187500.0, 187500.0, -187500.02235174447, -187500.02235174447, -187500.02235174447, -187500.02235174447, 0.176, -0.022, 0.998, 192.0, 0.0, 0.0, 0.0, 0.0, 0.0, 0.0, 0.0, 0.0, 0.0, 1.677618433707308E9, 0.0, 2023-02-28 16:07:13.707
49.0, 7383.4964494104925, 187500.0, 187500.0, 187500.0, -187500.02235174447, -187500.02235174447, -187500.02235174447, -187500.02235174447, 0.176, -0.022, 0.998, 192.0, 0.0, 0.0, 0.0, 0.0, 0.0, 0.0, 0.0, 0.0, 0.0, 1.677618433713967E9, 0.0, 2023-02-28 16:07:13.713
50.0, 8429.647496896685, 187500.0, 187500.0, 187500.0, -187500.02235174447, -187500.02235174447, -187500.02235174447, -187500.02235174447, 0.176, -0.022, 0.998, 192.0, 0.0, 0.0, 0.0, 0.0, 0.0, 0.0, 0.0, 0.0, 0.0, 1.677618433713988E9, 0.0, 2023-02-28 16:07:13.713
51.0, 7472.746965020534, 187500.0, 187500.0, 187500.0, -187500.02235174447, -187500.02235174447, -187500.02235174447, -187500.02235174447, 0.176, -0.022, 0.998, 192.0, 0.0, 0.0, 0.0, 0.0, 0.0, 0.0, 0.0, 0.0, 0.0, 1.677618433722028E9, 0.0, 2023-02-28 16:07:13.722
52.0, 6695.1968306537665, 187500.0, 187500.0, 187500.0, -187500.02235174447, -187500.02235174447, -187500.02235174447, -187500.02235174447, 0.176, -0.022, 0.998, 192.0, 0.0, 0.0, 0.0, 0.0, 0.0, 0.0, 0.0, 0.0, 0.0, 1.677618433722042E9, 0.0, 2023-02-28 16:07:13.722
53.0, 7367.090268980297, 187500.0, 187500.0, 187500.0, -187500.02235174447, -187500.02235174447, -187500.02235174447, -187500.02235174447, 0.176, -0.022, 0.998, 192.0, 0.0, 0.0, 0.0, 0.0, 0.0, 0.0, 0.0, 0.0, 0.0, 1.677618433728926E9, 0.0, 2023-02-28 16:07:13.728
54.0, 7720.024313929595, 187500.0, 187500.0, 187500.0, -187500.02235174447, -187500.02235174447, -187500.02235174447, -187500.02235174447, 0.176, -0.022, 0.998, 192.0, 0.0, 0.0, 0.0, 0.0, 0.0, 0.0, 0.0, 0.0, 0.0, 1.677618433728945E9, 0.0, 2023-02-28 16:07:13.728
55.0, 7572.078117379919, 187500.0, 187500.0, 187500.0, -187500.02235174447, -187500.02235174447, -187500.02235174447, -187500.02235174447, 0.176, -0.022, 0.998, 192.0, 0.0, 0.0, 0.0, 0.0, 0.0, 0.0, 0.0, 0.0, 0.0, 1.677618433737093E9, 0.0, 2023-02-28 16:07:13.737
56.0, 6735.899357306881, 187500.0, 187500.0, 187500.0, -187500.02235174447, -187500.02235174447, -187500.02235174447, -187500.02235174447, 0.17200000000000001, -0.02, 1.0, 192.0, 5.0, 96.0, 255.0, 96.0, 31.0, 64.0, 0.0, 0.0, 0.0, 1.677618433743562E9, 0.0, 2023-02-28 16:07:13.743
57.0, 6911.785234425693, 187500.0, 187500.0, 187500.0, -187500.02235174447, -187500.02235174447, -187500.02235174447, -187500.02235174447, 0.17200000000000001, -0.02, 1.0, 192.0, 0.0, 0.0, 0.0, 0.0, 0.0, 0.0, 0.0, 0.0, 0.0, 1.677618433743603E9, 0.0, 2023-02-28 16:07:13.743
58.0, 7865.310652889091, 187500.0, 187500.0, 187500.0, -187500.02235174447, -187500.02235174447, -187500.02235174447, -187500.02235174447, 0.17200000000000001, -0.02, 1.0, 192.0, 0.0, 0.0, 0.0, 0.0, 0.0, 0.0, 0.0, 0.0, 0.0, 1.677618433751735E9, 0.0, 2023-02-28 16:07:13.751
59.0, 7614.5911353339125, 187500.0, 187500.0, 187500.0, -187500.02235174447, -187500.02235174447, -187500.02235174447, -187500.02235174447, 0.17200000000000001, -0.02, 1.0, 192.0, 0.0, 0.0, 0.0, 0.0, 0.0, 0.0, 0.0, 0.0, 0.0, 1.677618433751755E9, 0.0, 2023-02-28 16:07:13.751
60.0, 7001.348674458108, 187500.0, 187500.0, 187500.0, -187500.02235174447, -187500.02235174447, -187500.02235174447, -187500.02235174447, 0.17200000000000001, -0.02, 1.0, 192.0, 0.0, 0.0, 0.0, 0.0, 0.0, 0.0, 0.0, 0.0, 0.0, 1.677618433759533E9, 0.0, 2023-02-28 16:07:13.759
61.0, 7309.40041654115, 187500.0, 187500.0, 187500.0, -187500.02235174447, -187500.02235174447, -187500.02235174447, -187500.02235174447, 0.17200000000000001, -0.02, 1.0, 192.0, 0.0, 0.0, 0.0, 0.0, 0.0, 0.0, 0.0, 0.0, 0.0, 1.677618433759556E9, 0.0, 2023-02-28 16:07:13.759
62.0, 7685.222647812682, 187500.0, 187500.0, 187500.0, -187500.02235174447, -187500.02235174447, -187500.02235174447, -187500.02235174447, 0.17200000000000001, -0.02, 1.0, 192.0, 0.0, 0.0, 0.0, 0.0, 0.0, 0.0, 0.0, 0.0, 0.0, 1.677618433766888E9, 0.0, 2023-02-28 16:07:13.766
63.0, 7622.481301126636, 187500.0, 187500.0, 187500.0, -187500.02235174447, -187500.02235174447, -187500.02235174447, -187500.02235174447, 0.17200000000000001, -0.02, 1.0, 192.0, 0.0, 0.0, 0.0, 0.0, 0.0, 0.0, 0.0, 0.0, 0.0, 1.677618433766899E9, 0.0, 2023-02-28 16:07:13.766
64.0, 6932.862929447047, 187500.0, 187500.0, 187500.0, -187500.02235174447, -187500.02235174447, -187500.02235174447, -187500.02235174447, 0.17200000000000001, -0.02, 1.0, 192.0, 0.0, 0.0, 0.0, 0.0, 0.0, 0.0, 0.0, 0.0, 0.0, 1.677618433774298E9, 0.0, 2023-02-28 16:07:13.774
65.0, 7181.70490046798, 187500.0, 187500.0, 187500.0, -187500.02235174447, -187500.02235174447, -187500.02235174447, -187500.02235174447, 0.17200000000000001, -0.02, 1.0, 192.0, 0.0, 0.0, 0.0, 0.0, 0.0, 0.0, 0.0, 0.0, 0.0, 1.677618433774313E9, 0.0, 2023-02-28 16:07:13.774
66.0, 7865.265949400181, 187500.0, 187500.0, 187500.0, -187500.02235174447, -187500.02235174447, -187500.02235174447, -187500.02235174447, 0.17, -0.024, 0.994, 192.0, 5.0, 80.0, 255.0, 64.0, 31.0, 16.0, 0.0, 0.0, 0.0, 1.677618433782235E9, 0.0, 2023-02-28 16:07:13.782
67.0, 8008.764148803252, 187500.0, 187500.0, 187500.0, -187500.02235174447, -187500.02235174447, -187500.02235174447, -187500.02235174447, 0.17, -0.024, 0.994, 192.0, 0.0, 0.0, 0.0, 0.0, 0.0, 0.0, 0.0, 0.0, 0.0, 1.677618433782251E9, 0.0, 2023-02-28 16:07:13.782
68.0, 7226.609555078692, 187500.0, 187500.0, 187500.0, -187500.02235174447, -187500.02235174447, -187500.02235174447, -187500.02235174447, 0.17, -0.024, 0.994, 192.0, 0.0, 0.0, 0.0, 0.0, 0.0, 0.0, 0.0, 0.0, 0.0, 1.677618433790168E9, 0.0, 2023-02-28 16:07:13.790
69.0, 6744.90711032237, 187500.0, 187500.0, 187500.0, -187500.02235174447, -187500.02235174447, -187500.02235174447, -187500.02235174447, 0.17, -0.024, 0.994, 192.0, 0.0, 0.0, 0.0, 0.0, 0.0, 0.0, 0.0, 0.0, 0.0, 1.677618433790184E9, 0.0, 2023-02-28 16:07:13.790
70.0, 7560.857541663354, 187500.0, 187500.0, 187500.0, -187500.02235174447, -187500.02235174447, -187500.02235174447, -187500.02235174447, 0.17, -0.024, 0.994, 192.0, 0.0, 0.0, 0.0, 0.0, 0.0, 0.0, 0.0, 0.0, 0.0, 1.677618433796326E9, 0.0, 2023-02-28 16:07:13.796
71.0, 8423.545470660385, 187500.0, 187500.0, 187500.0, -187500.02235174447, -187500.02235174447, -187500.02235174447, -187500.02235174447, 0.17, -0.024, 0.994, 192.0, 0.0, 0.0, 0.0, 0.0, 0.0, 0.0, 0.0, 0.0, 0.0, 1.67761843380387E9, 0.0, 2023-02-28 16:07:13.803
72.0, 7257.589072893748, 187500.0, 187500.0, 187500.0, -187500.02235174447, -187500.02235174447, -187500.02235174447, -187500.02235174447, 0.17, -0.024, 0.994, 192.0, 0.0, 0.0, 0.0, 0.0, 0.0, 0.0, 0.0, 0.0, 0.0, 1.677618433803923E9, 0.0, 2023-02-28 16:07:13.803
73.0, 6500.736653892595, 187500.0, 187500.0, 187500.0, -187500.02235174447, -187500.02235174447, -187500.02235174447, -187500.02235174447, 0.17, -0.024, 0.994, 192.0, 0.0, 0.0, 0.0, 0.0, 0.0, 0.0, 0.0, 0.0, 0.0, 1.677618433811886E9, 0.0, 2023-02-28 16:07:13.811
74.0, 7310.361541552728, 187500.0, 187500.0, 187500.0, -187500.02235174447, -187500.02235174447, -187500.02235174447, -187500.02235174447, 0.17, -0.024, 0.994, 192.0, 0.0, 0.0, 0.0, 0.0, 0.0, 0.0, 0.0, 0.0, 0.0, 1.677618433811902E9, 0.0, 2023-02-28 16:07:13.811
75.0, 8108.743501751841, 187500.0, 187500.0, 187500.0, -187500.02235174447, -187500.02235174447, -187500.02235174447, -187500.02235174447, 0.17, -0.024, 0.994, 192.0, 0.0, 0.0, 0.0, 0.0, 0.0, 0.0, 0.0, 0.0, 0.0, 1.677618433818938E9, 0.0, 2023-02-28 16:07:13.818
76.0, 7483.565209336903, 187500.0, 187500.0, 187500.0, -187500.02235174447, -187500.02235174447, -187500.02235174447, -187500.02235174447, 0.17200000000000001, -0.022, 0.996, 192.0, 5.0, 96.0, 255.0, 80.0, 31.0, 32.0, 0.0, 0.0, 0.0, 1.67761843381896E9, 0.0, 2023-02-28 16:07:13.818
77.0, 6481.871781572317, 187500.0, 187500.0, 187500.0, -187500.02235174447, -187500.02235174447, -187500.02235174447, -187500.02235174447, 0.17200000000000001, -0.022, 0.996, 192.0, 0.0, 0.0, 0.0, 0.0, 0.0, 0.0, 0.0, 0.0, 0.0, 1.677618433826805E9, 0.0, 2023-02-28 16:07:13.826
78.0, 7342.16807391263, 187500.0, 187500.0, 187500.0, -187500.02235174447, -187500.02235174447, -187500.02235174447, -187500.02235174447, 0.17200000000000001, -0.022, 0.996, 192.0, 0.0, 0.0, 0.0, 0.0, 0.0, 0.0, 0.0, 0.0, 0.0, 1.67761843382682E9, 0.0, 2023-02-28 16:07:13.826
79.0, 8359.03833616237, 187500.0, 187500.0, 187500.0, -187500.02235174447, -187500.02235174447, -187500.02235174447, -187500.02235174447, 0.17200000000000001, -0.022, 0.996, 192.0, 0.0, 0.0, 0.0, 0.0, 0.0, 0.0, 0.0, 0.0, 0.0, 1.677618433834533E9, 0.0, 2023-02-28 16:07:13.834
80.0, 7731.177834412794, 187500.0, 187500.0, 187500.0, -187500.02235174447, -187500.02235174447, -187500.02235174447, -187500.02235174447, 0.17200000000000001, -0.022, 0.996, 192.0, 0.0, 0.0, 0.0, 0.0, 0.0, 0.0, 0.0, 0.0, 0.0, 1.677618433834553E9, 0.0, 2023-02-28 16:07:13.834
81.0, 7046.29803255773, 187500.0, 187500.0, 187500.0, -187500.02235174447, -187500.02235174447, -187500.02235174447, -187500.02235174447, 0.17200000000000001, -0.022, 0.996, 192.0, 0.0, 0.0, 0.0, 0.0, 0.0, 0.0, 0.0, 0.0, 0.0, 1.677618433842447E9, 0.0, 2023-02-28 16:07:13.842
82.0, 7574.626216247823, 187500.0, 187500.0, 187500.0, -187500.02235174447, -187500.02235174447, -187500.02235174447, -187500.02235174447, 0.17200000000000001, -0.022, 0.996, 192.0, 0.0, 0.0, 0.0, 0.0, 0.0, 0.0, 0.0, 0.0, 0.0, 1.677618433842466E9, 0.0, 2023-02-28 16:07:13.842
83.0, 7599.995446204597, 187500.0, 187500.0, 187500.0, -187500.02235174447, -187500.02235174447, -187500.02235174447, -187500.02235174447, 0.17200000000000001, -0.022, 0.996, 192.0, 0.0, 0.0, 0.0, 0.0, 0.0, 0.0, 0.0, 0.0, 0.0, 1.677618433849016E9, 0.0, 2023-02-28 16:07:13.849
84.0, 7530.258003504039, 187500.0, 187500.0, 187500.0, -187500.02235174447, -187500.02235174447, -187500.02235174447, -187500.02235174447, 0.17200000000000001, -0.022, 0.996, 192.0, 0.0, 0.0, 0.0, 0.0, 0.0, 0.0, 0.0, 0.0, 0.0, 1.677618433849035E9, 0.0, 2023-02-28 16:07:13.849
85.0, 7111.855699045146, 187500.0, 187500.0, 187500.0, -187500.02235174447, -187500.02235174447, -187500.02235174447, -187500.02235174447, 0.17200000000000001, -0.022, 0.996, 192.0, 0.0, 0.0, 0.0, 0.0, 0.0, 0.0, 0.0, 0.0, 0.0, 1.67761843385612E9, 0.0, 2023-02-28 16:07:13.856
86.0, 7095.851850015146, 187500.0, 187500.0, 187500.0, -187500.02235174447, -187500.02235174447, -187500.02235174447, -187500.02235174447, 0.176, -0.02, 0.992, 192.0, 5.0, 128.0, 255.0, 96.0, 31.0, 0.0, 0.0, 0.0, 0.0, 1.677618433864182E9, 0.0, 2023-02-28 16:07:13.864
87.0, 7820.182480833827, 187500.0, 187500.0, 187500.0, -187500.02235174447, -187500.02235174447, -187500.02235174447, -187500.02235174447, 0.176, -0.02, 0.992, 192.0, 0.0, 0.0, 0.0, 0.0, 0.0, 0.0, 0.0, 0.0, 0.0, 1.67761843386423E9, 0.0, 2023-02-28 16:07:13.864
88.0, 8069.4044315105, 187500.0, 187500.0, 187500.0, -187500.02235174447, -187500.02235174447, -187500.02235174447, -187500.02235174447, 0.176, -0.02, 0.992, 192.0, 0.0, 0.0, 0.0, 0.0, 0.0, 0.0, 0.0, 0.0, 0.0, 1.677618433872094E9, 0.0, 2023-02-28 16:07:13.872
89.0, 7189.840935449713, 187500.0, 187500.0, 187500.0, -187500.02235174447, -187500.02235174447, -187500.02235174447, -187500.02235174447, 0.176, -0.02, 0.992, 192.0, 0.0, 0.0, 0.0, 0.0, 0.0, 0.0, 0.0, 0.0, 0.0, 1.677618433872114E9, 0.0, 2023-02-28 16:07:13.872
90.0, 7041.067724355188, 187500.0, 187500.0, 187500.0, -187500.02235174447, -187500.02235174447, -187500.02235174447, -187500.02235174447, 0.176, -0.02, 0.992, 192.0, 0.0, 0.0, 0.0, 0.0, 0.0, 0.0, 0.0, 0.0, 0.0, 1.677618433879388E9, 0.0, 2023-02-28 16:07:13.879
91.0, 7780.284616981104, 187500.0, 187500.0, 187500.0, -187500.02235174447, -187500.02235174447, -187500.02235174447, -187500.02235174447, 0.176, -0.02, 0.992, 192.0, 0.0, 0.0, 0.0, 0.0, 0.0, 0.0, 0.0, 0.0, 0.0, 1.677618433879403E9, 0.0, 2023-02-28 16:07:13.879
92.0, 8073.539504234733, 187500.0, 187500.0, 187500.0, -187500.02235174447, -187500.02235174447, -187500.02235174447, -187500.02235174447, 0.176, -0.02, 0.992, 192.0, 0.0, 0.0, 0.0, 0.0, 0.0, 0.0, 0.0, 0.0, 0.0, 1.677618433886889E9, 0.0, 2023-02-28 16:07:13.886
93.0, 7393.197106504096, 187500.0, 187500.0, 187500.0, -187500.02235174447, -187500.02235174447, -187500.02235174447, -187500.02235174447, 0.176, -0.02, 0.992, 192.0, 0.0, 0.0, 0.0, 0.0, 0.0, 0.0, 0.0, 0.0, 0.0, 1.67761843388692E9, 0.0, 2023-02-28 16:07:13.886
94.0, 6645.754771918628, 187500.0, 187500.0, 187500.0, -187500.02235174447, -187500.02235174447, -187500.02235174447, -187500.02235174447, 0.176, -0.02, 0.992, 192.0, 0.0, 0.0, 0.0, 0.0, 0.0, 0.0, 0.0, 0.0, 0.0, 1.677618433894828E9, 0.0, 2023-02-28 16:07:13.894
95.0, 7605.672789296244, 187500.0, 187500.0, 187500.0, -187500.02235174447, -187500.02235174447, -187500.02235174447, -187500.02235174447, 0.176, -0.02, 0.994, 192.0, 5.0, 128.0, 255.0, 96.0, 31.0, 16.0, 0.0, 0.0, 0.0, 1.677618433894848E9, 0.0, 2023-02-28 16:07:13.894
96.0, 8260.48949485892, 187500.0, 187500.0, 187500.0, -187500.02235174447, -187500.02235174447, -187500.02235174447, -187500.02235174447, 0.176, -0.02, 0.994, 192.0, 0.0, 0.0, 0.0, 0.0, 0.0, 0.0, 0.0, 0.0, 0.0, 1.67761843390188E9, 0.0, 2023-02-28 16:07:13.901
97.0, 7383.138821499208, 187500.0, 187500.0, 187500.0, -187500.02235174447, -187500.02235174447, -187500.02235174447, -187500.02235174447, 0.176, -0.02, 0.994, 192.0, 0.0, 0.0, 0.0, 0.0, 0.0, 0.0, 0.0, 0.0, 0.0, 1.677618433901902E9, 0.0, 2023-02-28 16:07:13.901
98.0, 6844.282966170665, 187500.0, 187500.0, 187500.0, -187500.02235174447, -187500.02235174447, -187500.02235174447, -187500.02235174447, 0.176, -0.02, 0.994, 192.0, 0.0, 0.0, 0.0, 0.0, 0.0, 0.0, 0.0, 0.0, 0.0, 1.677618433909348E9, 0.0, 2023-02-28 16:07:13.909
99.0, 7698.633694485867, 187500.0, 187500.0, 187500.0, -187500.02235174447, -187500.02235174447, -187500.02235174447, -187500.02235174447, 0.176, -0.02, 0.994, 192.0, 0.0, 0.0, 0.0, 0.0, 0.0, 0.0, 0.0, 0.0, 0.0, 1.677618433909363E9, 0.0, 2023-02-28 16:07:13.909
100.0, 8212.992037891394, 187500.0, 187500.0, 187500.0, -187500.02235174447, -187500.02235174447, -187500.02235174447, -187500.02235174447, 0.176, -0.02, 0.994, 192.0, 0.0, 0.0, 0.0, 0.0, 0.0, 0.0, 0.0, 0.0, 0.0, 1.677618433916456E9, 0.0, 2023-02-28 16:07:13.916
101.0, 7449.545854275925, 187500.0, 187500.0, 187500.0, -187500.02235174447, -187500.02235174447, -187500.02235174447, -187500.02235174447, 0.176, -0.02, 0.994, 192.0, 0.0, 0.0, 0.0, 0.0, 0.0, 0.0, 0.0, 0.0, 0.0, 1.677618433924512E9, 0.0, 2023-02-28 16:07:13.924
102.0, 6762.564988442063, 187500.0, 187500.0, 187500.0, -187500.02235174447, -187500.02235174447, -187500.02235174447, -187500.02235174447, 0.176, -0.02, 0.994, 192.0, 0.0, 0.0, 0.0, 0.0, 0.0, 0.0, 0.0, 0.0, 0.0, 1.677618433924553E9, 0.0, 2023-02-28 16:07:13.924
103.0, 7358.93188225411, 187500.0, 187500.0, 187500.0, -187500.02235174447, -187500.02235174447, -187500.02235174447, -187500.02235174447, 0.176, -0.02, 0.994, 192.0, 0.0, 0.0, 0.0, 0.0, 0.0, 0.0, 0.0, 0.0, 0.0, 1.677618433931538E9, 0.0, 2023-02-28 16:07:13.931
104.0, 8441.359810991265, 187500.0, 187500.0, 187500.0, -187500.02235174447, -187500.02235174447, -187500.02235174447, -187500.02235174447, 0.176, -0.02, 0.994, 192.0, 0.0, 0.0, 0.0, 0.0, 0.0, 0.0, 0.0, 0.0, 0.0, 1.67761843393156E9, 0.0, 2023-02-28 16:07:13.931
105.0, 7956.684584222387, 187500.0, 187500.0, 187500.0, -187500.02235174447, -187500.02235174447, -187500.02235174447, -187500.02235174447, 0.178, -0.024, 0.994, 192.0, 5.0, 144.0, 255.0, 64.0, 31.0, 16.0, 0.0, 0.0, 0.0, 1.677618433941396E9, 0.0, 2023-02-28 16:07:13.941
106.0, 6927.476159033318, 187500.0, 187500.0, 187500.0, -187500.02235174447, -187500.02235174447, -187500.02235174447, -187500.02235174447, 0.178, -0.024, 0.994, 192.0, 0.0, 0.0, 0.0, 0.0, 0.0, 0.0, 0.0, 0.0, 0.0, 1.677618433941417E9, 0.0, 2023-02-28 16:07:13.941
107.0, 7073.835381726669, 187500.0, 187500.0, 187500.0, -187500.02235174447, -187500.02235174447, -187500.02235174447, -187500.02235174447, 0.178, -0.024, 0.994, 192.0, 0.0, 0.0, 0.0, 0.0, 0.0, 0.0, 0.0, 0.0, 0.0, 1.67761843394711E9, 0.0, 2023-02-28 16:07:13.947
108.0, 7822.417655279358, 187500.0, 187500.0, 187500.0, -187500.02235174447, -187500.02235174447, -187500.02235174447, -187500.02235174447, 0.178, -0.024, 0.994, 192.0, 0.0, 0.0, 0.0, 0.0, 0.0, 0.0, 0.0, 0.0, 0.0, 1.677618433947155E9, 0.0, 2023-02-28 16:07:13.947
109.0, 7977.985796688295, 187500.0, 187500.0, 187500.0, -187500.02235174447, -187500.02235174447, -187500.02235174447, -187500.02235174447, 0.178, -0.024, 0.994, 192.0, 0.0, 0.0, 0.0, 0.0, 0.0, 0.0, 0.0, 0.0, 0.0, 1.677618433955046E9, 0.0, 2023-02-28 16:07:13.955
110.0, 7244.982689020955, 187500.0, 187500.0, 187500.0, -187500.02235174447, -187500.02235174447, -187500.02235174447, -187500.02235174447, 0.178, -0.024, 0.994, 192.0, 0.0, 0.0, 0.0, 0.0, 0.0, 0.0, 0.0, 0.0, 0.0, 1.677618433955064E9, 0.0, 2023-02-28 16:07:13.955
111.0, 7050.656622726515, 187500.0, 187500.0, 187500.0, -187500.02235174447, -187500.02235174447, -187500.02235174447, -187500.02235174447, 0.178, -0.024, 0.994, 192.0, 0.0, 0.0, 0.0, 0.0, 0.0, 0.0, 0.0, 0.0, 0.0, 1.677618433961696E9, 0.0, 2023-02-28 16:07:13.961
112.0, 7728.026238444596, 187500.0, 187500.0, 187500.0, -187500.02235174447, -187500.02235174447, -187500.02235174447, -187500.02235174447, 0.178, -0.024, 0.994, 192.0, 0.0, 0.0, 0.0, 0.0, 0.0, 0.0, 0.0, 0.0, 0.0, 1.677618433961717E9, 0.0, 2023-02-28 16:07:13.961
113.0, 7991.799174761674, 187500.0, 187500.0, 187500.0, -187500.02235174447, -187500.02235174447, -187500.02235174447, -187500.02235174447, 0.178, -0.024, 0.994, 192.0, 0.0, 0.0, 0.0, 0.0, 0.0, 0.0, 0.0, 0.0, 0.0, 1.677618433969865E9, 0.0, 2023-02-28 16:07:13.969
114.0, 7208.974028703455, 187500.0, 187500.0, 187500.0, -187500.02235174447, -187500.02235174447, -187500.02235174447, -187500.02235174447, 0.178, -0.024, 0.994, 192.0, 0.0, 0.0, 0.0, 0.0, 0.0, 0.0, 0.0, 0.0, 0.0, 1.67761843396991E9, 0.0, 2023-02-28 16:07:13.969
115.0, 6903.448033743863, 187500.0, 187500.0, 187500.0, -187500.02235174447, -187500.02235174447, -187500.02235174447, -187500.02235174447, 0.18, -0.022, 0.996, 192.0, 5.0, 160.0, 255.0, 80.0, 31.0, 32.0, 0.0, 0.0, 0.0, 1.677618433976791E9, 0.0, 2023-02-28 16:07:13.976
116.0, 7814.25926855317, 187500.0, 187500.0, 187500.0, -187500.02235174447, -187500.02235174447, -187500.02235174447, -187500.02235174447, 0.18, -0.022, 0.996, 192.0, 0.0, 0.0, 0.0, 0.0, 0.0, 0.0, 0.0, 0.0, 0.0, 1.677618433976813E9, 0.0, 2023-02-28 16:07:13.976
117.0, 8355.260891349422, 187500.0, 187500.0, 187500.0, -187500.02235174447, -187500.02235174447, -187500.02235174447, -187500.02235174447, 0.18, -0.022, 0.996, 192.0, 0.0, 0.0, 0.0, 0.0, 0.0, 0.0, 0.0, 0.0, 0.0, 1.677618433984842E9, 0.0, 2023-02-28 16:07:13.984
118.0, 7377.9755685300315, 187500.0, 187500.0, 187500.0, -187500.02235174447, -187500.02235174447, -187500.02235174447, -187500.02235174447, 0.18, -0.022, 0.996, 192.0, 0.0, 0.0, 0.0, 0.0, 0.0, 0.0, 0.0, 0.0, 0.0, 1.677618433991358E9, 0.0, 2023-02-28 16:07:13.991
119.0, 6510.504366219565, 187500.0, 187500.0, 187500.0, -187500.02235174447, -187500.02235174447, -187500.02235174447, -187500.02235174447, 0.18, -0.022, 0.996, 192.0, 0.0, 0.0, 0.0, 0.0, 0.0, 0.0, 0.0, 0.0, 0.0, 1.677618433991375E9, 0.0, 2023-02-28 16:07:13.991
120.0, 7670.157572049806, 187500.0, 187500.0, 187500.0, -187500.02235174447, -187500.02235174447, -187500.02235174447, -187500.02235174447, 0.18, -0.022, 0.996, 192.0, 0.0, 0.0, 0.0, 0.0, 0.0, 0.0, 0.0, 0.0, 0.0, 1.677618433999383E9, 0.0, 2023-02-28 16:07:13.999
121.0, 8291.759585351896, 187500.0, 187500.0, 187500.0, -187500.02235174447, -187500.02235174447, -187500.02235174447, -187500.02235174447, 0.18, -0.022, 0.996, 192.0, 0.0, 0.0, 0.0, 0.0, 0.0, 0.0, 0.0, 0.0, 0.0, 1.677618433999402E9, 0.0, 2023-02-28 16:07:13.999
122.0, 7762.135000483394, 187500.0, 187500.0, 187500.0, -187500.02235174447, -187500.02235174447, -187500.02235174447, -187500.02235174447, 0.18, -0.022, 0.996, 192.0, 0.0, 0.0, 0.0, 0.0, 0.0, 0.0, 0.0, 0.0, 0.0, 1.67761843400742E9, 0.0, 2023-02-28 16:07:14.007
123.0, 6679.640016512873, 187500.0, 187500.0, 187500.0, -187500.02235174447, -187500.02235174447, -187500.02235174447, -187500.02235174447, 0.18, -0.022, 0.996, 192.0, 0.0, 0.0, 0.0, 0.0, 0.0, 0.0, 0.0, 0.0, 0.0, 1.677618434007434E9, 0.0, 2023-02-28 16:07:14.007
124.0, 7238.075999984265, 187500.0, 187500.0, 187500.0, -187500.02235174447, -187500.02235174447, -187500.02235174447, -187500.02235174447, 0.18, -0.022, 0.996, 192.0, 0.0, 0.0, 0.0, 0.0, 0.0, 0.0, 0.0, 0.0, 0.0, 1.6776184340146E9, 0.0, 2023-02-28 16:07:14.014
125.0, 8309.283353004856, 187500.0, 187500.0, 187500.0, -187500.02235174447, -187500.02235174447, -187500.02235174447, -187500.02235174447, 0.182, -0.018000000000000002, 0.992, 192.0, 5.0, 176.0, 255.0, 112.0, 31.0, 0.0, 0.0, 0.0, 0.0, 1.677618434014621E9, 0.0, 2023-02-28 16:07:14.014
126.0, 7936.970345612806, 187500.0, 187500.0, 187500.0, -187500.02235174447, -187500.02235174447, -187500.02235174447, -187500.02235174447, 0.182, -0.018000000000000002, 0.992, 192.0, 0.0, 0.0, 0.0, 0.0, 0.0, 0.0, 0.0, 0.0, 0.0, 1.677618434022017E9, 0.0, 2023-02-28 16:07:14.022
127.0, 7130.429998687506, 187500.0, 187500.0, 187500.0, -187500.02235174447, -187500.02235174447, -187500.02235174447, -187500.02235174447, 0.182, -0.018000000000000002, 0.992, 192.0, 0.0, 0.0, 0.0, 0.0, 0.0, 0.0, 0.0, 0.0, 0.0, 1.677618434022045E9, 0.0, 2023-02-28 16:07:14.022
128.0, 7124.864414318135, 187500.0, 187500.0, 187500.0, -187500.02235174447, -187500.02235174447, -187500.02235174447, -187500.02235174447, 0.182, -0.018000000000000002, 0.992, 192.0, 0.0, 0.0, 0.0, 0.0, 0.0, 0.0, 0.0, 0.0, 0.0, 1.677618434029966E9, 0.0, 2023-02-28 16:07:14.029
129.0, 8114.152623910025, 187500.0, 187500.0, 187500.0, -187500.02235174447, -187500.02235174447, -187500.02235174447, -187500.02235174447, 0.182, -0.018000000000000002, 0.992, 192.0, 0.0, 0.0, 0.0, 0.0, 0.0, 0.0, 0.0, 0.0, 0.0, 1.677618434029985E9, 0.0, 2023-02-28 16:07:14.029
130.0, 7709.653104502333, 187500.0, 187500.0, 187500.0, -187500.02235174447, -187500.02235174447, -187500.02235174447, -187500.02235174447, 0.182, -0.018000000000000002, 0.992, 192.0, 0.0, 0.0, 0.0, 0.0, 0.0, 0.0, 0.0, 0.0, 0.0, 1.677618434037296E9, 0.0, 2023-02-28 16:07:14.037
131.0, 6688.759528250638, 187500.0, 187500.0, 187500.0, -187500.02235174447, -187500.02235174447, -187500.02235174447, -187500.02235174447, 0.182, -0.018000000000000002, 0.992, 192.0, 0.0, 0.0, 0.0, 0.0, 0.0, 0.0, 0.0, 0.0, 0.0, 1.67761843403731E9, 0.0, 2023-02-28 16:07:14.037
132.0, 7201.016807677366, 187500.0, 187500.0, 187500.0, -187500.02235174447, -187500.02235174447, -187500.02235174447, -187500.02235174447, 0.182, -0.018000000000000002, 0.992, 192.0, 0.0, 0.0, 0.0, 0.0, 0.0, 0.0, 0.0, 0.0, 0.0, 1.677618434043925E9, 0.0, 2023-02-28 16:07:14.043
133.0, 8044.102256787093, 187500.0, 187500.0, 187500.0, -187500.02235174447, -187500.02235174447, -187500.02235174447, -187500.02235174447, 0.182, -0.018000000000000002, 0.992, 192.0, 0.0, 0.0, 0.0, 0.0, 0.0, 0.0, 0.0, 0.0, 0.0, 1.677618434051644E9, 0.0, 2023-02-28 16:07:14.051
134.0, 8503.184736154644, 187500.0, 187500.0, 187500.0, -187500.02235174447, -187500.02235174447, -187500.02235174447, -187500.02235174447, 0.182, -0.018000000000000002, 0.992, 192.0, 0.0, 0.0, 0.0, 0.0, 0.0, 0.0, 0.0, 0.0, 0.0, 1.677618434051666E9, 0.0, 2023-02-28 16:07:14.051
135.0, 7311.277963075396, 187500.0, 187500.0, 187500.0, -187500.02235174447, -187500.02235174447, -187500.02235174447, -187500.02235174447, 0.182, -0.02, 0.992, 192.0, 5.0, 176.0, 255.0, 96.0, 31.0, 0.0, 0.0, 0.0, 0.0, 1.677618434059665E9, 0.0, 2023-02-28 16:07:14.059
136.0, 6493.986427067092, 187500.0, 187500.0, 187500.0, -187500.02235174447, -187500.02235174447, -187500.02235174447, -187500.02235174447, 0.182, -0.02, 0.992, 192.0, 0.0, 0.0, 0.0, 0.0, 0.0, 0.0, 0.0, 0.0, 0.0, 1.677618434059695E9, 0.0, 2023-02-28 16:07:14.059
137.0, 7828.273812326648, 187500.0, 187500.0, 187500.0, -187500.02235174447, -187500.02235174447, -187500.02235174447, -187500.02235174447, 0.182, -0.02, 0.992, 192.0, 0.0, 0.0, 0.0, 0.0, 0.0, 0.0, 0.0, 0.0, 0.0, 1.677618434066748E9, 0.0, 2023-02-28 16:07:14.066
138.0, 7830.93366991683, 187500.0, 187500.0, 187500.0, -187500.02235174447, -187500.02235174447, -187500.02235174447, -187500.02235174447, 0.182, -0.02, 0.992, 192.0, 0.0, 0.0, 0.0, 0.0, 0.0, 0.0, 0.0, 0.0, 0.0, 1.677618434066768E9, 0.0, 2023-02-28 16:07:14.066
139.0, 7460.185284636651, 187500.0, 187500.0, 187500.0, -187500.02235174447, -187500.02235174447, -187500.02235174447, -187500.02235174447, 0.182, -0.02, 0.992, 192.0, 0.0, 0.0, 0.0, 0.0, 0.0, 0.0, 0.0, 0.0, 0.0, 1.677618434074225E9, 0.0, 2023-02-28 16:07:14.074
140.0, 7043.504064500817, 187500.0, 187500.0, 187500.0, -187500.02235174447, -187500.02235174447, -187500.02235174447, -187500.02235174447, 0.182, -0.02, 0.992, 192.0, 0.0, 0.0, 0.0, 0.0, 0.0, 0.0, 0.0, 0.0, 0.0, 1.677618434074237E9, 0.0, 2023-02-28 16:07:14.074
141.0, 7367.157324213663, 187500.0, 187500.0, 187500.0, -187500.02235174447, -187500.02235174447, -187500.02235174447, -187500.02235174447, 0.182, -0.02, 0.992, 192.0, 0.0, 0.0, 0.0, 0.0, 0.0, 0.0, 0.0, 0.0, 0.0, 1.677618434082324E9, 0.0, 2023-02-28 16:07:14.082
142.0, 7947.453313762345, 187500.0, 187500.0, 187500.0, -187500.02235174447, -187500.02235174447, -187500.02235174447, -187500.02235174447, 0.182, -0.02, 0.992, 192.0, 0.0, 0.0, 0.0, 0.0, 0.0, 0.0, 0.0, 0.0, 0.0, 1.677618434082338E9, 0.0, 2023-02-28 16:07:14.082
143.0, 7503.4135584132155, 187500.0, 187500.0, 187500.0, -187500.02235174447, -187500.02235174447, -187500.02235174447, -187500.02235174447, 0.182, -0.02, 0.992, 192.0, 0.0, 0.0, 0.0, 0.0, 0.0, 0.0, 0.0, 0.0, 0.0, 1.677618434090254E9, 0.0, 2023-02-28 16:07:14.090
144.0, 7155.419248988539, 187500.0, 187500.0, 187500.0, -187500.02235174447, -187500.02235174447, -187500.02235174447, -187500.02235174447, 0.182, -0.02, 0.992, 192.0, 0.0, 0.0, 0.0, 0.0, 0.0, 0.0, 0.0, 0.0, 0.0, 1.677618434090268E9, 0.0, 2023-02-28 16:07:14.090
145.0, 7852.525455060656, 187500.0, 187500.0, 187500.0, -187500.02235174447, -187500.02235174447, -187500.02235174447, -187500.02235174447, 0.18, -0.022, 0.994, 192.0, 5.0, 160.0, 255.0, 80.0, 31.0, 16.0, 0.0, 0.0, 0.0, 1.677618434096976E9, 0.0, 2023-02-28 16:07:14.096
146.0, 8252.219349410458, 187500.0, 187500.0, 187500.0, -187500.02235174447, -187500.02235174447, -187500.02235174447, -187500.02235174447, 0.18, -0.022, 0.994, 192.0, 0.0, 0.0, 0.0, 0.0, 0.0, 0.0, 0.0, 0.0, 0.0, 1.67761843409699E9, 0.0, 2023-02-28 16:07:14.096
147.0, 7532.895509349765, 187500.0, 187500.0, 187500.0, -187500.02235174447, -187500.02235174447, -187500.02235174447, -187500.02235174447, 0.18, -0.022, 0.994, 192.0, 0.0, 0.0, 0.0, 0.0, 0.0, 0.0, 0.0, 0.0, 0.0, 1.677618434103882E9, 0.0, 2023-02-28 16:07:14.103
148.0, 6739.676802119828, 187500.0, 187500.0, 187500.0, -187500.02235174447, -187500.02235174447, -187500.02235174447, -187500.02235174447, 0.18, -0.022, 0.994, 192.0, 0.0, 0.0, 0.0, 0.0, 0.0, 0.0, 0.0, 0.0, 0.0, 1.677618434111887E9, 0.0, 2023-02-28 16:07:14.111
149.0, 7322.230317858496, 187500.0, 187500.0, 187500.0, -187500.02235174447, -187500.02235174447, -187500.02235174447, -187500.02235174447, 0.18, -0.022, 0.994, 192.0, 0.0, 0.0, 0.0, 0.0, 0.0, 0.0, 0.0, 0.0, 0.0, 1.677618434111908E9, 0.0, 2023-02-28 16:07:14.111
150.0, 7953.711802209831, 187500.0, 187500.0, 187500.0, -187500.02235174447, -187500.02235174447, -187500.02235174447, -187500.02235174447, 0.18, -0.022, 0.994, 192.0, 0.0, 0.0, 0.0, 0.0, 0.0, 0.0, 0.0, 0.0, 0.0, 1.677618434120024E9, 0.0, 2023-02-28 16:07:14.120
151.0, 7785.269055994637, 187500.0, 187500.0, 187500.0, -187500.02235174447, -187500.02235174447, -187500.02235174447, -187500.02235174447, 0.18, -0.022, 0.994, 192.0, 0.0, 0.0, 0.0, 0.0, 0.0, 0.0, 0.0, 0.0, 0.0, 1.677618434120035E9, 0.0, 2023-02-28 16:07:14.120
152.0, 6922.849347931069, 187500.0, 187500.0, 187500.0, -187500.02235174447, -187500.02235174447, -187500.02235174447, -187500.02235174447, 0.18, -0.022, 0.994, 192.0, 0.0, 0.0, 0.0, 0.0, 0.0, 0.0, 0.0, 0.0, 0.0, 1.6776184341265E9, 0.0, 2023-02-28 16:07:14.126
153.0, 7114.046170001766, 187500.0, 187500.0, 187500.0, -187500.02235174447, -187500.02235174447, -187500.02235174447, -187500.02235174447, 0.18, -0.022, 0.994, 192.0, 0.0, 0.0, 0.0, 0.0, 0.0, 0.0, 0.0, 0.0, 0.0, 1.677618434126512E9, 0.0, 2023-02-28 16:07:14.126
154.0, 8180.626711920108, 187500.0, 187500.0, 187500.0, -187500.02235174447, -187500.02235174447, -187500.02235174447, -187500.02235174447, 0.176, -0.022, 0.996, 192.0, 5.0, 128.0, 255.0, 80.0, 31.0, 32.0, 0.0, 0.0, 0.0, 1.677618434134395E9, 0.0, 2023-02-28 16:07:14.134
155.0, 7921.458234960823, 187500.0, 187500.0, 187500.0, -187500.02235174447, -187500.02235174447, -187500.02235174447, -187500.02235174447, 0.176, -0.022, 0.996, 192.0, 0.0, 0.0, 0.0, 0.0, 0.0, 0.0, 0.0, 0.0, 0.0, 1.677618434134408E9, 0.0, 2023-02-28 16:07:14.134
156.0, 6904.945600622368, 187500.0, 187500.0, 187500.0, -187500.02235174447, -187500.02235174447, -187500.02235174447, -187500.02235174447, 0.176, -0.022, 0.996, 192.0, 0.0, 0.0, 0.0, 0.0, 0.0, 0.0, 0.0, 0.0, 0.0, 1.677618434142563E9, 0.0, 2023-02-28 16:07:14.142
157.0, 7322.990277169976, 187500.0, 187500.0, 187500.0, -187500.02235174447, -187500.02235174447, -187500.02235174447, -187500.02235174447, 0.176, -0.022, 0.996, 192.0, 0.0, 0.0, 0.0, 0.0, 0.0, 0.0, 0.0, 0.0, 0.0, 1.677618434142576E9, 0.0, 2023-02-28 16:07:14.142
158.0, 8271.598311853208, 187500.0, 187500.0, 187500.0, -187500.02235174447, -187500.02235174447, -187500.02235174447, -187500.02235174447, 0.176, -0.022, 0.996, 192.0, 0.0, 0.0, 0.0, 0.0, 0.0, 0.0, 0.0, 0.0, 0.0, 1.677618434149634E9, 0.0, 2023-02-28 16:07:14.149
159.0, 7907.354284209524, 187500.0, 187500.0, 187500.0, -187500.02235174447, -187500.02235174447, -187500.02235174447, -187500.02235174447, 0.176, -0.022, 0.996, 192.0, 0.0, 0.0, 0.0, 0.0, 0.0, 0.0, 0.0, 0.0, 0.0, 1.677618434149657E9, 0.0, 2023-02-28 16:07:14.149
160.0, 7200.502717554894, 187500.0, 187500.0, 187500.0, -187500.02235174447, -187500.02235174447, -187500.02235174447, -187500.02235174447, 0.176, -0.022, 0.996, 192.0, 0.0, 0.0, 0.0, 0.0, 0.0, 0.0, 0.0, 0.0, 0.0, 1.677618434157199E9, 0.0, 2023-02-28 16:07:14.157
161.0, 6880.179867765888, 187500.0, 187500.0, 187500.0, -187500.02235174447, -187500.02235174447, -187500.02235174447, -187500.02235174447, 0.176, -0.022, 0.996, 192.0, 0.0, 0.0, 0.0, 0.0, 0.0, 0.0, 0.0, 0.0, 0.0, 1.677618434157223E9, 0.0, 2023-02-28 16:07:14.157
162.0, 7871.41267912539, 187500.0, 187500.0, 187500.0, -187500.02235174447, -187500.02235174447, -187500.02235174447, -187500.02235174447, 0.176, -0.022, 0.996, 192.0, 0.0, 0.0, 0.0, 0.0, 0.0, 0.0, 0.0, 0.0, 0.0, 1.677618434164164E9, 0.0, 2023-02-28 16:07:14.164
163.0, 8096.941780679439, 187500.0, 187500.0, 187500.0, -187500.02235174447, -187500.02235174447, -187500.02235174447, -187500.02235174447, 0.176, -0.022, 0.996, 192.0, 0.0, 0.0, 0.0, 0.0, 0.0, 0.0, 0.0, 0.0, 0.0, 1.677618434172243E9, 0.0, 2023-02-28 16:07:14.172
164.0, 7202.737892000425, 187500.0, 187500.0, 187500.0, -187500.02235174447, -187500.02235174447, -187500.02235174447, -187500.02235174447, 0.176, -0.02, 0.994, 192.0, 5.0, 128.0, 255.0, 96.0, 31.0, 16.0, 0.0, 0.0, 0.0, 1.677618434172259E9, 0.0, 2023-02-28 16:07:14.172
165.0, 6995.112537755077, 187500.0, 187500.0, 187500.0, -187500.02235174447, -187500.02235174447, -187500.02235174447, -187500.02235174447, 0.176, -0.02, 0.994, 192.0, 0.0, 0.0, 0.0, 0.0, 0.0, 0.0, 0.0, 0.0, 0.0, 1.677618434179211E9, 0.0, 2023-02-28 16:07:14.179
166.0, 7708.066130646006, 187500.0, 187500.0, 187500.0, -187500.02235174447, -187500.02235174447, -187500.02235174447, -187500.02235174447, 0.176, -0.02, 0.994, 192.0, 0.0, 0.0, 0.0, 0.0, 0.0, 0.0, 0.0, 0.0, 0.0, 1.677618434179225E9, 0.0, 2023-02-28 16:07:14.179
167.0, 8122.981562969871, 187500.0, 187500.0, 187500.0, -187500.02235174447, -187500.02235174447, -187500.02235174447, -187500.02235174447, 0.176, -0.02, 0.994, 192.0, 0.0, 0.0, 0.0, 0.0, 0.0, 0.0, 0.0, 0.0, 0.0, 1.677618434186756E9, 0.0, 2023-02-28 16:07:14.186
168.0, 7414.095987569808, 187500.0, 187500.0, 187500.0, -187500.02235174447, -187500.02235174447, -187500.02235174447, -187500.02235174447, 0.176, -0.02, 0.994, 192.0, 0.0, 0.0, 0.0, 0.0, 0.0, 0.0, 0.0, 0.0, 0.0, 1.677618434186771E9, 0.0, 2023-02-28 16:07:14.186
169.0, 6790.43761377783, 187500.0, 187500.0, 187500.0, -187500.02235174447, -187500.02235174447, -187500.02235174447, -187500.02235174447, 0.176, -0.02, 0.994, 192.0, 0.0, 0.0, 0.0, 0.0, 0.0, 0.0, 0.0, 0.0, 0.0, 1.677618434194807E9, 0.0, 2023-02-28 16:07:14.194
170.0, 7712.402369070336, 187500.0, 187500.0, 187500.0, -187500.02235174447, -187500.02235174447, -187500.02235174447, -187500.02235174447, 0.176, -0.02, 0.994, 192.0, 0.0, 0.0, 0.0, 0.0, 0.0, 0.0, 0.0, 0.0, 0.0, 1.677618434194825E9, 0.0, 2023-02-28 16:07:14.194
171.0, 8410.872031554227, 187500.0, 187500.0, 187500.0, -187500.02235174447, -187500.02235174447, -187500.02235174447, -187500.02235174447, 0.176, -0.02, 0.994, 192.0, 0.0, 0.0, 0.0, 0.0, 0.0, 0.0, 0.0, 0.0, 0.0, 1.677618434202003E9, 0.0, 2023-02-28 16:07:14.202
172.0, 7406.98813283302, 187500.0, 187500.0, 187500.0, -187500.02235174447, -187500.02235174447, -187500.02235174447, -187500.02235174447, 0.176, -0.02, 0.994, 192.0, 0.0, 0.0, 0.0, 0.0, 0.0, 0.0, 0.0, 0.0, 0.0, 1.677618434202014E9, 0.0, 2023-02-28 16:07:14.202
173.0, 6790.661131222383, 187500.0, 187500.0, 187500.0, -187500.02235174447, -187500.02235174447, -187500.02235174447, -187500.02235174447, 0.176, -0.02, 0.994, 192.0, 0.0, 0.0, 0.0, 0.0, 0.0, 0.0, 0.0, 0.0, 0.0, 1.677618434209457E9, 0.0, 2023-02-28 16:07:14.209
174.0, 7535.82358787341, 187500.0, 187500.0, 187500.0, -187500.02235174447, -187500.02235174447, -187500.02235174447, -187500.02235174447, 0.176, -0.022, 0.992, 192.0, 5.0, 128.0, 255.0, 80.0, 31.0, 0.0, 0.0, 0.0, 0.0, 1.677618434209471E9, 0.0, 2023-02-28 16:07:14.209
175.0, 8615.792824720482, 187500.0, 187500.0, 187500.0, -187500.02235174447, -187500.02235174447, -187500.02235174447, -187500.02235174447, 0.176, -0.022, 0.992, 192.0, 0.0, 0.0, 0.0, 0.0, 0.0, 0.0, 0.0, 0.0, 0.0, 1.677618434217447E9, 0.0, 2023-02-28 16:07:14.217
176.0, 7756.77058181412, 187500.0, 187500.0, 187500.0, -187500.02235174447, -187500.02235174447, -187500.02235174447, -187500.02235174447, 0.176, -0.022, 0.992, 192.0, 0.0, 0.0, 0.0, 0.0, 0.0, 0.0, 0.0, 0.0, 0.0, 1.677618434217462E9, 0.0, 2023-02-28 16:07:14.217
177.0, 6637.350516003432, 187500.0, 187500.0, 187500.0, -187500.02235174447, -187500.02235174447, -187500.02235174447, -187500.02235174447, 0.176, -0.022, 0.992, 192.0, 0.0, 0.0, 0.0, 0.0, 0.0, 0.0, 0.0, 0.0, 0.0, 1.677618434224372E9, 0.0, 2023-02-28 16:07:14.224
178.0, 6999.962866301878, 187500.0, 187500.0, 187500.0, -187500.02235174447, -187500.02235174447, -187500.02235174447, -187500.02235174447, 0.176, -0.022, 0.992, 192.0, 0.0, 0.0, 0.0, 0.0, 0.0, 0.0, 0.0, 0.0, 0.0, 1.677618434224383E9, 0.0, 2023-02-28 16:07:14.224
179.0, 8084.6483212290195, 187500.0, 187500.0, 187500.0, -187500.02235174447, -187500.02235174447, -187500.02235174447, -187500.02235174447, 0.176, -0.022, 0.992, 192.0, 0.0, 0.0, 0.0, 0.0, 0.0, 0.0, 0.0, 0.0, 0.0, 1.677618434231559E9, 0.0, 2023-02-28 16:07:14.231
180.0, 7913.880993590474, 187500.0, 187500.0, 187500.0, -187500.02235174447, -187500.02235174447, -187500.02235174447, -187500.02235174447, 0.176, -0.022, 0.992, 192.0, 0.0, 0.0, 0.0, 0.0, 0.0, 0.0, 0.0, 0.0, 0.0, 1.677618434239112E9, 0.0, 2023-02-28 16:07:14.239
181.0, 7028.148416060021, 187500.0, 187500.0, 187500.0, -187500.02235174447, -187500.02235174447, -187500.02235174447, -187500.02235174447, 0.176, -0.022, 0.992, 192.0, 0.0, 0.0, 0.0, 0.0, 0.0, 0.0, 0.0, 0.0, 0.0, 1.677618434239129E9, 0.0, 2023-02-28 16:07:14.239
182.0, 7031.121198072577, 187500.0, 187500.0, 187500.0, -187500.02235174447, -187500.02235174447, -187500.02235174447, -187500.02235174447, 0.176, -0.022, 0.992, 192.0, 0.0, 0.0, 0.0, 0.0, 0.0, 0.0, 0.0, 0.0, 0.0, 1.677618434247142E9, 0.0, 2023-02-28 16:07:14.247
183.0, 8214.981343147916, 187500.0, 187500.0, 187500.0, -187500.02235174447, -187500.02235174447, -187500.02235174447, -187500.02235174447, 0.176, -0.022, 0.992, 192.0, 0.0, 0.0, 0.0, 0.0, 0.0, 0.0, 0.0, 0.0, 0.0, 1.677618434247161E9, 0.0, 2023-02-28 16:07:14.247
