%OpenBCI Raw EEG Data
%Number of channels = 8
%Sample Rate = 250 Hz
%Board = OpenBCI_GUI$BoardCytonSerial
Sample Index, EXG Channel 0, EXG Channel 1, EXG Channel 2, EXG Channel 3, EXG Channel 4, EXG Channel 5, EXG Channel 6, EXG Channel 7, Accel Channel 0, Accel Channel 1, Accel Channel 2, Other, Other, Other, Other, Other, Other, Other, Analog Channel 0, Analog Channel 1, Analog Channel 2, Timestamp, Other, Timestamp (Formatted)
152.0, -2644.747810929753, 187500.0, 187500.0, 187500.0, -187500.02235174447, -187500.02235174447, -187500.02235174447, -187500.02235174447, 0.0, 0.0, 0.0, 192.0, 0.0, 0.0, 0.0, 0.0, 0.0, 0.0, 0.0, 0.0, 0.0, 1.677618467026653E9, 0.0, 2023-02-28 16:07:47.026
153.0, -3455.4902858126507, 187500.0, 187500.0, 187500.0, -187500.02235174447, -187500.02235174447, -187500.02235174447, -187500.02235174447, 0.0, 0.0, 0.0, 192.0, 0.0, 0.0, 0.0, 0.0, 0.0, 0.0, 0.0, 0.0, 0.0, 1.677618467026676E9, 0.0, 2023-02-28 16:07:47.026
154.0, -3434.770218702581, 187500.0, 187500.0, 187500.0, -187500.02235174447, -187500.02235174447, -187500.02235174447, -187500.02235174447, 0.0, 0.0, 0.0, 192.0, 0.0, 0.0, 0.0, 0.0, 0.0, 0.0, 0.0, 0.0, 0.0, 1.677618467026685E9, 0.0, 2023-02-28 16:07:47.026
155.0, -2498.1650707918493, 187500.0, 187500.0, 187500.0, -187500.02235174447, -187500.02235174447, -187500.02235174447, -187500.02235174447, 0.0, 0.0, 0.0, 192.0, 0.0, 0.0, 0.0, 0.0, 0.0, 0.0, 0.0, 0.0, 0.0, 1.677618467026694E9, 0.0, 2023-02-28 16:07:47.026
156.0, -2191.923820009687, 187500.0, 187500.0, 187500.0, -187500.02235174447, -187500.02235174447, -187500.02235174447, -187500.02235174447, 0.0, 0.0, 0.0, 192.0, 0.0, 0.0, 0.0, 0.0, 0.0, 0.0, 0.0, 0.0, 0.0, 1.677618467026703E9, 0.0, 2023-02-28 16:07:47.026
0.0, 0.0, 0.0, 0.0, 0.0, 0.0, 0.0, 0.0, 0.0, 0.17400000000000002, -0.022, 1.0, 192.0, 5.0, 112.0, 255.0, 80.0, 31.0, 64.0, 0.0, 0.0, 0.0, 1.677618467109719E9, 0.0, 2023-02-28 16:07:47.109
1.0, 2369.5084297071016, 187500.0, 187500.0, 187500.0, -187500.02235174447, -187500.02235174447, -187500.02235174447, -187500.02235174447, 0.17400000000000002, -0.022, 1.0, 192.0, 0.0, 0.0, 0.0, 0.0, 0.0, 0.0, 0.0, 0.0, 0.0, 1.677618467132305E9, 0.0, 2023-02-28 16:07:47.132
2.0, 1558.2295129572765, 187500.0, 187500.0, 187500.0, -187500.02235174447, -187500.02235174447, -187500.02235174447, -187500.02235174447, 0.17400000000000002, -0.022, 1.0, 192.0, 0.0, 0.0, 0.0, 0.0, 0.0, 0.0, 0.0, 0.0, 0.0, 1.677618467132324E9, 0.0, 2023-02-28 16:07:47.132
3.0, 1853.7419264008913, 187500.0, 187500.0, 187500.0, -187500.02235174447, -187500.02235174447, -187500.02235174447, -187500.02235174447, 0.17400000000000002, -0.022, 1.0, 192.0, 0.0, 0.0, 0.0, 0.0, 0.0, 0.0, 0.0, 0.0, 0.0, 1.67761846713939E9, 0.0, 2023-02-28 16:07:47.139
4.0, 2677.426061323412, 187500.0, 187500.0, 187500.0, -187500.02235174447, -187500.02235174447, -187500.02235174447, -187500.02235174447, 0.17400000000000002, -0.022, 1.0, 192.0, 0.0, 0.0, 0.0, 0.0, 0.0, 0.0, 0.0, 0.0, 0.0, 1.677618467139405E9, 0.0, 2023-02-28 16:07:47.139
5.0, 2430.1934159032603, 187500.0, 187500.0, 187500.0, -187500.02235174447, -187500.02235174447, -187500.02235174447, -187500.02235174447, 0.17400000000000002, -0.022, 1.0, 192.0, 0.0, 0.0, 0.0, 0.0, 0.0, 0.0, 0.0, 0.0, 0.0, 1.677618467146905E9, 0.0, 2023-02-28 16:07:47.146
6.0, 1624.8824149230022, 187500.0, 187500.0, 187500.0, -187500.02235174447, -187500.02235174447, -187500.02235174447, -187500.02235174447, 0.17400000000000002, -0.022, 1.0, 192.0, 0.0, 0.0, 0.0, 0.0, 0.0, 0.0, 0.0, 0.0, 0.0, 1.677618467146922E9, 0.0, 2023-02-28 16:07:47.146
7.0, 1741.7373349353475, 187500.0, 187500.0, 187500.0, -187500.02235174447, -187500.02235174447, -187500.02235174447, -187500.02235174447, 0.17400000000000002, -0.022, 1.0, 192.0, 0.0, 0.0, 0.0, 0.0, 0.0, 0.0, 0.0, 0.0, 0.0, 1.677618467154848E9, 0.0, 2023-02-28 16:07:47.154
8.0, 2385.04289210354, 187500.0, 187500.0, 187500.0, -187500.02235174447, -187500.02235174447, -187500.02235174447, -187500.02235174447, 0.178, -0.028, 1.0, 192.0, 5.0, 144.0, 255.0, 32.0, 31.0, 64.0, 0.0, 0.0, 0.0, 1.677618467154873E9, 0.0, 2023-02-28 16:07:47.154
9.0, 2410.501529038135, 187500.0, 187500.0, 187500.0, -187500.02235174447, -187500.02235174447, -187500.02235174447, -187500.02235174447, 0.178, -0.028, 1.0, 192.0, 0.0, 0.0, 0.0, 0.0, 0.0, 0.0, 0.0, 0.0, 0.0, 1.677618467162955E9, 0.0, 2023-02-28 16:07:47.162
10.0, 1556.9331117788688, 187500.0, 187500.0, 187500.0, -187500.02235174447, -187500.02235174447, -187500.02235174447, -187500.02235174447, 0.178, -0.028, 1.0, 192.0, 0.0, 0.0, 0.0, 0.0, 0.0, 0.0, 0.0, 0.0, 0.0, 1.677618467162979E9, 0.0, 2023-02-28 16:07:47.162
11.0, 1504.3841605644418, 187500.0, 187500.0, 187500.0, -187500.02235174447, -187500.02235174447, -187500.02235174447, -187500.02235174447, 0.178, -0.028, 1.0, 192.0, 0.0, 0.0, 0.0, 0.0, 0.0, 0.0, 0.0, 0.0, 0.0, 1.677618467169601E9, 0.0, 2023-02-28 16:07:47.169
12.0, 2400.0632643775066, 187500.0, 187500.0, 187500.0, -187500.02235174447, -187500.02235174447, -187500.02235174447, -187500.02235174447, 0.178, -0.028, 1.0, 192.0, 0.0, 0.0, 0.0, 0.0, 0.0, 0.0, 0.0, 0.0, 0.0, 1.677618467169628E9, 0.0, 2023-02-28 16:07:47.169
13.0, 2704.158747691959, 187500.0, 187500.0, 187500.0, -187500.02235174447, -187500.02235174447, -187500.02235174447, -187500.02235174447, 0.178, -0.028, 1.0, 192.0, 0.0, 0.0, 0.0, 0.0, 0.0, 0.0, 0.0, 0.0, 0.0, 1.677618467176616E9, 0.0, 2023-02-28 16:07:47.176
14.0, 1877.2559615678742, 187500.0, 187500.0, 187500.0, -187500.02235174447, -187500.02235174447, -187500.02235174447, -187500.02235174447, 0.178, -0.028, 1.0, 192.0, 0.0, 0.0, 0.0, 0.0, 0.0, 0.0, 0.0, 0.0, 0.0, 1.677618467184747E9, 0.0, 2023-02-28 16:07:47.184
15.0, 1405.8576710054483, 187500.0, 187500.0, 187500.0, -187500.02235174447, -187500.02235174447, -187500.02235174447, -187500.02235174447, 0.178, -0.028, 1.0, 192.0, 0.0, 0.0, 0.0, 0.0, 0.0, 0.0, 0.0, 0.0, 0.0, 1.677618467184767E9, 0.0, 2023-02-28 16:07:47.184
16.0, 2023.324611583306, 187500.0, 187500.0, 187500.0, -187500.02235174447, -187500.02235174447, -187500.02235174447, -187500.02235174447, 0.178, -0.028, 1.0, 192.0, 0.0, 0.0, 0.0, 0.0, 0.0, 0.0, 0.0, 0.0, 0.0, 1.67761846719261E9, 0.0, 2023-02-28 16:07:47.192
17.0, 2426.1701019013053, 187500.0, 187500.0, 187500.0, -187500.02235174447, -187500.02235174447, -187500.02235174447, -187500.02235174447, 0.176, -0.026000000000000002, 0.992, 192.0, 5.0, 128.0, 255.0, 48.0, 31.0, 0.0, 0.0, 0.0, 0.0, 1.677618467192639E9, 0.0, 2023-02-28 16:07:47.192
18.0, 1776.561352796716, 187500.0, 187500.0, 187500.0, -187500.02235174447, -187500.02235174447, -187500.02235174447, -187500.02235174447, 0.176, -0.026000000000000002, 0.992, 192.0, 0.0, 0.0, 0.0, 0.0, 0.0, 0.0, 0.0, 0.0, 0.0, 1.677618467199203E9, 0.0, 2023-02-28 16:07:47.199
19.0, 1321.7257048756726, 187500.0, 187500.0, 187500.0, -187500.02235174447, -187500.02235174447, -187500.02235174447, -187500.02235174447, 0.176, -0.026000000000000002, 0.992, 192.0, 0.0, 0.0, 0.0, 0.0, 0.0, 0.0, 0.0, 0.0, 0.0, 1.677618467199223E9, 0.0, 2023-02-28 16:07:47.199
20.0, 2055.9805102325095, 187500.0, 187500.0, 187500.0, -187500.02235174447, -187500.02235174447, -187500.02235174447, -187500.02235174447, 0.176, -0.026000000000000002, 0.992, 192.0, 0.0, 0.0, 0.0, 0.0, 0.0, 0.0, 0.0, 0.0, 0.0, 1.677618467207301E9, 0.0, 2023-02-28 16:07:47.207
21.0, 2699.6660470564425, 187500.0, 187500.0, 187500.0, -187500.02235174447, -187500.02235174447, -187500.02235174447, -187500.02235174447, 0.176, -0.026000000000000002, 0.992, 192.0, 0.0, 0.0, 0.0, 0.0, 0.0, 0.0, 0.0, 0.0, 0.0, 1.677618467207325E9, 0.0, 2023-02-28 16:07:47.207
22.0, 1926.8544825142008, 187500.0, 187500.0, 187500.0, -187500.02235174447, -187500.02235174447, -187500.02235174447, -187500.02235174447, 0.176, -0.026000000000000002, 0.992, 192.0, 0.0, 0.0, 0.0, 0.0, 0.0, 0.0, 0.0, 0.0, 0.0, 1.67761846721515E9, 0.0, 2023-02-28 16:07:47.215
23.0, 1395.1288336669008, 187500.0, 187500.0, 187500.0, -187500.02235174447, -187500.02235174447, -187500.02235174447, -187500.02235174447, 0.176, -0.026000000000000002, 0.992, 192.0, 0.0, 0.0, 0.0, 0.0, 0.0, 0.0, 0.0, 0.0, 0.0, 1.677618467215162E9, 0.0, 2023-02-28 16:07:47.215
24.0, 1788.0501494467437, 187500.0, 187500.0, 187500.0, -187500.02235174447, -187500.02235174447, -187500.02235174447, -187500.02235174447, 0.176, -0.026000000000000002, 0.992, 192.0, 0.0, 0.0, 0.0, 0.0, 0.0, 0.0, 0.0, 0.0, 0.0, 1.677618467222334E9, 0.0, 2023-02-28 16:07:47.222
25.0, 2525.031867627128, 187500.0, 187500.0, 187500.0, -187500.02235174447, -187500.02235174447, -187500.02235174447, -187500.02235174447, 0.176, -0.026000000000000002, 0.992, 192.0, 0.0, 0.0, 0.0, 0.0, 0.0, 0.0, 0.0, 0.0, 0.0, 1.677618467222351E9, 0.0, 2023-02-28 16:07:47.222
26.0, 2168.9685784540866, 187500.0, 187500.0, 187500.0, -187500.02235174447, -187500.02235174447, -187500.02235174447, -187500.02235174447, 0.176, -0.026000000000000002, 0.992, 192.0, 0.0, 0.0, 0.0, 0.0, 0.0, 0.0, 0.0, 0.0, 0.0, 1.677618467229871E9, 0.0, 2023-02-28 16:07:47.229
27.0, 1429.8187410615376, 187500.0, 187500.0, 187500.0, -187500.02235174447, -187500.02235174447, -187500.02235174447, -187500.02235174447, 0.178, -0.022, 0.994, 192.0, 5.0, 144.0, 255.0, 80.0, 31.0, 16.0, 0.0, 0.0, 0.0, 1.67761846722989E9, 0.0, 2023-02-28 16:07:47.229
28.0, 1764.469059046395, 187500.0, 187500.0, 187500.0, -187500.02235174447, -187500.02235174447, -187500.02235174447, -187500.02235174447, 0.178, -0.022, 0.994, 192.0, 0.0, 0.0, 0.0, 0.0, 0.0, 0.0, 0.0, 0.0, 0.0, 1.677618467236887E9, 0.0, 2023-02-28 16:07:47.236
29.0, 2719.9614310218612, 187500.0, 187500.0, 187500.0, -187500.02235174447, -187500.02235174447, -187500.02235174447, -187500.02235174447, 0.178, -0.022, 0.994, 192.0, 0.0, 0.0, 0.0, 0.0, 0.0, 0.0, 0.0, 0.0, 0.0, 1.677618467236914E9, 0.0, 2023-02-28 16:07:47.236
30.0, 1896.7019792439914, 187500.0, 187500.0, 187500.0, -187500.02235174447, -187500.02235174447, -187500.02235174447, -187500.02235174447, 0.178, -0.022, 0.994, 192.0, 0.0, 0.0, 0.0, 0.0, 0.0, 0.0, 0.0, 0.0, 0.0, 1.677618467244803E9, 0.0, 2023-02-28 16:07:47.244
31.0, 1044.631128863231, 187500.0, 187500.0, 187500.0, -187500.02235174447, -187500.02235174447, -187500.02235174447, -187500.02235174447, 0.178, -0.022, 0.994, 192.0, 0.0, 0.0, 0.0, 0.0, 0.0, 0.0, 0.0, 0.0, 0.0, 1.677618467251976E9, 0.0, 2023-02-28 16:07:47.251
32.0, 1227.714267696651, 187500.0, 187500.0, 187500.0, -187500.02235174447, -187500.02235174447, -187500.02235174447, -187500.02235174447, 0.178, -0.022, 0.994, 192.0, 0.0, 0.0, 0.0, 0.0, 0.0, 0.0, 0.0, 0.0, 0.0, 1.677618467251993E9, 0.0, 2023-02-28 16:07:47.251
33.0, 2069.9727022615316, 187500.0, 187500.0, 187500.0, -187500.02235174447, -187500.02235174447, -187500.02235174447, -187500.02235174447, 0.178, -0.022, 0.994, 192.0, 0.0, 0.0, 0.0, 0.0, 0.0, 0.0, 0.0, 0.0, 0.0, 1.6776184672596E9, 0.0, 2023-02-28 16:07:47.259
34.0, 2166.532238308458, 187500.0, 187500.0, 187500.0, -187500.02235174447, -187500.02235174447, -187500.02235174447, -187500.02235174447, 0.178, -0.022, 0.994, 192.0, 0.0, 0.0, 0.0, 0.0, 0.0, 0.0, 0.0, 0.0, 0.0, 1.677618467259617E9, 0.0, 2023-02-28 16:07:47.259
35.0, 1424.9013572813699, 187500.0, 187500.0, 187500.0, -187500.02235174447, -187500.02235174447, -187500.02235174447, -187500.02235174447, 0.178, -0.022, 0.994, 192.0, 0.0, 0.0, 0.0, 0.0, 0.0, 0.0, 0.0, 0.0, 0.0, 1.677618467267414E9, 0.0, 2023-02-28 16:07:47.267
36.0, 1296.4682336411756, 187500.0, 187500.0, 187500.0, -187500.02235174447, -187500.02235174447, -187500.02235174447, -187500.02235174447, 0.178, -0.022, 0.994, 192.0, 0.0, 0.0, 0.0, 0.0, 0.0, 0.0, 0.0, 0.0, 0.0, 1.677618467267431E9, 0.0, 2023-02-28 16:07:47.267
37.0, 2061.344928901783, 187500.0, 187500.0, 187500.0, -187500.02235174447, -187500.02235174447, -187500.02235174447, -187500.02235174447, 0.178, -0.02, 0.992, 192.0, 5.0, 144.0, 255.0, 96.0, 31.0, 0.0, 0.0, 0.0, 0.0, 1.67761846727453E9, 0.0, 2023-02-28 16:07:47.274
38.0, 2336.3831444243365, 187500.0, 187500.0, 187500.0, -187500.02235174447, -187500.02235174447, -187500.02235174447, -187500.02235174447, 0.178, -0.02, 0.992, 192.0, 0.0, 0.0, 0.0, 0.0, 0.0, 0.0, 0.0, 0.0, 0.0, 1.677618467274552E9, 0.0, 2023-02-28 16:07:47.274
39.0, 1639.27693835222, 187500.0, 187500.0, 187500.0, -187500.02235174447, -187500.02235174447, -187500.02235174447, -187500.02235174447, 0.178, -0.02, 0.992, 192.0, 0.0, 0.0, 0.0, 0.0, 0.0, 0.0, 0.0, 0.0, 0.0, 1.677618467282163E9, 0.0, 2023-02-28 16:07:47.282
40.0, 1316.1154170173904, 187500.0, 187500.0, 187500.0, -187500.02235174447, -187500.02235174447, -187500.02235174447, -187500.02235174447, 0.178, -0.02, 0.992, 192.0, 0.0, 0.0, 0.0, 0.0, 0.0, 0.0, 0.0, 0.0, 0.0, 1.677618467282183E9, 0.0, 2023-02-28 16:07:47.282
41.0, 2078.354606432272, 187500.0, 187500.0, 187500.0, -187500.02235174447, -187500.02235174447, -187500.02235174447, -187500.02235174447, 0.178, -0.02, 0.992, 192.0, 0.0, 0.0, 0.0, 0.0, 0.0, 0.0, 0.0, 0.0, 0.0, 1.677618467290143E9, 0.0, 2023-02-28 16:07:47.290
42.0, 2485.7375008746985, 187500.0, 187500.0, 187500.0, -187500.02235174447, -187500.02235174447, -187500.02235174447, -187500.02235174447, 0.178, -0.02, 0.992, 192.0, 0.0, 0.0, 0.0, 0.0, 0.0, 0.0, 0.0, 0.0, 0.0, 1.677618467290161E9, 0.0, 2023-02-28 16:07:47.290
43.0, 1679.5771336051387, 187500.0, 187500.0, 187500.0, -187500.02235174447, -187500.02235174447, -187500.02235174447, -187500.02235174447, 0.178, -0.02, 0.992, 192.0, 0.0, 0.0, 0.0, 0.0, 0.0, 0.0, 0.0, 0.0, 0.0, 1.677618467298168E9, 0.0, 2023-02-28 16:07:47.298
44.0, 1148.1644091802132, 187500.0, 187500.0, 187500.0, -187500.02235174447, -187500.02235174447, -187500.02235174447, -187500.02235174447, 0.178, -0.02, 0.992, 192.0, 0.0, 0.0, 0.0, 0.0, 0.0, 0.0, 0.0, 0.0, 0.0, 1.677618467298188E9, 0.0, 2023-02-28 16:07:47.298
45.0, 1766.0336811582663, 187500.0, 187500.0, 187500.0, -187500.02235174447, -187500.02235174447, -187500.02235174447, -187500.02235174447, 0.178, -0.02, 0.992, 192.0, 0.0, 0.0, 0.0, 0.0, 0.0, 0.0, 0.0, 0.0, 0.0, 1.677618467304335E9, 0.0, 2023-02-28 16:07:47.304
46.0, 2367.630883172856, 187500.0, 187500.0, 187500.0, -187500.02235174447, -187500.02235174447, -187500.02235174447, -187500.02235174447, 0.178, -0.02, 0.992, 192.0, 0.0, 0.0, 0.0, 0.0, 0.0, 0.0, 0.0, 0.0, 0.0, 1.677618467311717E9, 0.0, 2023-02-28 16:07:47.311
47.0, 1877.9488656459887, 187500.0, 187500.0, 187500.0, -187500.02235174447, -187500.02235174447, -187500.02235174447, -187500.02235174447, 0.182, -0.024, 0.99, 192.0, 5.0, 176.0, 255.0, 64.0, 30.0, 240.0, 0.0, 0.0, 0.0, 1.677618467311739E9, 0.0, 2023-02-28 16:07:47.311
48.0, 1218.974735614626, 187500.0, 187500.0, 187500.0, -187500.02235174447, -187500.02235174447, -187500.02235174447, -187500.02235174447, 0.182, -0.024, 0.99, 192.0, 0.0, 0.0, 0.0, 0.0, 0.0, 0.0, 0.0, 0.0, 0.0, 1.677618467319752E9, 0.0, 2023-02-28 16:07:47.319
49.0, 1678.8171742936581, 187500.0, 187500.0, 187500.0, -187500.02235174447, -187500.02235174447, -187500.02235174447, -187500.02235174447, 0.182, -0.024, 0.99, 192.0, 0.0, 0.0, 0.0, 0.0, 0.0, 0.0, 0.0, 0.0, 0.0, 1.677618467319773E9, 0.0, 2023-02-28 16:07:47.319
50.0, 2557.2183796427703, 187500.0, 187500.0, 187500.0, -187500.02235174447, -187500.02235174447, -187500.02235174447, -187500.02235174447, 0.182, -0.024, 0.99, 192.0, 0.0, 0.0, 0.0, 0.0, 0.0, 0.0, 0.0, 0.0, 0.0, 1.677618467327661E9, 0.0, 2023-02-28 16:07:47.327
51.0, 2350.487095175635, 187500.0, 187500.0, 187500.0, -187500.02235174447, -187500.02235174447, -187500.02235174447, -187500.02235174447, 0.182, -0.024, 0.99, 192.0, 0.0, 0.0, 0.0, 0.0, 0.0, 0.0, 0.0, 0.0, 0.0, 1.677618467327675E9, 0.0, 2023-02-28 16:07:47.327
52.0, 1186.9223340657156, 187500.0, 187500.0, 187500.0, -187500.02235174447, -187500.02235174447, -187500.02235174447, -187500.02235174447, 0.182, -0.024, 0.99, 192.0, 0.0, 0.0, 0.0, 0.0, 0.0, 0.0, 0.0, 0.0, 0.0, 1.67761846733432E9, 0.0, 2023-02-28 16:07:47.334
53.0, 1325.8831293443598, 187500.0, 187500.0, 187500.0, -187500.02235174447, -187500.02235174447, -187500.02235174447, -187500.02235174447, 0.182, -0.024, 0.99, 192.0, 0.0, 0.0, 0.0, 0.0, 0.0, 0.0, 0.0, 0.0, 0.0, 1.677618467334335E9, 0.0, 2023-02-28 16:07:47.334
54.0, 2239.6224426773124, 187500.0, 187500.0, 187500.0, -187500.02235174447, -187500.02235174447, -187500.02235174447, -187500.02235174447, 0.182, -0.024, 0.99, 192.0, 0.0, 0.0, 0.0, 0.0, 0.0, 0.0, 0.0, 0.0, 0.0, 1.677618467342336E9, 0.0, 2023-02-28 16:07:47.342
55.0, 2355.6056446559005, 187500.0, 187500.0, 187500.0, -187500.02235174447, -187500.02235174447, -187500.02235174447, -187500.02235174447, 0.182, -0.024, 0.99, 192.0, 0.0, 0.0, 0.0, 0.0, 0.0, 0.0, 0.0, 0.0, 0.0, 1.677618467342352E9, 0.0, 2023-02-28 16:07:47.342
56.0, 1228.161302585757, 187500.0, 187500.0, 187500.0, -187500.02235174447, -187500.02235174447, -187500.02235174447, -187500.02235174447, 0.182, -0.024, 0.99, 192.0, 0.0, 0.0, 0.0, 0.0, 0.0, 0.0, 0.0, 0.0, 0.0, 1.677618467350305E9, 0.0, 2023-02-28 16:07:47.350
57.0, 1231.3352502984108, 187500.0, 187500.0, 187500.0, -187500.02235174447, -187500.02235174447, -187500.02235174447, -187500.02235174447, 0.184, -0.022, 0.994, 192.0, 5.0, 192.0, 255.0, 80.0, 31.0, 16.0, 0.0, 0.0, 0.0, 1.677618467350324E9, 0.0, 2023-02-28 16:07:47.350
58.0, 2155.6245870142684, 187500.0, 187500.0, 187500.0, -187500.02235174447, -187500.02235174447, -187500.02235174447, -187500.02235174447, 0.184, -0.022, 0.994, 192.0, 0.0, 0.0, 0.0, 0.0, 0.0, 0.0, 0.0, 0.0, 0.0, 1.677618467357467E9, 0.0, 2023-02-28 16:07:47.357
59.0, 2076.0747284978306, 187500.0, 187500.0, 187500.0, -187500.02235174447, -187500.02235174447, -187500.02235174447, -187500.02235174447, 0.184, -0.022, 0.994, 192.0, 0.0, 0.0, 0.0, 0.0, 0.0, 0.0, 0.0, 0.0, 0.0, 1.677618467357487E9, 0.0, 2023-02-28 16:07:47.357
60.0, 1393.7653772551273, 187500.0, 187500.0, 187500.0, -187500.02235174447, -187500.02235174447, -187500.02235174447, -187500.02235174447, 0.184, -0.022, 0.994, 192.0, 0.0, 0.0, 0.0, 0.0, 0.0, 0.0, 0.0, 0.0, 0.0, 1.677618467364017E9, 0.0, 2023-02-28 16:07:47.364
61.0, 1146.108048690325, 187500.0, 187500.0, 187500.0, -187500.02235174447, -187500.02235174447, -187500.02235174447, -187500.02235174447, 0.184, -0.022, 0.994, 192.0, 0.0, 0.0, 0.0, 0.0, 0.0, 0.0, 0.0, 0.0, 0.0, 1.677618467372075E9, 0.0, 2023-02-28 16:07:47.372
62.0, 1859.1734003035308, 187500.0, 187500.0, 187500.0, -187500.02235174447, -187500.02235174447, -187500.02235174447, -187500.02235174447, 0.184, -0.022, 0.994, 192.0, 0.0, 0.0, 0.0, 0.0, 0.0, 0.0, 0.0, 0.0, 0.0, 1.677618467372091E9, 0.0, 2023-02-28 16:07:47.372
63.0, 2202.6526573482347, 187500.0, 187500.0, 187500.0, -187500.02235174447, -187500.02235174447, -187500.02235174447, -187500.02235174447, 0.184, -0.022, 0.994, 192.0, 0.0, 0.0, 0.0, 0.0, 0.0, 0.0, 0.0, 0.0, 0.0, 1.677618467379974E9, 0.0, 2023-02-28 16:07:47.379
64.0, 1530.155721921411, 187500.0, 187500.0, 187500.0, -187500.02235174447, -187500.02235174447, -187500.02235174447, -187500.02235174447, 0.184, -0.022, 0.994, 192.0, 0.0, 0.0, 0.0, 0.0, 0.0, 0.0, 0.0, 0.0, 0.0, 1.677618467379991E9, 0.0, 2023-02-28 16:07:47.379
65.0, 1264.2370181366227, 187500.0, 187500.0, 187500.0, -187500.02235174447, -187500.02235174447, -187500.02235174447, -187500.02235174447, 0.184, -0.022, 0.994, 192.0, 0.0, 0.0, 0.0, 0.0, 0.0, 0.0, 0.0, 0.0, 0.0, 1.677618467387063E9, 0.0, 2023-02-28 16:07:47.387
66.0, 2002.7386549399682, 187500.0, 187500.0, 187500.0, -187500.02235174447, -187500.02235174447, -187500.02235174447, -187500.02235174447, 0.184, -0.022, 0.994, 192.0, 0.0, 0.0, 0.0, 0.0, 0.0, 0.0, 0.0, 0.0, 0.0, 1.677618467387076E9, 0.0, 2023-02-28 16:07:47.387
67.0, 2219.3941139452595, 187500.0, 187500.0, 187500.0, -187500.02235174447, -187500.02235174447, -187500.02235174447, -187500.02235174447, 0.184, -0.02, 0.994, 192.0, 5.0, 192.0, 255.0, 96.0, 31.0, 16.0, 0.0, 0.0, 0.0, 1.677618467394653E9, 0.0, 2023-02-28 16:07:47.394
68.0, 1701.9959332938115, 187500.0, 187500.0, 187500.0, -187500.02235174447, -187500.02235174447, -187500.02235174447, -187500.02235174447, 0.184, -0.02, 0.994, 192.0, 0.0, 0.0, 0.0, 0.0, 0.0, 0.0, 0.0, 0.0, 0.0, 1.677618467394677E9, 0.0, 2023-02-28 16:07:47.394
69.0, 1196.6676946482296, 187500.0, 187500.0, 187500.0, -187500.02235174447, -187500.02235174447, -187500.02235174447, -187500.02235174447, 0.184, -0.02, 0.994, 192.0, 0.0, 0.0, 0.0, 0.0, 0.0, 0.0, 0.0, 0.0, 0.0, 1.677618467402649E9, 0.0, 2023-02-28 16:07:47.402
70.0, 1571.1935247413546, 187500.0, 187500.0, 187500.0, -187500.02235174447, -187500.02235174447, -187500.02235174447, -187500.02235174447, 0.184, -0.02, 0.994, 192.0, 0.0, 0.0, 0.0, 0.0, 0.0, 0.0, 0.0, 0.0, 0.0, 1.677618467402671E9, 0.0, 2023-02-28 16:07:47.402
71.0, 2208.888794051265, 187500.0, 187500.0, 187500.0, -187500.02235174447, -187500.02235174447, -187500.02235174447, -187500.02235174447, 0.184, -0.02, 0.994, 192.0, 0.0, 0.0, 0.0, 0.0, 0.0, 0.0, 0.0, 0.0, 0.0, 1.677618467409652E9, 0.0, 2023-02-28 16:07:47.409
72.0, 1947.7533635799127, 187500.0, 187500.0, 187500.0, -187500.02235174447, -187500.02235174447, -187500.02235174447, -187500.02235174447, 0.184, -0.02, 0.994, 192.0, 0.0, 0.0, 0.0, 0.0, 0.0, 0.0, 0.0, 0.0, 0.0, 1.677618467409663E9, 0.0, 2023-02-28 16:07:47.409
73.0, 1214.683200679207, 187500.0, 187500.0, 187500.0, -187500.02235174447, -187500.02235174447, -187500.02235174447, -187500.02235174447, 0.184, -0.02, 0.994, 192.0, 0.0, 0.0, 0.0, 0.0, 0.0, 0.0, 0.0, 0.0, 0.0, 1.677618467417253E9, 0.0, 2023-02-28 16:07:47.417
74.0, 1306.5041669016084, 187500.0, 187500.0, 187500.0, -187500.02235174447, -187500.02235174447, -187500.02235174447, -187500.02235174447, 0.184, -0.02, 0.994, 192.0, 0.0, 0.0, 0.0, 0.0, 0.0, 0.0, 0.0, 0.0, 0.0, 1.677618467417264E9, 0.0, 2023-02-28 16:07:47.417
75.0, 2074.9794930195208, 187500.0, 187500.0, 187500.0, -187500.02235174447, -187500.02235174447, -187500.02235174447, -187500.02235174447, 0.184, -0.02, 0.994, 192.0, 0.0, 0.0, 0.0, 0.0, 0.0, 0.0, 0.0, 0.0, 0.0, 1.677618467424244E9, 0.0, 2023-02-28 16:07:47.424
76.0, 1896.9031449440893, 187500.0, 187500.0, 187500.0, -187500.02235174447, -187500.02235174447, -187500.02235174447, -187500.02235174447, 0.18, -0.024, 0.998, 192.0, 5.0, 160.0, 255.0, 64.0, 31.0, 48.0, 0.0, 0.0, 0.0, 1.677618467432121E9, 0.0, 2023-02-28 16:07:47.432
77.0, 1180.8873630627827, 187500.0, 187500.0, 187500.0, -187500.02235174447, -187500.02235174447, -187500.02235174447, -187500.02235174447, 0.18, -0.024, 0.998, 192.0, 0.0, 0.0, 0.0, 0.0, 0.0, 0.0, 0.0, 0.0, 0.0, 1.677618467432141E9, 0.0, 2023-02-28 16:07:47.432
78.0, 1449.6000349044843, 187500.0, 187500.0, 187500.0, -187500.02235174447, -187500.02235174447, -187500.02235174447, -187500.02235174447, 0.18, -0.024, 0.998, 192.0, 0.0, 0.0, 0.0, 0.0, 0.0, 0.0, 0.0, 0.0, 0.0, 1.677618467439266E9, 0.0, 2023-02-28 16:07:47.439
79.0, 2148.7402497220337, 187500.0, 187500.0, 187500.0, -187500.02235174447, -187500.02235174447, -187500.02235174447, -187500.02235174447, 0.18, -0.024, 0.998, 192.0, 0.0, 0.0, 0.0, 0.0, 0.0, 0.0, 0.0, 0.0, 0.0, 1.677618467439288E9, 0.0, 2023-02-28 16:07:47.439
80.0, 2155.5575317809025, 187500.0, 187500.0, 187500.0, -187500.02235174447, -187500.02235174447, -187500.02235174447, -187500.02235174447, 0.18, -0.024, 0.998, 192.0, 0.0, 0.0, 0.0, 0.0, 0.0, 0.0, 0.0, 0.0, 0.0, 1.67761846744686E9, 0.0, 2023-02-28 16:07:47.446
81.0, 1386.2104876292335, 187500.0, 187500.0, 187500.0, -187500.02235174447, -187500.02235174447, -187500.02235174447, -187500.02235174447, 0.18, -0.024, 0.998, 192.0, 0.0, 0.0, 0.0, 0.0, 0.0, 0.0, 0.0, 0.0, 0.0, 1.677618467446878E9, 0.0, 2023-02-28 16:07:47.446
82.0, 1252.904683697782, 187500.0, 187500.0, 187500.0, -187500.02235174447, -187500.02235174447, -187500.02235174447, -187500.02235174447, 0.18, -0.024, 0.998, 192.0, 0.0, 0.0, 0.0, 0.0, 0.0, 0.0, 0.0, 0.0, 0.0, 1.677618467454952E9, 0.0, 2023-02-28 16:07:47.454
83.0, 1979.939875595555, 187500.0, 187500.0, 187500.0, -187500.02235174447, -187500.02235174447, -187500.02235174447, -187500.02235174447, 0.18, -0.024, 0.998, 192.0, 0.0, 0.0, 0.0, 0.0, 0.0, 0.0, 0.0, 0.0, 0.0, 1.677618467454969E9, 0.0, 2023-02-28 16:07:47.454
84.0, 2001.06227410582, 187500.0, 187500.0, 187500.0, -187500.02235174447, -187500.02235174447, -187500.02235174447, -187500.02235174447, 0.18, -0.024, 0.998, 192.0, 0.0, 0.0, 0.0, 0.0, 0.0, 0.0, 0.0, 0.0, 0.0, 1.677618467462807E9, 0.0, 2023-02-28 16:07:47.462
85.0, 1408.0034384731578, 187500.0, 187500.0, 187500.0, -187500.02235174447, -187500.02235174447, -187500.02235174447, -187500.02235174447, 0.18, -0.024, 0.998, 192.0, 0.0, 0.0, 0.0, 0.0, 0.0, 0.0, 0.0, 0.0, 0.0, 1.677618467462829E9, 0.0, 2023-02-28 16:07:47.462
86.0, 1264.8628669813713, 187500.0, 187500.0, 187500.0, -187500.02235174447, -187500.02235174447, -187500.02235174447, -187500.02235174447, 0.18, -0.026000000000000002, 0.994, 192.0, 5.0, 160.0, 255.0, 48.0, 31.0, 16.0, 0.0, 0.0, 0.0, 1.677618467469417E9, 0.0, 2023-02-28 16:07:47.469
87.0, 1765.6089980136155, 187500.0, 187500.0, 187500.0, -187500.02235174447, -187500.02235174447, -187500.02235174447, -187500.02235174447, 0.18, -0.026000000000000002, 0.994, 192.0, 0.0, 0.0, 0.0, 0.0, 0.0, 0.0, 0.0, 0.0, 0.0, 1.677618467469431E9, 0.0, 2023-02-28 16:07:47.469
88.0, 2049.3420421292835, 187500.0, 187500.0, 187500.0, -187500.02235174447, -187500.02235174447, -187500.02235174447, -187500.02235174447, 0.18, -0.026000000000000002, 0.994, 192.0, 0.0, 0.0, 0.0, 0.0, 0.0, 0.0, 0.0, 0.0, 0.0, 1.67761846747758E9, 0.0, 2023-02-28 16:07:47.477
89.0, 1328.967670079192, 187500.0, 187500.0, 187500.0, -187500.02235174447, -187500.02235174447, -187500.02235174447, -187500.02235174447, 0.18, -0.026000000000000002, 0.994, 192.0, 0.0, 0.0, 0.0, 0.0, 0.0, 0.0, 0.0, 0.0, 0.0, 1.677618467477604E9, 0.0, 2023-02-28 16:07:47.477
90.0, 1032.9411665131054, 187500.0, 187500.0, 187500.0, -187500.02235174447, -187500.02235174447, -187500.02235174447, -187500.02235174447, 0.18, -0.026000000000000002, 0.994, 192.0, 0.0, 0.0, 0.0, 0.0, 0.0, 0.0, 0.0, 0.0, 0.0, 1.6776184674846E9, 0.0, 2023-02-28 16:07:47.484
91.0, 1919.5678138217706, 187500.0, 187500.0, 187500.0, -187500.02235174447, -187500.02235174447, -187500.02235174447, -187500.02235174447, 0.18, -0.026000000000000002, 0.994, 192.0, 0.0, 0.0, 0.0, 0.0, 0.0, 0.0, 0.0, 0.0, 0.0, 1.67761846748462E9, 0.0, 2023-02-28 16:07:47.484
92.0, 2332.3598304223815, 187500.0, 187500.0, 187500.0, -187500.02235174447, -187500.02235174447, -187500.02235174447, -187500.02235174447, 0.18, -0.026000000000000002, 0.994, 192.0, 0.0, 0.0, 0.0, 0.0, 0.0, 0.0, 0.0, 0.0, 0.0, 1.677618467492639E9, 0.0, 2023-02-28 16:07:47.492
93.0, 1631.140903370488, 187500.0, 187500.0, 187500.0, -187500.02235174447, -187500.02235174447, -187500.02235174447, -187500.02235174447, 0.18, -0.026000000000000002, 0.994, 192.0, 0.0, 0.0, 0.0, 0.0, 0.0, 0.0, 0.0, 0.0, 0.0, 1.677618467499197E9, 0.0, 2023-02-28 16:07:47.499
94.0, 1209.2070232876567, 187500.0, 187500.0, 187500.0, -187500.02235174447, -187500.02235174447, -187500.02235174447, -187500.02235174447, 0.18, -0.026000000000000002, 0.994, 192.0, 0.0, 0.0, 0.0, 0.0, 0.0, 0.0, 0.0, 0.0, 0.0, 1.677618467499212E9, 0.0, 2023-02-28 16:07:47.499
95.0, 1486.994503378213, 187500.0, 187500.0, 187500.0, -187500.02235174447, -187500.02235174447, -187500.02235174447, -187500.02235174447, 0.18, -0.026000000000000002, 0.994, 192.0, 0.0, 0.0, 0.0, 0.0, 0.0, 0.0, 0.0, 0.0, 0.0, 1.677618467507264E9, 0.0, 2023-02-28 16:07:47.507
96.0, 1997.2624775484178, 187500.0, 187500.0, 187500.0, -187500.02235174447, -187500.02235174447, -187500.02235174447, -187500.02235174447, 0.176, -0.03, 0.996, 192.0, 5.0, 128.0, 255.0, 16.0, 31.0, 32.0, 0.0, 0.0, 0.0, 1.677618467507282E9, 0.0, 2023-02-28 16:07:47.507
97.0, 1790.7323587813805, 187500.0, 187500.0, 187500.0, -187500.02235174447, -187500.02235174447, -187500.02235174447, -187500.02235174447, 0.176, -0.03, 0.996, 192.0, 0.0, 0.0, 0.0, 0.0, 0.0, 0.0, 0.0, 0.0, 0.0, 1.677618467515231E9, 0.0, 2023-02-28 16:07:47.515
98.0, 1289.7180068156729, 187500.0, 187500.0, 187500.0, -187500.02235174447, -187500.02235174447, -187500.02235174447, -187500.02235174447, 0.176, -0.03, 0.996, 192.0, 0.0, 0.0, 0.0, 0.0, 0.0, 0.0, 0.0, 0.0, 0.0, 1.67761846751525E9, 0.0, 2023-02-28 16:07:47.515
99.0, 1344.770353409094, 187500.0, 187500.0, 187500.0, -187500.02235174447, -187500.02235174447, -187500.02235174447, -187500.02235174447, 0.176, -0.03, 0.996, 192.0, 0.0, 0.0, 0.0, 0.0, 0.0, 0.0, 0.0, 0.0, 0.0, 1.677618467522093E9, 0.0, 2023-02-28 16:07:47.522
100.0, 1871.8021359207794, 187500.0, 187500.0, 187500.0, -187500.02235174447, -187500.02235174447, -187500.02235174447, -187500.02235174447, 0.176, -0.03, 0.996, 192.0, 0.0, 0.0, 0.0, 0.0, 0.0, 0.0, 0.0, 0.0, 0.0, 1.677618467522119E9, 0.0, 2023-02-28 16:07:47.522
101.0, 1773.8791434620791, 187500.0, 187500.0, 187500.0, -187500.02235174447, -187500.02235174447, -187500.02235174447, -187500.02235174447, 0.176, -0.03, 0.996, 192.0, 0.0, 0.0, 0.0, 0.0, 0.0, 0.0, 0.0, 0.0, 0.0, 1.677618467529847E9, 0.0, 2023-02-28 16:07:47.529
102.0, 1170.0914704908694, 187500.0, 187500.0, 187500.0, -187500.02235174447, -187500.02235174447, -187500.02235174447, -187500.02235174447, 0.176, -0.03, 0.996, 192.0, 0.0, 0.0, 0.0, 0.0, 0.0, 0.0, 0.0, 0.0, 0.0, 1.677618467529865E9, 0.0, 2023-02-28 16:07:47.529
103.0, 1158.84854302985, 187500.0, 187500.0, 187500.0, -187500.02235174447, -187500.02235174447, -187500.02235174447, -187500.02235174447, 0.176, -0.03, 0.996, 192.0, 0.0, 0.0, 0.0, 0.0, 0.0, 0.0, 0.0, 0.0, 0.0, 1.677618467537962E9, 0.0, 2023-02-28 16:07:47.537
104.0, 1881.5921999922039, 187500.0, 187500.0, 187500.0, -187500.02235174447, -187500.02235174447, -187500.02235174447, -187500.02235174447, 0.176, -0.03, 0.996, 192.0, 0.0, 0.0, 0.0, 0.0, 0.0, 0.0, 0.0, 0.0, 0.0, 1.677618467537991E9, 0.0, 2023-02-28 16:07:47.537
105.0, 1992.7250734239906, 187500.0, 187500.0, 187500.0, -187500.02235174447, -187500.02235174447, -187500.02235174447, -187500.02235174447, 0.176, -0.03, 0.996, 192.0, 0.0, 0.0, 0.0, 0.0, 0.0, 0.0, 0.0, 0.0, 0.0, 1.677618467545744E9, 0.0, 2023-02-28 16:07:47.545
106.0, 1323.5585479210076, 187500.0, 187500.0, 187500.0, -187500.02235174447, -187500.02235174447, -187500.02235174447, -187500.02235174447, 0.176, -0.024, 0.992, 192.0, 5.0, 128.0, 255.0, 64.0, 31.0, 0.0, 0.0, 0.0, 0.0, 1.677618467545765E9, 0.0, 2023-02-28 16:07:47.545
107.0, 1053.460067923077, 187500.0, 187500.0, 187500.0, -187500.02235174447, -187500.02235174447, -187500.02235174447, -187500.02235174447, 0.176, -0.024, 0.992, 192.0, 0.0, 0.0, 0.0, 0.0, 0.0, 0.0, 0.0, 0.0, 0.0, 1.677618467551874E9, 0.0, 2023-02-28 16:07:47.551
108.0, 1859.0169380923437, 187500.0, 187500.0, 187500.0, -187500.02235174447, -187500.02235174447, -187500.02235174447, -187500.02235174447, 0.176, -0.024, 0.992, 192.0, 0.0, 0.0, 0.0, 0.0, 0.0, 0.0, 0.0, 0.0, 0.0, 1.677618467559526E9, 0.0, 2023-02-28 16:07:47.559
109.0, 1972.8543726032226, 187500.0, 187500.0, 187500.0, -187500.02235174447, -187500.02235174447, -187500.02235174447, -187500.02235174447, 0.176, -0.024, 0.992, 192.0, 0.0, 0.0, 0.0, 0.0, 0.0, 0.0, 0.0, 0.0, 0.0, 1.677618467559553E9, 0.0, 2023-02-28 16:07:47.559
110.0, 1540.124599948478, 187500.0, 187500.0, 187500.0, -187500.02235174447, -187500.02235174447, -187500.02235174447, -187500.02235174447, 0.176, -0.024, 0.992, 192.0, 0.0, 0.0, 0.0, 0.0, 0.0, 0.0, 0.0, 0.0, 0.0, 1.677618467567492E9, 0.0, 2023-02-28 16:07:47.567
111.0, 1459.993596076202, 187500.0, 187500.0, 187500.0, -187500.02235174447, -187500.02235174447, -187500.02235174447, -187500.02235174447, 0.176, -0.024, 0.992, 192.0, 0.0, 0.0, 0.0, 0.0, 0.0, 0.0, 0.0, 0.0, 0.0, 1.677618467567514E9, 0.0, 2023-02-28 16:07:47.567
112.0, 1524.1654544073886, 187500.0, 187500.0, 187500.0, -187500.02235174447, -187500.02235174447, -187500.02235174447, -187500.02235174447, 0.176, -0.024, 0.992, 192.0, 0.0, 0.0, 0.0, 0.0, 0.0, 0.0, 0.0, 0.0, 0.0, 1.677618467575724E9, 0.0, 2023-02-28 16:07:47.575
113.0, 1842.4319437065058, 187500.0, 187500.0, 187500.0, -187500.02235174447, -187500.02235174447, -187500.02235174447, -187500.02235174447, 0.176, -0.024, 0.992, 192.0, 0.0, 0.0, 0.0, 0.0, 0.0, 0.0, 0.0, 0.0, 0.0, 1.677618467575738E9, 0.0, 2023-02-28 16:07:47.575
114.0, 1387.998627185658, 187500.0, 187500.0, 187500.0, -187500.02235174447, -187500.02235174447, -187500.02235174447, -187500.02235174447, 0.176, -0.024, 0.992, 192.0, 0.0, 0.0, 0.0, 0.0, 0.0, 0.0, 0.0, 0.0, 0.0, 1.677618467582082E9, 0.0, 2023-02-28 16:07:47.582
115.0, 995.1220148947257, 187500.0, 187500.0, 187500.0, -187500.02235174447, -187500.02235174447, -187500.02235174447, -187500.02235174447, 0.176, -0.024, 0.992, 192.0, 0.0, 0.0, 0.0, 0.0, 0.0, 0.0, 0.0, 0.0, 0.0, 1.677618467582095E9, 0.0, 2023-02-28 16:07:47.582
116.0, 1626.111760868044, 187500.0, 187500.0, 187500.0, -187500.02235174447, -187500.02235174447, -187500.02235174447, -187500.02235174447, 0.18, -0.024, 0.992, 192.0, 5.0, 160.0, 255.0, 64.0, 31.0, 0.0, 0.0, 0.0, 0.0, 1.677618467590193E9, 0.0, 2023-02-28 16:07:47.590
117.0, 1883.201525592986, 187500.0, 187500.0, 187500.0, -187500.02235174447, -187500.02235174447, -187500.02235174447, -187500.02235174447, 0.18, -0.024, 0.992, 192.0, 0.0, 0.0, 0.0, 0.0, 0.0, 0.0, 0.0, 0.0, 0.0, 1.677618467590211E9, 0.0, 2023-02-28 16:07:47.590
118.0, 1714.9599450778896, 187500.0, 187500.0, 187500.0, -187500.02235174447, -187500.02235174447, -187500.02235174447, -187500.02235174447, 0.18, -0.024, 0.992, 192.0, 0.0, 0.0, 0.0, 0.0, 0.0, 0.0, 0.0, 0.0, 0.0, 1.677618467598104E9, 0.0, 2023-02-28 16:07:47.598
119.0, 732.3772588225912, 187500.0, 187500.0, 187500.0, -187500.02235174447, -187500.02235174447, -187500.02235174447, -187500.02235174447, 0.18, -0.024, 0.992, 192.0, 0.0, 0.0, 0.0, 0.0, 0.0, 0.0, 0.0, 0.0, 0.0, 1.677618467598121E9, 0.0, 2023-02-28 16:07:47.598
120.0, 1319.8258065969715, 187500.0, 187500.0, 187500.0, -187500.02235174447, -187500.02235174447, -187500.02235174447, -187500.02235174447, 0.18, -0.024, 0.992, 192.0, 0.0, 0.0, 0.0, 0.0, 0.0, 0.0, 0.0, 0.0, 0.0, 1.677618467604688E9, 0.0, 2023-02-28 16:07:47.604
121.0, 2455.3167766710253, 187500.0, 187500.0, 187500.0, -187500.02235174447, -187500.02235174447, -187500.02235174447, -187500.02235174447, 0.18, -0.024, 0.992, 192.0, 0.0, 0.0, 0.0, 0.0, 0.0, 0.0, 0.0, 0.0, 0.0, 1.677618467604715E9, 0.0, 2023-02-28 16:07:47.604
122.0, 1417.346467655476, 187500.0, 187500.0, 187500.0, -187500.02235174447, -187500.02235174447, -187500.02235174447, -187500.02235174447, 0.18, -0.024, 0.992, 192.0, 0.0, 0.0, 0.0, 0.0, 0.0, 0.0, 0.0, 0.0, 0.0, 1.677618467611838E9, 0.0, 2023-02-28 16:07:47.611
123.0, 791.1399949955935, 187500.0, 187500.0, 187500.0, -187500.02235174447, -187500.02235174447, -187500.02235174447, -187500.02235174447, 0.18, -0.024, 0.992, 192.0, 0.0, 0.0, 0.0, 0.0, 0.0, 0.0, 0.0, 0.0, 0.0, 1.677618467619833E9, 0.0, 2023-02-28 16:07:47.619
124.0, 1566.4326031723742, 187500.0, 187500.0, 187500.0, -187500.02235174447, -187500.02235174447, -187500.02235174447, -187500.02235174447, 0.18, -0.024, 0.992, 192.0, 0.0, 0.0, 0.0, 0.0, 0.0, 0.0, 0.0, 0.0, 0.0, 1.677618467619852E9, 0.0, 2023-02-28 16:07:47.619
125.0, 1929.71550580448, 187500.0, 187500.0, 187500.0, -187500.02235174447, -187500.02235174447, -187500.02235174447, -187500.02235174447, 0.18, -0.024, 0.992, 192.0, 0.0, 0.0, 0.0, 0.0, 0.0, 0.0, 0.0, 0.0, 0.0, 1.677618467627787E9, 0.0, 2023-02-28 16:07:47.627
126.0, 1820.1919579734754, 187500.0, 187500.0, 187500.0, -187500.02235174447, -187500.02235174447, -187500.02235174447, -187500.02235174447, 0.18, -0.024, 0.99, 192.0, 5.0, 160.0, 255.0, 64.0, 30.0, 240.0, 0.0, 0.0, 0.0, 1.677618467627802E9, 0.0, 2023-02-28 16:07:47.627
127.0, 1025.9674222430494, 187500.0, 187500.0, 187500.0, -187500.02235174447, -187500.02235174447, -187500.02235174447, -187500.02235174447, 0.18, -0.024, 0.99, 192.0, 0.0, 0.0, 0.0, 0.0, 0.0, 0.0, 0.0, 0.0, 0.0, 1.677618467634293E9, 0.0, 2023-02-28 16:07:47.634
128.0, 941.4331247130782, 187500.0, 187500.0, 187500.0, -187500.02235174447, -187500.02235174447, -187500.02235174447, -187500.02235174447, 0.18, -0.024, 0.99, 192.0, 0.0, 0.0, 0.0, 0.0, 0.0, 0.0, 0.0, 0.0, 0.0, 1.677618467634308E9, 0.0, 2023-02-28 16:07:47.634
129.0, 2094.581972906825, 187500.0, 187500.0, 187500.0, -187500.02235174447, -187500.02235174447, -187500.02235174447, -187500.02235174447, 0.18, -0.024, 0.99, 192.0, 0.0, 0.0, 0.0, 0.0, 0.0, 0.0, 0.0, 0.0, 0.0, 1.677618467642397E9, 0.0, 2023-02-28 16:07:47.642
130.0, 2028.286698852384, 187500.0, 187500.0, 187500.0, -187500.02235174447, -187500.02235174447, -187500.02235174447, -187500.02235174447, 0.18, -0.024, 0.99, 192.0, 0.0, 0.0, 0.0, 0.0, 0.0, 0.0, 0.0, 0.0, 0.0, 1.677618467642423E9, 0.0, 2023-02-28 16:07:47.642
131.0, 1210.2128517881456, 187500.0, 187500.0, 187500.0, -187500.02235174447, -187500.02235174447, -187500.02235174447, -187500.02235174447, 0.18, -0.024, 0.99, 192.0, 0.0, 0.0, 0.0, 0.0, 0.0, 0.0, 0.0, 0.0, 0.0, 1.677618467650352E9, 0.0, 2023-02-28 16:07:47.650
132.0, 1283.0571869679914, 187500.0, 187500.0, 187500.0, -187500.02235174447, -187500.02235174447, -187500.02235174447, -187500.02235174447, 0.18, -0.024, 0.99, 192.0, 0.0, 0.0, 0.0, 0.0, 0.0, 0.0, 0.0, 0.0, 0.0, 1.677618467650373E9, 0.0, 2023-02-28 16:07:47.650
133.0, 1683.2875231847195, 187500.0, 187500.0, 187500.0, -187500.02235174447, -187500.02235174447, -187500.02235174447, -187500.02235174447, 0.18, -0.024, 0.99, 192.0, 0.0, 0.0, 0.0, 0.0, 0.0, 0.0, 0.0, 0.0, 0.0, 1.677618467657456E9, 0.0, 2023-02-28 16:07:47.657
134.0, 1681.6111423505715, 187500.0, 187500.0, 187500.0, -187500.02235174447, -187500.02235174447, -187500.02235174447, -187500.02235174447, 0.18, -0.024, 0.99, 192.0, 0.0, 0.0, 0.0, 0.0, 0.0, 0.0, 0.0, 0.0, 0.0, 1.677618467657475E9, 0.0, 2023-02-28 16:07:47.657
135.0, 1030.5718816008427, 187500.0, 187500.0, 187500.0, -187500.02235174447, -187500.02235174447, -187500.02235174447, -187500.02235174447, 0.17400000000000002, -0.024, 0.996, 192.0, 5.0, 112.0, 255.0, 64.0, 31.0, 32.0, 0.0, 0.0, 0.0, 1.677618467664947E9, 0.0, 2023-02-28 16:07:47.664
136.0, 902.5187376163885, 187500.0, 187500.0, 187500.0, -187500.02235174447, -187500.02235174447, -187500.02235174447, -187500.02235174447, 0.17400000000000002, -0.024, 0.996, 192.0, 0.0, 0.0, 0.0, 0.0, 0.0, 0.0, 0.0, 0.0, 0.0, 1.677618467664962E9, 0.0, 2023-02-28 16:07:47.664
137.0, 1746.4535530154174, 187500.0, 187500.0, 187500.0, -187500.02235174447, -187500.02235174447, -187500.02235174447, -187500.02235174447, 0.17400000000000002, -0.024, 0.996, 192.0, 0.0, 0.0, 0.0, 0.0, 0.0, 0.0, 0.0, 0.0, 0.0, 1.677618467672E9, 0.0, 2023-02-28 16:07:47.672
138.0, 2447.3148521560256, 187500.0, 187500.0, 187500.0, -187500.02235174447, -187500.02235174447, -187500.02235174447, -187500.02235174447, 0.17400000000000002, -0.024, 0.996, 192.0, 0.0, 0.0, 0.0, 0.0, 0.0, 0.0, 0.0, 0.0, 0.0, 1.677618467680007E9, 0.0, 2023-02-28 16:07:47.680
139.0, 2264.3434720448818, 187500.0, 187500.0, 187500.0, -187500.02235174447, -187500.02235174447, -187500.02235174447, -187500.02235174447, 0.17400000000000002, -0.024, 0.996, 192.0, 0.0, 0.0, 0.0, 0.0, 0.0, 0.0, 0.0, 0.0, 0.0, 1.677618467680019E9, 0.0, 2023-02-28 16:07:47.680
140.0, 1051.6048731332867, 187500.0, 187500.0, 187500.0, -187500.02235174447, -187500.02235174447, -187500.02235174447, -187500.02235174447, 0.17400000000000002, -0.024, 0.996, 192.0, 0.0, 0.0, 0.0, 0.0, 0.0, 0.0, 0.0, 0.0, 0.0, 1.677618467687059E9, 0.0, 2023-02-28 16:07:47.687
141.0, 797.6667043765432, 187500.0, 187500.0, 187500.0, -187500.02235174447, -187500.02235174447, -187500.02235174447, -187500.02235174447, 0.17400000000000002, -0.024, 0.996, 192.0, 0.0, 0.0, 0.0, 0.0, 0.0, 0.0, 0.0, 0.0, 0.0, 1.677618467687078E9, 0.0, 2023-02-28 16:07:47.687
142.0, 1739.0998290896214, 187500.0, 187500.0, 187500.0, -187500.02235174447, -187500.02235174447, -187500.02235174447, -187500.02235174447, 0.17400000000000002, -0.024, 0.996, 192.0, 0.0, 0.0, 0.0, 0.0, 0.0, 0.0, 0.0, 0.0, 0.0, 1.677618467694682E9, 0.0, 2023-02-28 16:07:47.694
143.0, 1536.213044668799, 187500.0, 187500.0, 187500.0, -187500.02235174447, -187500.02235174447, -187500.02235174447, -187500.02235174447, 0.17400000000000002, -0.024, 0.996, 192.0, 0.0, 0.0, 0.0, 0.0, 0.0, 0.0, 0.0, 0.0, 0.0, 1.677618467694702E9, 0.0, 2023-02-28 16:07:47.694
144.0, 1422.8449967914817, 187500.0, 187500.0, 187500.0, -187500.02235174447, -187500.02235174447, -187500.02235174447, -187500.02235174447, 0.17400000000000002, -0.024, 0.996, 192.0, 0.0, 0.0, 0.0, 0.0, 0.0, 0.0, 0.0, 0.0, 0.0, 1.677618467702668E9, 0.0, 2023-02-28 16:07:47.702
145.0, 1119.0847896438588, 187500.0, 187500.0, 187500.0, -187500.02235174447, -187500.02235174447, -187500.02235174447, -187500.02235174447, 0.17400000000000002, -0.022, 0.994, 192.0, 5.0, 112.0, 255.0, 80.0, 31.0, 16.0, 0.0, 0.0, 0.0, 1.677618467702686E9, 0.0, 2023-02-28 16:07:47.702
146.0, 1652.598578047583, 187500.0, 187500.0, 187500.0, -187500.02235174447, -187500.02235174447, -187500.02235174447, -187500.02235174447, 0.17400000000000002, -0.022, 0.994, 192.0, 0.0, 0.0, 0.0, 0.0, 0.0, 0.0, 0.0, 0.0, 0.0, 1.677618467710661E9, 0.0, 2023-02-28 16:07:47.710
147.0, 1736.3505645216185, 187500.0, 187500.0, 187500.0, -187500.02235174447, -187500.02235174447, -187500.02235174447, -187500.02235174447, 0.17400000000000002, -0.022, 0.994, 192.0, 0.0, 0.0, 0.0, 0.0, 0.0, 0.0, 0.0, 0.0, 0.0, 1.67761846771068E9, 0.0, 2023-02-28 16:07:47.710
148.0, 1129.8583304713168, 187500.0, 187500.0, 187500.0, -187500.02235174447, -187500.02235174447, -187500.02235174447, -187500.02235174447, 0.17400000000000002, -0.022, 0.994, 192.0, 0.0, 0.0, 0.0, 0.0, 0.0, 0.0, 0.0, 0.0, 0.0, 1.677618467717285E9, 0.0, 2023-02-28 16:07:47.717
149.0, 852.1826091030371, 187500.0, 187500.0, 187500.0, -187500.02235174447, -187500.02235174447, -187500.02235174447, -187500.02235174447, 0.17400000000000002, -0.022, 0.994, 192.0, 0.0, 0.0, 0.0, 0.0, 0.0, 0.0, 0.0, 0.0, 0.0, 1.6776184677173E9, 0.0, 2023-02-28 16:07:47.717
150.0, 1569.6289026294833, 187500.0, 187500.0, 187500.0, -187500.02235174447, -187500.02235174447, -187500.02235174447, -187500.02235174447, 0.17400000000000002, -0.022, 0.994, 192.0, 0.0, 0.0, 0.0, 0.0, 0.0, 0.0, 0.0, 0.0, 0.0, 1.677618467725252E9, 0.0, 2023-02-28 16:07:47.725
151.0, 1775.242599873853, 187500.0, 187500.0, 187500.0, -187500.02235174447, -187500.02235174447, -187500.02235174447, -187500.02235174447, 0.17400000000000002, -0.022, 0.994, 192.0, 0.0, 0.0, 0.0, 0.0, 0.0, 0.0, 0.0, 0.0, 0.0, 1.677618467725272E9, 0.0, 2023-02-28 16:07:47.725
152.0, 1085.5348212164429, 187500.0, 187500.0, 187500.0, -187500.02235174447, -187500.02235174447, -187500.02235174447, -187500.02235174447, 0.17400000000000002, -0.022, 0.994, 192.0, 0.0, 0.0, 0.0, 0.0, 0.0, 0.0, 0.0, 0.0, 0.0, 1.677618467732313E9, 0.0, 2023-02-28 16:07:47.732
153.0, 1029.722515311541, 187500.0, 187500.0, 187500.0, -187500.02235174447, -187500.02235174447, -187500.02235174447, -187500.02235174447, 0.17400000000000002, -0.022, 0.994, 192.0, 0.0, 0.0, 0.0, 0.0, 0.0, 0.0, 0.0, 0.0, 0.0, 1.677618467732336E9, 0.0, 2023-02-28 16:07:47.732
154.0, 1727.9239568619678, 187500.0, 187500.0, 187500.0, -187500.02235174447, -187500.02235174447, -187500.02235174447, -187500.02235174447, 0.17400000000000002, -0.022, 0.994, 192.0, 0.0, 0.0, 0.0, 0.0, 0.0, 0.0, 0.0, 0.0, 0.0, 1.677618467740334E9, 0.0, 2023-02-28 16:07:47.740
155.0, 1963.0643085317981, 187500.0, 187500.0, 187500.0, -187500.02235174447, -187500.02235174447, -187500.02235174447, -187500.02235174447, 0.168, -0.026000000000000002, 0.998, 192.0, 5.0, 64.0, 255.0, 48.0, 31.0, 48.0, 0.0, 0.0, 0.0, 1.677618467746968E9, 0.0, 2023-02-28 16:07:47.746
156.0, 1546.5842540960616, 187500.0, 187500.0, 187500.0, -187500.02235174447, -187500.02235174447, -187500.02235174447, -187500.02235174447, 0.168, -0.026000000000000002, 0.998, 192.0, 0.0, 0.0, 0.0, 0.0, 0.0, 0.0, 0.0, 0.0, 0.0, 1.677618467746986E9, 0.0, 2023-02-28 16:07:47.746
157.0, 721.4249040394908, 187500.0, 187500.0, 187500.0, -187500.02235174447, -187500.02235174447, -187500.02235174447, -187500.02235174447, 0.168, -0.026000000000000002, 0.998, 192.0, 0.0, 0.0, 0.0, 0.0, 0.0, 0.0, 0.0, 0.0, 0.0, 1.677618467754919E9, 0.0, 2023-02-28 16:07:47.754
158.0, 1142.174141666191, 187500.0, 187500.0, 187500.0, -187500.02235174447, -187500.02235174447, -187500.02235174447, -187500.02235174447, 0.168, -0.026000000000000002, 0.998, 192.0, 0.0, 0.0, 0.0, 0.0, 0.0, 0.0, 0.0, 0.0, 0.0, 1.677618467754937E9, 0.0, 2023-02-28 16:07:47.754
159.0, 1768.201800370431, 187500.0, 187500.0, 187500.0, -187500.02235174447, -187500.02235174447, -187500.02235174447, -187500.02235174447, 0.168, -0.026000000000000002, 0.998, 192.0, 0.0, 0.0, 0.0, 0.0, 0.0, 0.0, 0.0, 0.0, 0.0, 1.677618467762908E9, 0.0, 2023-02-28 16:07:47.762
160.0, 1174.3830054262885, 187500.0, 187500.0, 187500.0, -187500.02235174447, -187500.02235174447, -187500.02235174447, -187500.02235174447, 0.168, -0.026000000000000002, 0.998, 192.0, 0.0, 0.0, 0.0, 0.0, 0.0, 0.0, 0.0, 0.0, 0.0, 1.677618467762923E9, 0.0, 2023-02-28 16:07:47.762
161.0, 918.4555314130225, 187500.0, 187500.0, 187500.0, -187500.02235174447, -187500.02235174447, -187500.02235174447, -187500.02235174447, 0.168, -0.026000000000000002, 0.998, 192.0, 0.0, 0.0, 0.0, 0.0, 0.0, 0.0, 0.0, 0.0, 0.0, 1.677618467769576E9, 0.0, 2023-02-28 16:07:47.769
162.0, 1509.9497449338132, 187500.0, 187500.0, 187500.0, -187500.02235174447, -187500.02235174447, -187500.02235174447, -187500.02235174447, 0.168, -0.026000000000000002, 0.998, 192.0, 0.0, 0.0, 0.0, 0.0, 0.0, 0.0, 0.0, 0.0, 0.0, 1.677618467769594E9, 0.0, 2023-02-28 16:07:47.769
163.0, 1845.0918012966874, 187500.0, 187500.0, 187500.0, -187500.02235174447, -187500.02235174447, -187500.02235174447, -187500.02235174447, 0.168, -0.026000000000000002, 0.998, 192.0, 0.0, 0.0, 0.0, 0.0, 0.0, 0.0, 0.0, 0.0, 0.0, 1.677618467777555E9, 0.0, 2023-02-28 16:07:47.777
164.0, 1393.4301010882975, 187500.0, 187500.0, 187500.0, -187500.02235174447, -187500.02235174447, -187500.02235174447, -187500.02235174447, 0.168, -0.026000000000000002, 0.998, 192.0, 0.0, 0.0, 0.0, 0.0, 0.0, 0.0, 0.0, 0.0, 0.0, 1.677618467777577E9, 0.0, 2023-02-28 16:07:47.777
165.0, 987.6565322466532, 187500.0, 187500.0, 187500.0, -187500.02235174447, -187500.02235174447, -187500.02235174447, -187500.02235174447, 0.17, -0.024, 0.996, 192.0, 5.0, 80.0, 255.0, 64.0, 31.0, 32.0, 0.0, 0.0, 0.0, 1.677618467785583E9, 0.0, 2023-02-28 16:07:47.785
166.0, 1345.1056295759238, 187500.0, 187500.0, 187500.0, -187500.02235174447, -187500.02235174447, -187500.02235174447, -187500.02235174447, 0.17, -0.024, 0.996, 192.0, 0.0, 0.0, 0.0, 0.0, 0.0, 0.0, 0.0, 0.0, 0.0, 1.677618467785609E9, 0.0, 2023-02-28 16:07:47.785
167.0, 1740.1280093345654, 187500.0, 187500.0, 187500.0, -187500.02235174447, -187500.02235174447, -187500.02235174447, -187500.02235174447, 0.17, -0.024, 0.996, 192.0, 0.0, 0.0, 0.0, 0.0, 0.0, 0.0, 0.0, 0.0, 0.0, 1.677618467792593E9, 0.0, 2023-02-28 16:07:47.792
168.0, 1474.9692648612577, 187500.0, 187500.0, 187500.0, -187500.02235174447, -187500.02235174447, -187500.02235174447, -187500.02235174447, 0.17, -0.024, 0.996, 192.0, 0.0, 0.0, 0.0, 0.0, 0.0, 0.0, 0.0, 0.0, 0.0, 1.677618467792612E9, 0.0, 2023-02-28 16:07:47.792
169.0, 1138.8660834868056, 187500.0, 187500.0, 187500.0, -187500.02235174447, -187500.02235174447, -187500.02235174447, -187500.02235174447, 0.17, -0.024, 0.996, 192.0, 0.0, 0.0, 0.0, 0.0, 0.0, 0.0, 0.0, 0.0, 0.0, 1.677618467799221E9, 0.0, 2023-02-28 16:07:47.799
170.0, 1050.9119690551722, 187500.0, 187500.0, 187500.0, -187500.02235174447, -187500.02235174447, -187500.02235174447, -187500.02235174447, 0.17, -0.024, 0.996, 192.0, 0.0, 0.0, 0.0, 0.0, 0.0, 0.0, 0.0, 0.0, 0.0, 1.677618467807306E9, 0.0, 2023-02-28 16:07:47.807
171.0, 1627.2964033241753, 187500.0, 187500.0, 187500.0, -187500.02235174447, -187500.02235174447, -187500.02235174447, -187500.02235174447, 0.17, -0.024, 0.996, 192.0, 0.0, 0.0, 0.0, 0.0, 0.0, 0.0, 0.0, 0.0, 0.0, 1.677618467807332E9, 0.0, 2023-02-28 16:07:47.807
172.0, 1577.7202341223044, 187500.0, 187500.0, 187500.0, -187500.02235174447, -187500.02235174447, -187500.02235174447, -187500.02235174447, 0.17, -0.024, 0.996, 192.0, 0.0, 0.0, 0.0, 0.0, 0.0, 0.0, 0.0, 0.0, 0.0, 1.677618467815159E9, 0.0, 2023-02-28 16:07:47.815
173.0, 852.1379056141265, 187500.0, 187500.0, 187500.0, -187500.02235174447, -187500.02235174447, -187500.02235174447, -187500.02235174447, 0.17, -0.024, 0.996, 192.0, 0.0, 0.0, 0.0, 0.0, 0.0, 0.0, 0.0, 0.0, 0.0, 1.677618467815178E9, 0.0, 2023-02-28 16:07:47.815
174.0, 1260.101945412391, 187500.0, 187500.0, 187500.0, -187500.02235174447, -187500.02235174447, -187500.02235174447, -187500.02235174447, 0.17, -0.024, 0.996, 192.0, 0.0, 0.0, 0.0, 0.0, 0.0, 0.0, 0.0, 0.0, 0.0, 1.677618467822322E9, 0.0, 2023-02-28 16:07:47.822
175.0, 1925.71454354698, 187500.0, 187500.0, 187500.0, -187500.02235174447, -187500.02235174447, -187500.02235174447, -187500.02235174447, 0.17400000000000002, -0.026000000000000002, 1.0, 192.0, 5.0, 112.0, 255.0, 48.0, 31.0, 64.0, 0.0, 0.0, 0.0, 1.677618467822346E9, 0.0, 2023-02-28 16:07:47.822
176.0, 1810.9606875134334, 187500.0, 187500.0, 187500.0, -187500.02235174447, -187500.02235174447, -187500.02235174447, -187500.02235174447, 0.17400000000000002, -0.026000000000000002, 1.0, 192.0, 0.0, 0.0, 0.0, 0.0, 0.0, 0.0, 0.0, 0.0, 0.0, 1.677618467829836E9, 0.0, 2023-02-28 16:07:47.829
177.0, 963.114316834726, 187500.0, 187500.0, 187500.0, -187500.02235174447, -187500.02235174447, -187500.02235174447, -187500.02235174447, 0.17400000000000002, -0.026000000000000002, 1.0, 192.0, 0.0, 0.0, 0.0, 0.0, 0.0, 0.0, 0.0, 0.0, 0.0, 1.677618467829854E9, 0.0, 2023-02-28 16:07:47.829
178.0, 881.7986705063189, 187500.0, 187500.0, 187500.0, -187500.02235174447, -187500.02235174447, -187500.02235174447, -187500.02235174447, 0.17400000000000002, -0.026000000000000002, 1.0, 192.0, 0.0, 0.0, 0.0, 0.0, 0.0, 0.0, 0.0, 0.0, 0.0, 1.677618467837896E9, 0.0, 2023-02-28 16:07:47.837
179.0, 1828.2609377218412, 187500.0, 187500.0, 187500.0, -187500.02235174447, -187500.02235174447, -187500.02235174447, -187500.02235174447, 0.17400000000000002, -0.026000000000000002, 1.0, 192.0, 0.0, 0.0, 0.0, 0.0, 0.0, 0.0, 0.0, 0.0, 0.0, 1.677618467837912E9, 0.0, 2023-02-28 16:07:47.837
180.0, 1696.1844797354318, 187500.0, 187500.0, 187500.0, -187500.02235174447, -187500.02235174447, -187500.02235174447, -187500.02235174447, 0.17400000000000002, -0.026000000000000002, 1.0, 192.0, 0.0, 0.0, 0.0, 0.0, 0.0, 0.0, 0.0, 0.0, 0.0, 1.677618467845777E9, 0.0, 2023-02-28 16:07:47.845
181.0, 1256.1456866438016, 187500.0, 187500.0, 187500.0, -187500.02235174447, -187500.02235174447, -187500.02235174447, -187500.02235174447, 0.17400000000000002, -0.026000000000000002, 1.0, 192.0, 0.0, 0.0, 0.0, 0.0, 0.0, 0.0, 0.0, 0.0, 0.0, 1.677618467845793E9, 0.0, 2023-02-28 16:07:47.845
182.0, 730.6338227550773, 187500.0, 187500.0, 187500.0, -187500.02235174447, -187500.02235174447, -187500.02235174447, -187500.02235174447, 0.17400000000000002, -0.026000000000000002, 1.0, 192.0, 0.0, 0.0, 0.0, 0.0, 0.0, 0.0, 0.0, 0.0, 0.0, 1.677618467852469E9, 0.0, 2023-02-28 16:07:47.852
183.0, 1144.7445922785512, 187500.0, 187500.0, 187500.0, -187500.02235174447, -187500.02235174447, -187500.02235174447, -187500.02235174447, 0.17400000000000002, -0.026000000000000002, 1.0, 192.0, 0.0, 0.0, 0.0, 0.0, 0.0, 0.0, 0.0, 0.0, 0.0, 1.677618467852484E9, 0.0, 2023-02-28 16:07:47.852
184.0, 1943.9535670225105, 187500.0, 187500.0, 187500.0, -187500.02235174447, -187500.02235174447, -187500.02235174447, -187500.02235174447, 0.18, -0.022, 1.0, 192.0, 5.0, 160.0, 255.0, 80.0, 31.0, 64.0, 0.0, 0.0, 0.0, 1.677618467859422E9, 0.0, 2023-02-28 16:07:47.859
185.0, 1128.852501970828, 187500.0, 187500.0, 187500.0, -187500.02235174447, -187500.02235174447, -187500.02235174447, -187500.02235174447, 0.18, -0.022, 1.0, 192.0, 0.0, 0.0, 0.0, 0.0, 0.0, 0.0, 0.0, 0.0, 0.0, 1.677618467867424E9, 0.0, 2023-02-28 16:07:47.867
186.0, 606.4698823058466, 187500.0, 187500.0, 187500.0, -187500.02235174447, -187500.02235174447, -187500.02235174447, -187500.02235174447, 0.18, -0.022, 1.0, 192.0, 0.0, 0.0, 0.0, 0.0, 0.0, 0.0, 0.0, 0.0, 0.0, 1.677618467867449E9, 0.0, 2023-02-28 16:07:47.867
187.0, 1281.4478613672093, 187500.0, 187500.0, 187500.0, -187500.02235174447, -187500.02235174447, -187500.02235174447, -187500.02235174447, 0.18, -0.022, 1.0, 192.0, 0.0, 0.0, 0.0, 0.0, 0.0, 0.0, 0.0, 0.0, 0.0, 1.677618467875647E9, 0.0, 2023-02-28 16:07:47.875
188.0, 1959.7562503524127, 187500.0, 187500.0, 187500.0, -187500.02235174447, -187500.02235174447, -187500.02235174447, -187500.02235174447, 0.18, -0.022, 1.0, 192.0, 0.0, 0.0, 0.0, 0.0, 0.0, 0.0, 0.0, 0.0, 0.0, 1.677618467875668E9, 0.0, 2023-02-28 16:07:47.875
189.0, 1569.6289026294833, 187500.0, 187500.0, 187500.0, -187500.02235174447, -187500.02235174447, -187500.02235174447, -187500.02235174447, 0.18, -0.022, 1.0, 192.0, 0.0, 0.0, 0.0, 0.0, 0.0, 0.0, 0.0, 0.0, 0.0, 1.677618467882072E9, 0.0, 2023-02-28 16:07:47.882
190.0, 773.8397447871859, 187500.0, 187500.0, 187500.0, -187500.02235174447, -187500.02235174447, -187500.02235174447, -187500.02235174447, 0.18, -0.022, 1.0, 192.0, 0.0, 0.0, 0.0, 0.0, 0.0, 0.0, 0.0, 0.0, 0.0, 1.67761846788209E9, 0.0, 2023-02-28 16:07:47.882
191.0, 1119.7329902330625, 187500.0, 187500.0, 187500.0, -187500.02235174447, -187500.02235174447, -187500.02235174447, -187500.02235174447, 0.18, -0.022, 1.0, 192.0, 0.0, 0.0, 0.0, 0.0, 0.0, 0.0, 0.0, 0.0, 0.0, 1.677618467890134E9, 0.0, 2023-02-28 16:07:47.890
192.0, 1650.2963483686863, 187500.0, 187500.0, 187500.0, -187500.02235174447, -187500.02235174447, -187500.02235174447, -187500.02235174447, 0.18, -0.022, 1.0, 192.0, 0.0, 0.0, 0.0, 0.0, 0.0, 0.0, 0.0, 0.0, 0.0, 1.677618467890155E9, 0.0, 2023-02-28 16:07:47.890
193.0, 1312.9414693047368, 187500.0, 187500.0, 187500.0, -187500.02235174447, -187500.02235174447, -187500.02235174447, -187500.02235174447, 0.18, -0.022, 1.0, 192.0, 0.0, 0.0, 0.0, 0.0, 0.0, 0.0, 0.0, 0.0, 0.0, 1.677618467898135E9, 0.0, 2023-02-28 16:07:47.898
194.0, 625.4018098594917, 187500.0, 187500.0, 187500.0, -187500.02235174447, -187500.02235174447, -187500.02235174447, -187500.02235174447, 0.176, -0.016, 0.994, 192.0, 5.0, 128.0, 255.0, 128.0, 31.0, 16.0, 0.0, 0.0, 0.0, 1.67761846789815E9, 0.0, 2023-02-28 16:07:47.898
195.0, 1121.6105367673083, 187500.0, 187500.0, 187500.0, -187500.02235174447, -187500.02235174447, -187500.02235174447, -187500.02235174447, 0.176, -0.016, 0.994, 192.0, 0.0, 0.0, 0.0, 0.0, 0.0, 0.0, 0.0, 0.0, 0.0, 1.677618467905427E9, 0.0, 2023-02-28 16:07:47.905
196.0, 1764.8713904465903, 187500.0, 187500.0, 187500.0, -187500.02235174447, -187500.02235174447, -187500.02235174447, -187500.02235174447, 0.176, -0.016, 0.994, 192.0, 0.0, 0.0, 0.0, 0.0, 0.0, 0.0, 0.0, 0.0, 0.0, 1.677618467905446E9, 0.0, 2023-02-28 16:07:47.905
197.0, 1340.545873707041, 187500.0, 187500.0, 187500.0, -187500.02235174447, -187500.02235174447, -187500.02235174447, -187500.02235174447, 0.176, -0.016, 0.994, 192.0, 0.0, 0.0, 0.0, 0.0, 0.0, 0.0, 0.0, 0.0, 0.0, 1.677618467912774E9, 0.0, 2023-02-28 16:07:47.912
198.0, 771.9845499973953, 187500.0, 187500.0, 187500.0, -187500.02235174447, -187500.02235174447, -187500.02235174447, -187500.02235174447, 0.176, -0.016, 0.994, 192.0, 0.0, 0.0, 0.0, 0.0, 0.0, 0.0, 0.0, 0.0, 0.0, 1.677618467912793E9, 0.0, 2023-02-28 16:07:47.912
199.0, 1001.112282408748, 187500.0, 187500.0, 187500.0, -187500.02235174447, -187500.02235174447, -187500.02235174447, -187500.02235174447, 0.176, -0.016, 0.994, 192.0, 0.0, 0.0, 0.0, 0.0, 0.0, 0.0, 0.0, 0.0, 0.0, 1.677618467919787E9, 0.0, 2023-02-28 16:07:47.919
200.0, 2023.3693150722165, 187500.0, 187500.0, 187500.0, -187500.02235174447, -187500.02235174447, -187500.02235174447, -187500.02235174447, 0.176, -0.016, 0.994, 192.0, 0.0, 0.0, 0.0, 0.0, 0.0, 0.0, 0.0, 0.0, 0.0, 1.677618467927919E9, 0.0, 2023-02-28 16:07:47.927
201.0, 1856.2229700354303, 187500.0, 187500.0, 187500.0, -187500.02235174447, -187500.02235174447, -187500.02235174447, -187500.02235174447, 0.176, -0.016, 0.994, 192.0, 0.0, 0.0, 0.0, 0.0, 0.0, 0.0, 0.0, 0.0, 0.0, 1.67761846792793E9, 0.0, 2023-02-28 16:07:47.927
202.0, 874.8025744918078, 187500.0, 187500.0, 187500.0, -187500.02235174447, -187500.02235174447, -187500.02235174447, -187500.02235174447, 0.176, -0.016, 0.994, 192.0, 0.0, 0.0, 0.0, 0.0, 0.0, 0.0, 0.0, 0.0, 0.0, 1.677618467934412E9, 0.0, 2023-02-28 16:07:47.934
203.0, 455.70736595480037, 187500.0, 187500.0, 187500.0, -187500.02235174447, -187500.02235174447, -187500.02235174447, -187500.02235174447, 0.176, -0.016, 0.994, 192.0, 0.0, 0.0, 0.0, 0.0, 0.0, 0.0, 0.0, 0.0, 0.0, 1.677618467934424E9, 0.0, 2023-02-28 16:07:47.934
204.0, 1236.7890759455056, 187500.0, 187500.0, 187500.0, -187500.02235174447, -187500.02235174447, -187500.02235174447, -187500.02235174447, 0.17400000000000002, -0.022, 0.994, 192.0, 5.0, 112.0, 255.0, 80.0, 31.0, 16.0, 0.0, 0.0, 0.0, 1.677618467942485E9, 0.0, 2023-02-28 16:07:47.942
205.0, 1615.9417171408793, 187500.0, 187500.0, 187500.0, -187500.02235174447, -187500.02235174447, -187500.02235174447, -187500.02235174447, 0.17400000000000002, -0.022, 0.994, 192.0, 0.0, 0.0, 0.0, 0.0, 0.0, 0.0, 0.0, 0.0, 0.0, 1.677618467942513E9, 0.0, 2023-02-28 16:07:47.942
206.0, 980.436918787589, 187500.0, 187500.0, 187500.0, -187500.02235174447, -187500.02235174447, -187500.02235174447, -187500.02235174447, 0.17400000000000002, -0.022, 0.994, 192.0, 0.0, 0.0, 0.0, 0.0, 0.0, 0.0, 0.0, 0.0, 0.0, 1.677618467950419E9, 0.0, 2023-02-28 16:07:47.950
207.0, 608.034504417718, 187500.0, 187500.0, 187500.0, -187500.02235174447, -187500.02235174447, -187500.02235174447, -187500.02235174447, 0.17400000000000002, -0.022, 0.994, 192.0, 0.0, 0.0, 0.0, 0.0, 0.0, 0.0, 0.0, 0.0, 0.0, 1.677618467950446E9, 0.0, 2023-02-28 16:07:47.950
208.0, 1301.7208935881727, 187500.0, 187500.0, 187500.0, -187500.02235174447, -187500.02235174447, -187500.02235174447, -187500.02235174447, 0.17400000000000002, -0.022, 0.994, 192.0, 0.0, 0.0, 0.0, 0.0, 0.0, 0.0, 0.0, 0.0, 0.0, 1.677618467957551E9, 0.0, 2023-02-28 16:07:47.957
209.0, 1856.625301435626, 187500.0, 187500.0, 187500.0, -187500.02235174447, -187500.02235174447, -187500.02235174447, -187500.02235174447, 0.17400000000000002, -0.022, 0.994, 192.0, 0.0, 0.0, 0.0, 0.0, 0.0, 0.0, 0.0, 0.0, 0.0, 1.677618467957567E9, 0.0, 2023-02-28 16:07:47.957
210.0, 1217.6112792028523, 187500.0, 187500.0, 187500.0, -187500.02235174447, -187500.02235174447, -187500.02235174447, -187500.02235174447, 0.17400000000000002, -0.022, 0.994, 192.0, 0.0, 0.0, 0.0, 0.0, 0.0, 0.0, 0.0, 0.0, 0.0, 1.677618467965069E9, 0.0, 2023-02-28 16:07:47.965
211.0, 780.6793785905098, 187500.0, 187500.0, 187500.0, -187500.02235174447, -187500.02235174447, -187500.02235174447, -187500.02235174447, 0.17400000000000002, -0.022, 0.994, 192.0, 0.0, 0.0, 0.0, 0.0, 0.0, 0.0, 0.0, 0.0, 0.0, 1.677618467965087E9, 0.0, 2023-02-28 16:07:47.965
212.0, 1257.5314948000307, 187500.0, 187500.0, 187500.0, -187500.02235174447, -187500.02235174447, -187500.02235174447, -187500.02235174447, 0.17400000000000002, -0.022, 0.994, 192.0, 0.0, 0.0, 0.0, 0.0, 0.0, 0.0, 0.0, 0.0, 0.0, 1.677618467973097E9, 0.0, 2023-02-28 16:07:47.973
213.0, 1749.1581140945095, 187500.0, 187500.0, 187500.0, -187500.02235174447, -187500.02235174447, -187500.02235174447, -187500.02235174447, 0.17400000000000002, -0.022, 0.994, 192.0, 0.0, 0.0, 0.0, 0.0, 0.0, 0.0, 0.0, 0.0, 0.0, 1.677618467973113E9, 0.0, 2023-02-28 16:07:47.973
214.0, 1169.2868076904783, 187500.0, 187500.0, 187500.0, -187500.02235174447, -187500.02235174447, -187500.02235174447, -187500.02235174447, 0.17400000000000002, -0.02, 0.996, 192.0, 5.0, 112.0, 255.0, 96.0, 31.0, 32.0, 0.0, 0.0, 0.0, 1.677618467980069E9, 0.0, 2023-02-28 16:07:47.980
215.0, 408.1652054983623, 187500.0, 187500.0, 187500.0, -187500.02235174447, -187500.02235174447, -187500.02235174447, -187500.02235174447, 0.17400000000000002, -0.02, 0.996, 192.0, 0.0, 0.0, 0.0, 0.0, 0.0, 0.0, 0.0, 0.0, 0.0, 1.677618467980083E9, 0.0, 2023-02-28 16:07:47.980
216.0, 879.0047024494055, 187500.0, 187500.0, 187500.0, -187500.02235174447, -187500.02235174447, -187500.02235174447, -187500.02235174447, 0.17400000000000002, -0.02, 0.996, 192.0, 0.0, 0.0, 0.0, 0.0, 0.0, 0.0, 0.0, 0.0, 0.0, 1.677618467987323E9, 0.0, 2023-02-28 16:07:47.987
217.0, 2097.577106663836, 187500.0, 187500.0, 187500.0, -187500.02235174447, -187500.02235174447, -187500.02235174447, -187500.02235174447, 0.17400000000000002, -0.02, 0.996, 192.0, 0.0, 0.0, 0.0, 0.0, 0.0, 0.0, 0.0, 0.0, 0.0, 1.677618467994669E9, 0.0, 2023-02-28 16:07:47.994
218.0, 1205.1390057967908, 187500.0, 187500.0, 187500.0, -187500.02235174447, -187500.02235174447, -187500.02235174447, -187500.02235174447, 0.17400000000000002, -0.02, 0.996, 192.0, 0.0, 0.0, 0.0, 0.0, 0.0, 0.0, 0.0, 0.0, 0.0, 1.67761846799469E9, 0.0, 2023-02-28 16:07:47.994
219.0, 258.4755728811709, 187500.0, 187500.0, 187500.0, -187500.02235174447, -187500.02235174447, -187500.02235174447, -187500.02235174447, 0.17400000000000002, -0.02, 0.996, 192.0, 0.0, 0.0, 0.0, 0.0, 0.0, 0.0, 0.0, 0.0, 0.0, 1.677618468002753E9, 0.0, 2023-02-28 16:07:48.002
220.0, 1023.0840472083149, 187500.0, 187500.0, 187500.0, -187500.02235174447, -187500.02235174447, -187500.02235174447, -187500.02235174447, 0.17400000000000002, -0.02, 0.996, 192.0, 0.0, 0.0, 0.0, 0.0, 0.0, 0.0, 0.0, 0.0, 0.0, 1.677618468002776E9, 0.0, 2023-02-28 16:07:48.002
221.0, 1469.8283636365372, 187500.0, 187500.0, 187500.0, -187500.02235174447, -187500.02235174447, -187500.02235174447, -187500.02235174447, 0.17400000000000002, -0.02, 0.996, 192.0, 0.0, 0.0, 0.0, 0.0, 0.0, 0.0, 0.0, 0.0, 0.0, 1.677618468010725E9, 0.0, 2023-02-28 16:07:48.010
222.0, 1408.4728251067193, 187500.0, 187500.0, 187500.0, -187500.02235174447, -187500.02235174447, -187500.02235174447, -187500.02235174447, 0.17400000000000002, -0.02, 0.996, 192.0, 0.0, 0.0, 0.0, 0.0, 0.0, 0.0, 0.0, 0.0, 0.0, 1.677618468010743E9, 0.0, 2023-02-28 16:07:48.010
223.0, 1280.6431985668182, 187500.0, 187500.0, 187500.0, -187500.02235174447, -187500.02235174447, -187500.02235174447, -187500.02235174447, 0.17400000000000002, -0.02, 0.996, 192.0, 0.0, 0.0, 0.0, 0.0, 0.0, 0.0, 0.0, 0.0, 0.0, 1.677618468017312E9, 0.0, 2023-02-28 16:07:48.017
224.0, 775.8514017881635, 187500.0, 187500.0, 187500.0, -187500.02235174447, -187500.02235174447, -187500.02235174447, -187500.02235174447, 0.178, -0.02, 0.996, 192.0, 5.0, 144.0, 255.0, 96.0, 31.0, 32.0, 0.0, 0.0, 0.0, 1.677618468017324E9, 0.0, 2023-02-28 16:07:48.017
225.0, 1185.2683049760228, 187500.0, 187500.0, 187500.0, -187500.02235174447, -187500.02235174447, -187500.02235174447, -187500.02235174447, 0.178, -0.02, 0.996, 192.0, 0.0, 0.0, 0.0, 0.0, 0.0, 0.0, 0.0, 0.0, 0.0, 1.677618468025279E9, 0.0, 2023-02-28 16:07:48.025
226.0, 1230.038849120003, 187500.0, 187500.0, 187500.0, -187500.02235174447, -187500.02235174447, -187500.02235174447, -187500.02235174447, 0.178, -0.02, 0.996, 192.0, 0.0, 0.0, 0.0, 0.0, 0.0, 0.0, 0.0, 0.0, 0.0, 1.677618468025298E9, 0.0, 2023-02-28 16:07:48.025
227.0, 636.2647576647709, 187500.0, 187500.0, 187500.0, -187500.02235174447, -187500.02235174447, -187500.02235174447, -187500.02235174447, 0.178, -0.02, 0.996, 192.0, 0.0, 0.0, 0.0, 0.0, 0.0, 0.0, 0.0, 0.0, 0.0, 1.677618468033343E9, 0.0, 2023-02-28 16:07:48.033
228.0, 505.0823694565737, 187500.0, 187500.0, 187500.0, -187500.02235174447, -187500.02235174447, -187500.02235174447, -187500.02235174447, 0.178, -0.02, 0.996, 192.0, 0.0, 0.0, 0.0, 0.0, 0.0, 0.0, 0.0, 0.0, 0.0, 1.677618468033364E9, 0.0, 2023-02-28 16:07:48.033
229.0, 1322.0609810425021, 187500.0, 187500.0, 187500.0, -187500.02235174447, -187500.02235174447, -187500.02235174447, -187500.02235174447, 0.178, -0.02, 0.996, 192.0, 0.0, 0.0, 0.0, 0.0, 0.0, 0.0, 0.0, 0.0, 0.0, 1.677618468040573E9, 0.0, 2023-02-28 16:07:48.040
230.0, 1721.7325236478478, 187500.0, 187500.0, 187500.0, -187500.02235174447, -187500.02235174447, -187500.02235174447, -187500.02235174447, 0.178, -0.02, 0.996, 192.0, 0.0, 0.0, 0.0, 0.0, 0.0, 0.0, 0.0, 0.0, 0.0, 1.677618468040587E9, 0.0, 2023-02-28 16:07:48.040
231.0, 1111.3510860623226, 187500.0, 187500.0, 187500.0, -187500.02235174447, -187500.02235174447, -187500.02235174447, -187500.02235174447, 0.178, -0.02, 0.996, 192.0, 0.0, 0.0, 0.0, 0.0, 0.0, 0.0, 0.0, 0.0, 0.0, 1.677618468046981E9, 0.0, 2023-02-28 16:07:48.046
232.0, 617.7575132557766, 187500.0, 187500.0, 187500.0, -187500.02235174447, -187500.02235174447, -187500.02235174447, -187500.02235174447, 0.178, -0.02, 0.996, 192.0, 0.0, 0.0, 0.0, 0.0, 0.0, 0.0, 0.0, 0.0, 0.0, 1.677618468054977E9, 0.0, 2023-02-28 16:07:48.054
233.0, 1295.9764952631588, 187500.0, 187500.0, 187500.0, -187500.02235174447, -187500.02235174447, -187500.02235174447, -187500.02235174447, 0.178, -0.02, 0.996, 192.0, 0.0, 0.0, 0.0, 0.0, 0.0, 0.0, 0.0, 0.0, 0.0, 1.677618468054995E9, 0.0, 2023-02-28 16:07:48.054
234.0, 1599.4237779884074, 187500.0, 187500.0, 187500.0, -187500.02235174447, -187500.02235174447, -187500.02235174447, -187500.02235174447, 0.182, -0.028, 0.996, 192.0, 5.0, 176.0, 255.0, 32.0, 31.0, 32.0, 0.0, 0.0, 0.0, 1.677618468063093E9, 0.0, 2023-02-28 16:07:48.063
235.0, 1230.552939242475, 187500.0, 187500.0, 187500.0, -187500.02235174447, -187500.02235174447, -187500.02235174447, -187500.02235174447, 0.182, -0.028, 0.996, 192.0, 0.0, 0.0, 0.0, 0.0, 0.0, 0.0, 0.0, 0.0, 0.0, 1.677618468063115E9, 0.0, 2023-02-28 16:07:48.063
236.0, 1064.0324430504375, 187500.0, 187500.0, 187500.0, -187500.02235174447, -187500.02235174447, -187500.02235174447, -187500.02235174447, 0.182, -0.028, 0.996, 192.0, 0.0, 0.0, 0.0, 0.0, 0.0, 0.0, 0.0, 0.0, 0.0, 1.677618468069538E9, 0.0, 2023-02-28 16:07:48.069
237.0, 898.4060166366121, 187500.0, 187500.0, 187500.0, -187500.02235174447, -187500.02235174447, -187500.02235174447, -187500.02235174447, 0.182, -0.028, 0.996, 192.0, 0.0, 0.0, 0.0, 0.0, 0.0, 0.0, 0.0, 0.0, 0.0, 1.677618468069557E9, 0.0, 2023-02-28 16:07:48.069
238.0, 1278.519782843564, 187500.0, 187500.0, 187500.0, -187500.02235174447, -187500.02235174447, -187500.02235174447, -187500.02235174447, 0.182, -0.028, 0.996, 192.0, 0.0, 0.0, 0.0, 0.0, 0.0, 0.0, 0.0, 0.0, 0.0, 1.677618468077661E9, 0.0, 2023-02-28 16:07:48.077
239.0, 998.5418317963877, 187500.0, 187500.0, 187500.0, -187500.02235174447, -187500.02235174447, -187500.02235174447, -187500.02235174447, 0.182, -0.028, 0.996, 192.0, 0.0, 0.0, 0.0, 0.0, 0.0, 0.0, 0.0, 0.0, 0.0, 1.677618468077683E9, 0.0, 2023-02-28 16:07:48.077
240.0, 461.29530206862717, 187500.0, 187500.0, 187500.0, -187500.02235174447, -187500.02235174447, -187500.02235174447, -187500.02235174447, 0.182, -0.028, 0.996, 192.0, 0.0, 0.0, 0.0, 0.0, 0.0, 0.0, 0.0, 0.0, 0.0, 1.677618468085704E9, 0.0, 2023-02-28 16:07:48.085
241.0, 895.4108828796009, 187500.0, 187500.0, 187500.0, -187500.02235174447, -187500.02235174447, -187500.02235174447, -187500.02235174447, 0.182, -0.028, 0.996, 192.0, 0.0, 0.0, 0.0, 0.0, 0.0, 0.0, 0.0, 0.0, 0.0, 1.67761846808572E9, 0.0, 2023-02-28 16:07:48.085
242.0, 1540.9963179822348, 187500.0, 187500.0, 187500.0, -187500.02235174447, -187500.02235174447, -187500.02235174447, -187500.02235174447, 0.182, -0.028, 0.996, 192.0, 0.0, 0.0, 0.0, 0.0, 0.0, 0.0, 0.0, 0.0, 0.0, 1.677618468092687E9, 0.0, 2023-02-28 16:07:48.092
243.0, 1339.6294521843736, 187500.0, 187500.0, 187500.0, -187500.02235174447, -187500.02235174447, -187500.02235174447, -187500.02235174447, 0.176, -0.028, 0.988, 192.0, 5.0, 128.0, 255.0, 32.0, 30.0, 224.0, 0.0, 0.0, 0.0, 1.677618468092702E9, 0.0, 2023-02-28 16:07:48.092
244.0, 579.647788959478, 187500.0, 187500.0, 187500.0, -187500.02235174447, -187500.02235174447, -187500.02235174447, -187500.02235174447, 0.176, -0.028, 0.988, 192.0, 0.0, 0.0, 0.0, 0.0, 0.0, 0.0, 0.0, 0.0, 0.0, 1.677618468100244E9, 0.0, 2023-02-28 16:07:48.100
245.0, 888.2136211649921, 187500.0, 187500.0, 187500.0, -187500.02235174447, -187500.02235174447, -187500.02235174447, -187500.02235174447, 0.176, -0.028, 0.988, 192.0, 0.0, 0.0, 0.0, 0.0, 0.0, 0.0, 0.0, 0.0, 0.0, 1.677618468100262E9, 0.0, 2023-02-28 16:07:48.100
246.0, 1598.3061907656422, 187500.0, 187500.0, 187500.0, -187500.02235174447, -187500.02235174447, -187500.02235174447, -187500.02235174447, 0.176, -0.028, 0.988, 192.0, 0.0, 0.0, 0.0, 0.0, 0.0, 0.0, 0.0, 0.0, 0.0, 1.67761846810731E9, 0.0, 2023-02-28 16:07:48.107
247.0, 1620.0097346317452, 187500.0, 187500.0, 187500.0, -187500.02235174447, -187500.02235174447, -187500.02235174447, -187500.02235174447, 0.176, -0.028, 0.988, 192.0, 0.0, 0.0, 0.0, 0.0, 0.0, 0.0, 0.0, 0.0, 0.0, 1.677618468115395E9, 0.0, 2023-02-28 16:07:48.115
248.0, 573.1881348118943, 187500.0, 187500.0, 187500.0, -187500.02235174447, -187500.02235174447, -187500.02235174447, -187500.02235174447, 0.176, -0.028, 0.988, 192.0, 0.0, 0.0, 0.0, 0.0, 0.0, 0.0, 0.0, 0.0, 0.0, 1.677618468115417E9, 0.0, 2023-02-28 16:07:48.115
249.0, 550.7916868676766, 187500.0, 187500.0, 187500.0, -187500.02235174447, -187500.02235174447, -187500.02235174447, -187500.02235174447, 0.176, -0.028, 0.988, 192.0, 0.0, 0.0, 0.0, 0.0, 0.0, 0.0, 0.0, 0.0, 0.0, 1.677618468122388E9, 0.0, 2023-02-28 16:07:48.122
250.0, 1625.0388771341893, 187500.0, 187500.0, 187500.0, -187500.02235174447, -187500.02235174447, -187500.02235174447, -187500.02235174447, 0.176, -0.028, 0.988, 192.0, 0.0, 0.0, 0.0, 0.0, 0.0, 0.0, 0.0, 0.0, 0.0, 1.677618468122411E9, 0.0, 2023-02-28 16:07:48.122
251.0, 1625.7094294678486, 187500.0, 187500.0, 187500.0, -187500.02235174447, -187500.02235174447, -187500.02235174447, -187500.02235174447, 0.176, -0.028, 0.988, 192.0, 0.0, 0.0, 0.0, 0.0, 0.0, 0.0, 0.0, 0.0, 0.0, 1.677618468131098E9, 0.0, 2023-02-28 16:07:48.131
252.0, 586.4203675294361, 187500.0, 187500.0, 187500.0, -187500.02235174447, -187500.02235174447, -187500.02235174447, -187500.02235174447, 0.176, -0.028, 0.988, 192.0, 0.0, 0.0, 0.0, 0.0, 0.0, 0.0, 0.0, 0.0, 0.0, 1.677618468131157E9, 0.0, 2023-02-28 16:07:48.131
253.0, 727.5269302757896, 187500.0, 187500.0, 187500.0, -187500.02235174447, -187500.02235174447, -187500.02235174447, -187500.02235174447, 0.17200000000000001, -0.026000000000000002, 0.992, 192.0, 5.0, 96.0, 255.0, 48.0, 31.0, 0.0, 0.0, 0.0, 0.0, 1.677618468137919E9, 0.0, 2023-02-28 16:07:48.137
254.0, 1144.8339992563724, 187500.0, 187500.0, 187500.0, -187500.02235174447, -187500.02235174447, -187500.02235174447, -187500.02235174447, 0.17200000000000001, -0.026000000000000002, 0.992, 192.0, 0.0, 0.0, 0.0, 0.0, 0.0, 0.0, 0.0, 0.0, 0.0, 1.677618468137935E9, 0.0, 2023-02-28 16:07:48.137
255.0, 1221.2546135490672, 187500.0, 187500.0, 187500.0, -187500.02235174447, -187500.02235174447, -187500.02235174447, -187500.02235174447, 0.17200000000000001, -0.026000000000000002, 0.992, 192.0, 0.0, 0.0, 0.0, 0.0, 0.0, 0.0, 0.0, 0.0, 0.0, 1.677618468145905E9, 0.0, 2023-02-28 16:07:48.145
0.0, 1055.1588005016806, 187500.0, 187500.0, 187500.0, -187500.02235174447, -187500.02235174447, -187500.02235174447, -187500.02235174447, 0.17200000000000001, -0.026000000000000002, 0.992, 192.0, 0.0, 0.0, 0.0, 0.0, 0.0, 0.0, 0.0, 0.0, 0.0, 1.677618468145918E9, 0.0, 2023-02-28 16:07:48.145
1.0, 631.0120977177737, 187500.0, 187500.0, 187500.0, -187500.02235174447, -187500.02235174447, -187500.02235174447, -187500.02235174447, 0.17200000000000001, -0.026000000000000002, 0.992, 192.0, 0.0, 0.0, 0.0, 0.0, 0.0, 0.0, 0.0, 0.0, 0.0, 1.677618468152503E9, 0.0, 2023-02-28 16:07:48.152
2.0, 696.4580054829128, 187500.0, 187500.0, 187500.0, -187500.02235174447, -187500.02235174447, -187500.02235174447, -187500.02235174447, 0.17200000000000001, -0.026000000000000002, 0.992, 192.0, 0.0, 0.0, 0.0, 0.0, 0.0, 0.0, 0.0, 0.0, 0.0, 1.677618468152519E9, 0.0, 2023-02-28 16:07:48.152
3.0, 1403.8236622600155, 187500.0, 187500.0, 187500.0, -187500.02235174447, -187500.02235174447, -187500.02235174447, -187500.02235174447, 0.17200000000000001, -0.026000000000000002, 0.992, 192.0, 0.0, 0.0, 0.0, 0.0, 0.0, 0.0, 0.0, 0.0, 0.0, 1.677618468160514E9, 0.0, 2023-02-28 16:07:48.160
4.0, 938.4156392116117, 187500.0, 187500.0, 187500.0, -187500.02235174447, -187500.02235174447, -187500.02235174447, -187500.02235174447, 0.17200000000000001, -0.026000000000000002, 0.992, 192.0, 0.0, 0.0, 0.0, 0.0, 0.0, 0.0, 0.0, 0.0, 0.0, 1.677618468160538E9, 0.0, 2023-02-28 16:07:48.160
5.0, 632.643775063011, 187500.0, 187500.0, 187500.0, -187500.02235174447, -187500.02235174447, -187500.02235174447, -187500.02235174447, 0.17200000000000001, -0.026000000000000002, 0.992, 192.0, 0.0, 0.0, 0.0, 0.0, 0.0, 0.0, 0.0, 0.0, 0.0, 1.677618468167619E9, 0.0, 2023-02-28 16:07:48.167
6.0, 944.2047410255362, 187500.0, 187500.0, 187500.0, -187500.02235174447, -187500.02235174447, -187500.02235174447, -187500.02235174447, 0.17200000000000001, -0.026000000000000002, 0.992, 192.0, 0.0, 0.0, 0.0, 0.0, 0.0, 0.0, 0.0, 0.0, 0.0, 1.677618468175793E9, 0.0, 2023-02-28 16:07:48.175
7.0, 1247.4061545617765, 187500.0, 187500.0, 187500.0, -187500.02235174447, -187500.02235174447, -187500.02235174447, -187500.02235174447, 0.176, -0.024, 0.994, 192.0, 5.0, 128.0, 255.0, 64.0, 31.0, 16.0, 0.0, 0.0, 0.0, 1.677618468175806E9, 0.0, 2023-02-28 16:07:48.175
8.0, 1250.1777708742347, 187500.0, 187500.0, 187500.0, -187500.02235174447, -187500.02235174447, -187500.02235174447, -187500.02235174447, 0.176, -0.024, 0.994, 192.0, 0.0, 0.0, 0.0, 0.0, 0.0, 0.0, 0.0, 0.0, 0.0, 1.677618468182183E9, 0.0, 2023-02-28 16:07:48.182
9.0, 469.2972265836271, 187500.0, 187500.0, 187500.0, -187500.02235174447, -187500.02235174447, -187500.02235174447, -187500.02235174447, 0.176, -0.024, 0.994, 192.0, 0.0, 0.0, 0.0, 0.0, 0.0, 0.0, 0.0, 0.0, 0.0, 1.677618468182195E9, 0.0, 2023-02-28 16:07:48.182
10.0, 543.6167768975231, 187500.0, 187500.0, 187500.0, -187500.02235174447, -187500.02235174447, -187500.02235174447, -187500.02235174447, 0.176, -0.024, 0.994, 192.0, 0.0, 0.0, 0.0, 0.0, 0.0, 0.0, 0.0, 0.0, 0.0, 1.677618468190149E9, 0.0, 2023-02-28 16:07:48.190
11.0, 1506.3958175654195, 187500.0, 187500.0, 187500.0, -187500.02235174447, -187500.02235174447, -187500.02235174447, -187500.02235174447, 0.176, -0.024, 0.994, 192.0, 0.0, 0.0, 0.0, 0.0, 0.0, 0.0, 0.0, 0.0, 0.0, 1.677618468190207E9, 0.0, 2023-02-28 16:07:48.190
12.0, 1213.006819845059, 187500.0, 187500.0, 187500.0, -187500.02235174447, -187500.02235174447, -187500.02235174447, -187500.02235174447, 0.176, -0.024, 0.994, 192.0, 0.0, 0.0, 0.0, 0.0, 0.0, 0.0, 0.0, 0.0, 0.0, 1.677618468198162E9, 0.0, 2023-02-28 16:07:48.198
13.0, 392.7425018242004, 187500.0, 187500.0, 187500.0, -187500.02235174447, -187500.02235174447, -187500.02235174447, -187500.02235174447, 0.176, -0.024, 0.994, 192.0, 0.0, 0.0, 0.0, 0.0, 0.0, 0.0, 0.0, 0.0, 0.0, 1.677618468198184E9, 0.0, 2023-02-28 16:07:48.198
14.0, 560.358233494548, 187500.0, 187500.0, 187500.0, -187500.02235174447, -187500.02235174447, -187500.02235174447, -187500.02235174447, 0.176, -0.024, 0.994, 192.0, 0.0, 0.0, 0.0, 0.0, 0.0, 0.0, 0.0, 0.0, 0.0, 1.677618468205321E9, 0.0, 2023-02-28 16:07:48.205
15.0, 1240.678279480729, 187500.0, 187500.0, 187500.0, -187500.02235174447, -187500.02235174447, -187500.02235174447, -187500.02235174447, 0.176, -0.024, 0.994, 192.0, 0.0, 0.0, 0.0, 0.0, 0.0, 0.0, 0.0, 0.0, 0.0, 1.677618468205338E9, 0.0, 2023-02-28 16:07:48.205
16.0, 1508.832157711048, 187500.0, 187500.0, 187500.0, -187500.02235174447, -187500.02235174447, -187500.02235174447, -187500.02235174447, 0.176, -0.024, 0.994, 192.0, 0.0, 0.0, 0.0, 0.0, 0.0, 0.0, 0.0, 0.0, 0.0, 1.677618468212845E9, 0.0, 2023-02-28 16:07:48.212
17.0, 736.1100001466275, 187500.0, 187500.0, 187500.0, -187500.02235174447, -187500.02235174447, -187500.02235174447, -187500.02235174447, 0.17200000000000001, -0.02, 0.99, 192.0, 5.0, 96.0, 255.0, 96.0, 30.0, 240.0, 0.0, 0.0, 0.0, 1.677618468212858E9, 0.0, 2023-02-28 16:07:48.212
18.0, 227.80897948848957, 187500.0, 187500.0, 187500.0, -187500.02235174447, -187500.02235174447, -187500.02235174447, -187500.02235174447, 0.17200000000000001, -0.02, 0.99, 192.0, 0.0, 0.0, 0.0, 0.0, 0.0, 0.0, 0.0, 0.0, 0.0, 1.677618468220897E9, 0.0, 2023-02-28 16:07:48.220
19.0, 1286.6334660808404, 187500.0, 187500.0, 187500.0, -187500.02235174447, -187500.02235174447, -187500.02235174447, -187500.02235174447, 0.17200000000000001, -0.02, 0.99, 192.0, 0.0, 0.0, 0.0, 0.0, 0.0, 0.0, 0.0, 0.0, 0.0, 1.677618468220917E9, 0.0, 2023-02-28 16:07:48.220
20.0, 1287.9745707481588, 187500.0, 187500.0, 187500.0, -187500.02235174447, -187500.02235174447, -187500.02235174447, -187500.02235174447, 0.17200000000000001, -0.02, 0.99, 192.0, 0.0, 0.0, 0.0, 0.0, 0.0, 0.0, 0.0, 0.0, 0.0, 1.677618468227774E9, 0.0, 2023-02-28 16:07:48.227
21.0, 478.8637732104985, 187500.0, 187500.0, 187500.0, -187500.02235174447, -187500.02235174447, -187500.02235174447, -187500.02235174447, 0.17200000000000001, -0.02, 0.99, 192.0, 0.0, 0.0, 0.0, 0.0, 0.0, 0.0, 0.0, 0.0, 0.0, 1.677618468227794E9, 0.0, 2023-02-28 16:07:48.227
22.0, 301.5473844465476, 187500.0, 187500.0, 187500.0, -187500.02235174447, -187500.02235174447, -187500.02235174447, -187500.02235174447, 0.17200000000000001, -0.02, 0.99, 192.0, 0.0, 0.0, 0.0, 0.0, 0.0, 0.0, 0.0, 0.0, 0.0, 1.677618468234974E9, 0.0, 2023-02-28 16:07:48.234
23.0, 1131.758228750018, 187500.0, 187500.0, 187500.0, -187500.02235174447, -187500.02235174447, -187500.02235174447, -187500.02235174447, 0.17200000000000001, -0.02, 0.99, 192.0, 0.0, 0.0, 0.0, 0.0, 0.0, 0.0, 0.0, 0.0, 0.0, 1.677618468242465E9, 0.0, 2023-02-28 16:07:48.242
24.0, 1489.028512123646, 187500.0, 187500.0, 187500.0, -187500.02235174447, -187500.02235174447, -187500.02235174447, -187500.02235174447, 0.17200000000000001, -0.02, 0.99, 192.0, 0.0, 0.0, 0.0, 0.0, 0.0, 0.0, 0.0, 0.0, 0.0, 1.677618468242495E9, 0.0, 2023-02-28 16:07:48.242
25.0, 475.041624908641, 187500.0, 187500.0, 187500.0, -187500.02235174447, -187500.02235174447, -187500.02235174447, -187500.02235174447, 0.17200000000000001, -0.02, 0.99, 192.0, 0.0, 0.0, 0.0, 0.0, 0.0, 0.0, 0.0, 0.0, 0.0, 1.677618468250556E9, 0.0, 2023-02-28 16:07:48.250
26.0, 219.76235148457903, 187500.0, 187500.0, 187500.0, -187500.02235174447, -187500.02235174447, -187500.02235174447, -187500.02235174447, 0.17200000000000001, -0.02, 0.99, 192.0, 0.0, 0.0, 0.0, 0.0, 0.0, 0.0, 0.0, 0.0, 0.0, 1.6776184682506E9, 0.0, 2023-02-28 16:07:48.250
27.0, 932.9841653089721, 187500.0, 187500.0, 187500.0, -187500.02235174447, -187500.02235174447, -187500.02235174447, -187500.02235174447, 0.17400000000000002, -0.024, 0.992, 192.0, 5.0, 112.0, 255.0, 64.0, 31.0, 0.0, 0.0, 0.0, 0.0, 1.677618468257974E9, 0.0, 2023-02-28 16:07:48.257
28.0, 1351.5652837235075, 187500.0, 187500.0, 187500.0, -187500.02235174447, -187500.02235174447, -187500.02235174447, -187500.02235174447, 0.17400000000000002, -0.024, 0.992, 192.0, 0.0, 0.0, 0.0, 0.0, 0.0, 0.0, 0.0, 0.0, 0.0, 1.677618468257991E9, 0.0, 2023-02-28 16:07:48.257
29.0, 825.6287366901323, 187500.0, 187500.0, 187500.0, -187500.02235174447, -187500.02235174447, -187500.02235174447, -187500.02235174447, 0.17400000000000002, -0.024, 0.992, 192.0, 0.0, 0.0, 0.0, 0.0, 0.0, 0.0, 0.0, 0.0, 0.0, 1.677618468265132E9, 0.0, 2023-02-28 16:07:48.265
30.0, -18.909575809189775, 187500.0, 187500.0, 187500.0, -187500.02235174447, -187500.02235174447, -187500.02235174447, -187500.02235174447, 0.17400000000000002, -0.024, 0.992, 192.0, 0.0, 0.0, 0.0, 0.0, 0.0, 0.0, 0.0, 0.0, 0.0, 1.677618468265155E9, 0.0, 2023-02-28 16:07:48.265
31.0, 618.4504173338911, 187500.0, 187500.0, 187500.0, -187500.02235174447, -187500.02235174447, -187500.02235174447, -187500.02235174447, 0.17400000000000002, -0.024, 0.992, 192.0, 0.0, 0.0, 0.0, 0.0, 0.0, 0.0, 0.0, 0.0, 0.0, 1.677618468273117E9, 0.0, 2023-02-28 16:07:48.273
32.0, 1540.3928208819416, 187500.0, 187500.0, 187500.0, -187500.02235174447, -187500.02235174447, -187500.02235174447, -187500.02235174447, 0.17400000000000002, -0.024, 0.992, 192.0, 0.0, 0.0, 0.0, 0.0, 0.0, 0.0, 0.0, 0.0, 0.0, 1.677618468273171E9, 0.0, 2023-02-28 16:07:48.273
33.0, 939.8237991122961, 187500.0, 187500.0, 187500.0, -187500.02235174447, -187500.02235174447, -187500.02235174447, -187500.02235174447, 0.17400000000000002, -0.024, 0.992, 192.0, 0.0, 0.0, 0.0, 0.0, 0.0, 0.0, 0.0, 0.0, 0.0, 1.67761846828111E9, 0.0, 2023-02-28 16:07:48.281
34.0, 106.90839372973367, 187500.0, 187500.0, 187500.0, -187500.02235174447, -187500.02235174447, -187500.02235174447, -187500.02235174447, 0.17400000000000002, -0.024, 0.992, 192.0, 0.0, 0.0, 0.0, 0.0, 0.0, 0.0, 0.0, 0.0, 0.0, 1.677618468281173E9, 0.0, 2023-02-28 16:07:48.281
35.0, 442.5198367261692, 187500.0, 187500.0, 187500.0, -187500.02235174447, -187500.02235174447, -187500.02235174447, -187500.02235174447, 0.17400000000000002, -0.024, 0.992, 192.0, 0.0, 0.0, 0.0, 0.0, 0.0, 0.0, 0.0, 0.0, 0.0, 1.677618468287678E9, 0.0, 2023-02-28 16:07:48.287
36.0, 1153.1935516826572, 187500.0, 187500.0, 187500.0, -187500.02235174447, -187500.02235174447, -187500.02235174447, -187500.02235174447, 0.17400000000000002, -0.024, 0.992, 192.0, 0.0, 0.0, 0.0, 0.0, 0.0, 0.0, 0.0, 0.0, 0.0, 1.677618468287702E9, 0.0, 2023-02-28 16:07:48.287
37.0, 874.8025744918078, 187500.0, 187500.0, 187500.0, -187500.02235174447, -187500.02235174447, -187500.02235174447, -187500.02235174447, 0.176, -0.022, 0.988, 192.0, 5.0, 128.0, 255.0, 80.0, 30.0, 224.0, 0.0, 0.0, 0.0, 1.677618468294731E9, 0.0, 2023-02-28 16:07:48.294
38.0, 329.3306028044943, 187500.0, 187500.0, 187500.0, -187500.02235174447, -187500.02235174447, -187500.02235174447, -187500.02235174447, 0.176, -0.022, 0.988, 192.0, 0.0, 0.0, 0.0, 0.0, 0.0, 0.0, 0.0, 0.0, 0.0, 1.677618468302874E9, 0.0, 2023-02-28 16:07:48.302
39.0, 535.9948320382633, 187500.0, 187500.0, 187500.0, -187500.02235174447, -187500.02235174447, -187500.02235174447, -187500.02235174447, 0.176, -0.022, 0.988, 192.0, 0.0, 0.0, 0.0, 0.0, 0.0, 0.0, 0.0, 0.0, 0.0, 1.677618468302889E9, 0.0, 2023-02-28 16:07:48.302
40.0, 1210.7045901661625, 187500.0, 187500.0, 187500.0, -187500.02235174447, -187500.02235174447, -187500.02235174447, -187500.02235174447, 0.176, -0.022, 0.988, 192.0, 0.0, 0.0, 0.0, 0.0, 0.0, 0.0, 0.0, 0.0, 0.0, 1.677618468310647E9, 0.0, 2023-02-28 16:07:48.310
41.0, 969.3504535377567, 187500.0, 187500.0, 187500.0, -187500.02235174447, -187500.02235174447, -187500.02235174447, -187500.02235174447, 0.176, -0.022, 0.988, 192.0, 0.0, 0.0, 0.0, 0.0, 0.0, 0.0, 0.0, 0.0, 0.0, 1.677618468310687E9, 0.0, 2023-02-28 16:07:48.310
42.0, 5.543232624916151, 187500.0, 187500.0, 187500.0, -187500.02235174447, -187500.02235174447, -187500.02235174447, -187500.02235174447, 0.176, -0.022, 0.988, 192.0, 0.0, 0.0, 0.0, 0.0, 0.0, 0.0, 0.0, 0.0, 0.0, 1.677618468317342E9, 0.0, 2023-02-28 16:07:48.317
43.0, 67.56932348839325, 187500.0, 187500.0, 187500.0, -187500.02235174447, -187500.02235174447, -187500.02235174447, -187500.02235174447, 0.176, -0.022, 0.988, 192.0, 0.0, 0.0, 0.0, 0.0, 0.0, 0.0, 0.0, 0.0, 0.0, 1.677618468317353E9, 0.0, 2023-02-28 16:07:48.317
44.0, 854.8648184376739, 187500.0, 187500.0, 187500.0, -187500.02235174447, -187500.02235174447, -187500.02235174447, -187500.02235174447, 0.176, -0.022, 0.988, 192.0, 0.0, 0.0, 0.0, 0.0, 0.0, 0.0, 0.0, 0.0, 0.0, 1.677618468325425E9, 0.0, 2023-02-28 16:07:48.325
45.0, 1306.2135942236894, 187500.0, 187500.0, 187500.0, -187500.02235174447, -187500.02235174447, -187500.02235174447, -187500.02235174447, 0.176, -0.022, 0.988, 192.0, 0.0, 0.0, 0.0, 0.0, 0.0, 0.0, 0.0, 0.0, 0.0, 1.677618468325456E9, 0.0, 2023-02-28 16:07:48.325
46.0, 762.8203347707195, 187500.0, 187500.0, 187500.0, -187500.02235174447, -187500.02235174447, -187500.02235174447, -187500.02235174447, 0.178, -0.02, 0.99, 192.0, 5.0, 144.0, 255.0, 96.0, 30.0, 240.0, 0.0, 0.0, 0.0, 1.67761846833339E9, 0.0, 2023-02-28 16:07:48.333
47.0, 169.6944439046912, 187500.0, 187500.0, 187500.0, -187500.02235174447, -187500.02235174447, -187500.02235174447, -187500.02235174447, 0.178, -0.02, 0.99, 192.0, 0.0, 0.0, 0.0, 0.0, 0.0, 0.0, 0.0, 0.0, 0.0, 1.677618468333411E9, 0.0, 2023-02-28 16:07:48.333
48.0, 667.2889789687371, 187500.0, 187500.0, 187500.0, -187500.02235174447, -187500.02235174447, -187500.02235174447, -187500.02235174447, 0.178, -0.02, 0.99, 192.0, 0.0, 0.0, 0.0, 0.0, 0.0, 0.0, 0.0, 0.0, 0.0, 1.677618468340698E9, 0.0, 2023-02-28 16:07:48.340
49.0, 1013.6963145370859, 187500.0, 187500.0, 187500.0, -187500.02235174447, -187500.02235174447, -187500.02235174447, -187500.02235174447, 0.178, -0.02, 0.99, 192.0, 0.0, 0.0, 0.0, 0.0, 0.0, 0.0, 0.0, 0.0, 0.0, 1.67761846834071E9, 0.0, 2023-02-28 16:07:48.340
50.0, 361.4500595867705, 187500.0, 187500.0, 187500.0, -187500.02235174447, -187500.02235174447, -187500.02235174447, -187500.02235174447, 0.178, -0.02, 0.99, 192.0, 0.0, 0.0, 0.0, 0.0, 0.0, 0.0, 0.0, 0.0, 0.0, 1.677618468348031E9, 0.0, 2023-02-28 16:07:48.348
51.0, 93.3408848453623, 187500.0, 187500.0, 187500.0, -187500.02235174447, -187500.02235174447, -187500.02235174447, -187500.02235174447, 0.178, -0.02, 0.99, 192.0, 0.0, 0.0, 0.0, 0.0, 0.0, 0.0, 0.0, 0.0, 0.0, 1.677618468348047E9, 0.0, 2023-02-28 16:07:48.348
52.0, 614.650620776489, 187500.0, 187500.0, 187500.0, -187500.02235174447, -187500.02235174447, -187500.02235174447, -187500.02235174447, 0.178, -0.02, 0.99, 192.0, 0.0, 0.0, 0.0, 0.0, 0.0, 0.0, 0.0, 0.0, 0.0, 1.677618468355094E9, 0.0, 2023-02-28 16:07:48.355
53.0, 978.3582065532454, 187500.0, 187500.0, 187500.0, -187500.02235174447, -187500.02235174447, -187500.02235174447, -187500.02235174447, 0.178, -0.02, 0.99, 192.0, 0.0, 0.0, 0.0, 0.0, 0.0, 0.0, 0.0, 0.0, 0.0, 1.677618468363011E9, 0.0, 2023-02-28 16:07:48.363
54.0, 639.8410367776199, 187500.0, 187500.0, 187500.0, -187500.02235174447, -187500.02235174447, -187500.02235174447, -187500.02235174447, 0.178, -0.02, 0.99, 192.0, 0.0, 0.0, 0.0, 0.0, 0.0, 0.0, 0.0, 0.0, 0.0, 1.677618468363022E9, 0.0, 2023-02-28 16:07:48.363
55.0, -49.50911396850515, 187500.0, 187500.0, 187500.0, -187500.02235174447, -187500.02235174447, -187500.02235174447, -187500.02235174447, 0.178, -0.02, 0.99, 192.0, 0.0, 0.0, 0.0, 0.0, 0.0, 0.0, 0.0, 0.0, 0.0, 1.677618468370325E9, 0.0, 2023-02-28 16:07:48.370
56.0, 291.04206455255326, 187500.0, 187500.0, 187500.0, -187500.02235174447, -187500.02235174447, -187500.02235174447, -187500.02235174447, 0.178, -0.022, 0.994, 192.0, 5.0, 144.0, 255.0, 80.0, 31.0, 16.0, 0.0, 0.0, 0.0, 1.677618468370392E9, 0.0, 2023-02-28 16:07:48.370
57.0, 1062.758393616485, 187500.0, 187500.0, 187500.0, -187500.02235174447, -187500.02235174447, -187500.02235174447, -187500.02235174447, 0.178, -0.022, 0.994, 192.0, 0.0, 0.0, 0.0, 0.0, 0.0, 0.0, 0.0, 0.0, 0.0, 1.677618468377633E9, 0.0, 2023-02-28 16:07:48.377
58.0, 940.114371790215, 187500.0, 187500.0, 187500.0, -187500.02235174447, -187500.02235174447, -187500.02235174447, -187500.02235174447, 0.178, -0.022, 0.994, 192.0, 0.0, 0.0, 0.0, 0.0, 0.0, 0.0, 0.0, 0.0, 0.0, 1.677618468377651E9, 0.0, 2023-02-28 16:07:48.377
59.0, 228.41247658878288, 187500.0, 187500.0, 187500.0, -187500.02235174447, -187500.02235174447, -187500.02235174447, -187500.02235174447, 0.178, -0.022, 0.994, 192.0, 0.0, 0.0, 0.0, 0.0, 0.0, 0.0, 0.0, 0.0, 0.0, 1.67761846838572E9, 0.0, 2023-02-28 16:07:48.385
60.0, 138.78198132300156, 187500.0, 187500.0, 187500.0, -187500.02235174447, -187500.02235174447, -187500.02235174447, -187500.02235174447, 0.178, -0.022, 0.994, 192.0, 0.0, 0.0, 0.0, 0.0, 0.0, 0.0, 0.0, 0.0, 0.0, 1.677618468385743E9, 0.0, 2023-02-28 16:07:48.385
61.0, 957.5263807208993, 187500.0, 187500.0, 187500.0, -187500.02235174447, -187500.02235174447, -187500.02235174447, -187500.02235174447, 0.178, -0.022, 0.994, 192.0, 0.0, 0.0, 0.0, 0.0, 0.0, 0.0, 0.0, 0.0, 0.0, 1.677618468393723E9, 0.0, 2023-02-28 16:07:48.393
62.0, 841.9231583980511, 187500.0, 187500.0, 187500.0, -187500.02235174447, -187500.02235174447, -187500.02235174447, -187500.02235174447, 0.178, -0.022, 0.994, 192.0, 0.0, 0.0, 0.0, 0.0, 0.0, 0.0, 0.0, 0.0, 0.0, 1.677618468393744E9, 0.0, 2023-02-28 16:07:48.393
63.0, 109.32238213090685, 187500.0, 187500.0, 187500.0, -187500.02235174447, -187500.02235174447, -187500.02235174447, -187500.02235174447, 0.178, -0.022, 0.994, 192.0, 0.0, 0.0, 0.0, 0.0, 0.0, 0.0, 0.0, 0.0, 0.0, 1.677618468400319E9, 0.0, 2023-02-28 16:07:48.400
64.0, 164.44178395769407, 187500.0, 187500.0, 187500.0, -187500.02235174447, -187500.02235174447, -187500.02235174447, -187500.02235174447, 0.178, -0.022, 0.994, 192.0, 0.0, 0.0, 0.0, 0.0, 0.0, 0.0, 0.0, 0.0, 0.0, 1.677618468400333E9, 0.0, 2023-02-28 16:07:48.400
65.0, 816.1068935521715, 187500.0, 187500.0, 187500.0, -187500.02235174447, -187500.02235174447, -187500.02235174447, -187500.02235174447, 0.178, -0.022, 0.994, 192.0, 0.0, 0.0, 0.0, 0.0, 0.0, 0.0, 0.0, 0.0, 0.0, 1.677618468408419E9, 0.0, 2023-02-28 16:07:48.408
66.0, 1101.5386702464427, 187500.0, 187500.0, 187500.0, -187500.02235174447, -187500.02235174447, -187500.02235174447, -187500.02235174447, 0.18, -0.018000000000000002, 0.99, 192.0, 5.0, 160.0, 255.0, 112.0, 30.0, 240.0, 0.0, 0.0, 0.0, 1.677618468408441E9, 0.0, 2023-02-28 16:07:48.408
67.0, 90.77043423300198, 187500.0, 187500.0, 187500.0, -187500.02235174447, -187500.02235174447, -187500.02235174447, -187500.02235174447, 0.18, -0.018000000000000002, 0.99, 192.0, 0.0, 0.0, 0.0, 0.0, 0.0, 0.0, 0.0, 0.0, 0.0, 1.677618468415334E9, 0.0, 2023-02-28 16:07:48.415
68.0, -30.219558503575147, 187500.0, 187500.0, 187500.0, -187500.02235174447, -187500.02235174447, -187500.02235174447, -187500.02235174447, 0.18, -0.018000000000000002, 0.99, 192.0, 0.0, 0.0, 0.0, 0.0, 0.0, 0.0, 0.0, 0.0, 0.0, 1.677618468422631E9, 0.0, 2023-02-28 16:07:48.422
69.0, 656.7166038413768, 187500.0, 187500.0, 187500.0, -187500.02235174447, -187500.02235174447, -187500.02235174447, -187500.02235174447, 0.18, -0.018000000000000002, 0.99, 192.0, 0.0, 0.0, 0.0, 0.0, 0.0, 0.0, 0.0, 0.0, 0.0, 1.677618468422642E9, 0.0, 2023-02-28 16:07:48.422
70.0, 908.2407841969472, 187500.0, 187500.0, 187500.0, -187500.02235174447, -187500.02235174447, -187500.02235174447, -187500.02235174447, 0.18, -0.018000000000000002, 0.99, 192.0, 0.0, 0.0, 0.0, 0.0, 0.0, 0.0, 0.0, 0.0, 0.0, 1.677618468430063E9, 0.0, 2023-02-28 16:07:48.430
71.0, 274.6135323779026, 187500.0, 187500.0, 187500.0, -187500.02235174447, -187500.02235174447, -187500.02235174447, -187500.02235174447, 0.18, -0.018000000000000002, 0.99, 192.0, 0.0, 0.0, 0.0, 0.0, 0.0, 0.0, 0.0, 0.0, 0.0, 1.677618468430112E9, 0.0, 2023-02-28 16:07:48.430
72.0, 243.63401456284697, 187500.0, 187500.0, 187500.0, -187500.02235174447, -187500.02235174447, -187500.02235174447, -187500.02235174447, 0.18, -0.018000000000000002, 0.99, 192.0, 0.0, 0.0, 0.0, 0.0, 0.0, 0.0, 0.0, 0.0, 0.0, 1.677618468437981E9, 0.0, 2023-02-28 16:07:48.437
73.0, 516.973497506797, 187500.0, 187500.0, 187500.0, -187500.02235174447, -187500.02235174447, -187500.02235174447, -187500.02235174447, 0.18, -0.018000000000000002, 0.99, 192.0, 0.0, 0.0, 0.0, 0.0, 0.0, 0.0, 0.0, 0.0, 0.0, 1.677618468437999E9, 0.0, 2023-02-28 16:07:48.437
74.0, 805.8474428471856, 187500.0, 187500.0, 187500.0, -187500.02235174447, -187500.02235174447, -187500.02235174447, -187500.02235174447, 0.18, -0.018000000000000002, 0.99, 192.0, 0.0, 0.0, 0.0, 0.0, 0.0, 0.0, 0.0, 0.0, 0.0, 1.677618468454767E9, 0.0, 2023-02-28 16:07:48.454
75.0, 277.2286864791735, 187500.0, 187500.0, 187500.0, -187500.02235174447, -187500.02235174447, -187500.02235174447, -187500.02235174447, 0.18, -0.018000000000000002, 0.99, 192.0, 0.0, 0.0, 0.0, 0.0, 0.0, 0.0, 0.0, 0.0, 0.0, 1.677618468454791E9, 0.0, 2023-02-28 16:07:48.454
76.0, 9.566546626871423, 187500.0, 187500.0, 187500.0, -187500.02235174447, -187500.02235174447, -187500.02235174447, -187500.02235174447, 0.178, -0.016, 0.992, 192.0, 5.0, 144.0, 255.0, 128.0, 31.0, 0.0, 0.0, 0.0, 0.0, 1.67761846845493E9, 0.0, 2023-02-28 16:07:48.454
77.0, 386.4616616322591, 187500.0, 187500.0, 187500.0, -187500.02235174447, -187500.02235174447, -187500.02235174447, -187500.02235174447, 0.178, -0.016, 0.992, 192.0, 0.0, 0.0, 0.0, 0.0, 0.0, 0.0, 0.0, 0.0, 0.0, 1.677618468454961E9, 0.0, 2023-02-28 16:07:48.454
78.0, 926.27864197238, 187500.0, 187500.0, 187500.0, -187500.02235174447, -187500.02235174447, -187500.02235174447, -187500.02235174447, 0.178, -0.016, 0.992, 192.0, 0.0, 0.0, 0.0, 0.0, 0.0, 0.0, 0.0, 0.0, 0.0, 1.677618468460554E9, 0.0, 2023-02-28 16:07:48.460
79.0, 398.8892315494098, 187500.0, 187500.0, 187500.0, -187500.02235174447, -187500.02235174447, -187500.02235174447, -187500.02235174447, 0.178, -0.016, 0.992, 192.0, 0.0, 0.0, 0.0, 0.0, 0.0, 0.0, 0.0, 0.0, 0.0, 1.677618468460576E9, 0.0, 2023-02-28 16:07:48.460
80.0, -253.93816875674355, 187500.0, 187500.0, 187500.0, -187500.02235174447, -187500.02235174447, -187500.02235174447, -187500.02235174447, 0.178, -0.016, 0.992, 192.0, 0.0, 0.0, 0.0, 0.0, 0.0, 0.0, 0.0, 0.0, 0.0, 1.677618468468576E9, 0.0, 2023-02-28 16:07:48.468
81.0, 204.3843512993278, 187500.0, 187500.0, 187500.0, -187500.02235174447, -187500.02235174447, -187500.02235174447, -187500.02235174447, 0.178, -0.016, 0.992, 192.0, 0.0, 0.0, 0.0, 0.0, 0.0, 0.0, 0.0, 0.0, 0.0, 1.677618468468599E9, 0.0, 2023-02-28 16:07:48.468
82.0, 988.2823810914018, 187500.0, 187500.0, 187500.0, -187500.02235174447, -187500.02235174447, -187500.02235174447, -187500.02235174447, 0.178, -0.016, 0.992, 192.0, 0.0, 0.0, 0.0, 0.0, 0.0, 0.0, 0.0, 0.0, 0.0, 1.677618468475734E9, 0.0, 2023-02-28 16:07:48.475
83.0, 722.3413255621583, 187500.0, 187500.0, 187500.0, -187500.02235174447, -187500.02235174447, -187500.02235174447, -187500.02235174447, 0.178, -0.016, 0.992, 192.0, 0.0, 0.0, 0.0, 0.0, 0.0, 0.0, 0.0, 0.0, 0.0, 1.677618468475748E9, 0.0, 2023-02-28 16:07:48.475
84.0, -264.6223026063803, 187500.0, 187500.0, 187500.0, -187500.02235174447, -187500.02235174447, -187500.02235174447, -187500.02235174447, 0.178, -0.016, 0.992, 192.0, 0.0, 0.0, 0.0, 0.0, 0.0, 0.0, 0.0, 0.0, 0.0, 1.677618468482226E9, 0.0, 2023-02-28 16:07:48.482
85.0, -82.50028878453837, 187500.0, 187500.0, 187500.0, -187500.02235174447, -187500.02235174447, -187500.02235174447, -187500.02235174447, 0.178, -0.016, 0.992, 192.0, 0.0, 0.0, 0.0, 0.0, 0.0, 0.0, 0.0, 0.0, 0.0, 1.677618468490221E9, 0.0, 2023-02-28 16:07:48.490
86.0, 854.507190526389, 187500.0, 187500.0, 187500.0, -187500.02235174447, -187500.02235174447, -187500.02235174447, -187500.02235174447, 0.18, -0.02, 0.992, 192.0, 5.0, 160.0, 255.0, 96.0, 31.0, 0.0, 0.0, 0.0, 0.0, 1.67761846849027E9, 0.0, 2023-02-28 16:07:48.490
87.0, 822.2759750218362, 187500.0, 187500.0, 187500.0, -187500.02235174447, -187500.02235174447, -187500.02235174447, -187500.02235174447, 0.18, -0.02, 0.992, 192.0, 0.0, 0.0, 0.0, 0.0, 0.0, 0.0, 0.0, 0.0, 0.0, 1.677618468498166E9, 0.0, 2023-02-28 16:07:48.498
88.0, -112.6751437992029, 187500.0, 187500.0, 187500.0, -187500.02235174447, -187500.02235174447, -187500.02235174447, -187500.02235174447, 0.18, -0.02, 0.992, 192.0, 0.0, 0.0, 0.0, 0.0, 0.0, 0.0, 0.0, 0.0, 0.0, 1.677618468498188E9, 0.0, 2023-02-28 16:07:48.498
89.0, -162.6312926568142, 187500.0, 187500.0, 187500.0, -187500.02235174447, -187500.02235174447, -187500.02235174447, -187500.02235174447, 0.18, -0.02, 0.992, 192.0, 0.0, 0.0, 0.0, 0.0, 0.0, 0.0, 0.0, 0.0, 0.0, 1.677618468505396E9, 0.0, 2023-02-28 16:07:48.505
90.0, 478.170869132384, 187500.0, 187500.0, 187500.0, -187500.02235174447, -187500.02235174447, -187500.02235174447, -187500.02235174447, 0.18, -0.02, 0.992, 192.0, 0.0, 0.0, 0.0, 0.0, 0.0, 0.0, 0.0, 0.0, 0.0, 1.677618468505418E9, 0.0, 2023-02-28 16:07:48.505
91.0, 782.9369047804958, 187500.0, 187500.0, 187500.0, -187500.02235174447, -187500.02235174447, -187500.02235174447, -187500.02235174447, 0.18, -0.02, 0.992, 192.0, 0.0, 0.0, 0.0, 0.0, 0.0, 0.0, 0.0, 0.0, 0.0, 1.677618468512779E9, 0.0, 2023-02-28 16:07:48.512
92.0, 307.694114171757, 187500.0, 187500.0, 187500.0, -187500.02235174447, -187500.02235174447, -187500.02235174447, -187500.02235174447, 0.18, -0.02, 0.992, 192.0, 0.0, 0.0, 0.0, 0.0, 0.0, 0.0, 0.0, 0.0, 0.0, 1.6776184685128E9, 0.0, 2023-02-28 16:07:48.512
93.0, -244.5951395744252, 187500.0, 187500.0, 187500.0, -187500.02235174447, -187500.02235174447, -187500.02235174447, -187500.02235174447, 0.18, -0.02, 0.992, 192.0, 0.0, 0.0, 0.0, 0.0, 0.0, 0.0, 0.0, 0.0, 0.0, 1.677618468520894E9, 0.0, 2023-02-28 16:07:48.520
94.0, 407.7628740981667, 187500.0, 187500.0, 187500.0, -187500.02235174447, -187500.02235174447, -187500.02235174447, -187500.02235174447, 0.18, -0.02, 0.992, 192.0, 0.0, 0.0, 0.0, 0.0, 0.0, 0.0, 0.0, 0.0, 0.0, 1.677618468520911E9, 0.0, 2023-02-28 16:07:48.520
95.0, 964.276607546402, 187500.0, 187500.0, 187500.0, -187500.02235174447, -187500.02235174447, -187500.02235174447, -187500.02235174447, 0.18, -0.02, 0.992, 192.0, 0.0, 0.0, 0.0, 0.0, 0.0, 0.0, 0.0, 0.0, 0.0, 1.677618468528928E9, 0.0, 2023-02-28 16:07:48.528
96.0, 361.7853357536001, 187500.0, 187500.0, 187500.0, -187500.02235174447, -187500.02235174447, -187500.02235174447, -187500.02235174447, 0.182, -0.016, 0.992, 192.0, 5.0, 176.0, 255.0, 128.0, 31.0, 0.0, 0.0, 0.0, 0.0, 1.677618468528949E9, 0.0, 2023-02-28 16:07:48.528
97.0, -423.31968823906044, 187500.0, 187500.0, 187500.0, -187500.02235174447, -187500.02235174447, -187500.02235174447, -187500.02235174447, 0.182, -0.016, 0.992, 192.0, 0.0, 0.0, 0.0, 0.0, 0.0, 0.0, 0.0, 0.0, 0.0, 1.677618468535411E9, 0.0, 2023-02-28 16:07:48.535
98.0, 147.8344378274009, 187500.0, 187500.0, 187500.0, -187500.02235174447, -187500.02235174447, -187500.02235174447, -187500.02235174447, 0.182, -0.016, 0.992, 192.0, 0.0, 0.0, 0.0, 0.0, 0.0, 0.0, 0.0, 0.0, 0.0, 1.677618468535426E9, 0.0, 2023-02-28 16:07:48.535
99.0, 748.8728462306078, 187500.0, 187500.0, 187500.0, -187500.02235174447, -187500.02235174447, -187500.02235174447, -187500.02235174447, 0.182, -0.016, 0.992, 192.0, 0.0, 0.0, 0.0, 0.0, 0.0, 0.0, 0.0, 0.0, 0.0, 1.677618468542486E9, 0.0, 2023-02-28 16:07:48.542
100.0, 226.75844749909015, 187500.0, 187500.0, 187500.0, -187500.02235174447, -187500.02235174447, -187500.02235174447, -187500.02235174447, 0.182, -0.016, 0.992, 192.0, 0.0, 0.0, 0.0, 0.0, 0.0, 0.0, 0.0, 0.0, 0.0, 1.677618468550481E9, 0.0, 2023-02-28 16:07:48.550
101.0, -390.239106445206, 187500.0, 187500.0, 187500.0, -187500.02235174447, -187500.02235174447, -187500.02235174447, -187500.02235174447, 0.182, -0.016, 0.992, 192.0, 0.0, 0.0, 0.0, 0.0, 0.0, 0.0, 0.0, 0.0, 0.0, 1.677618468550524E9, 0.0, 2023-02-28 16:07:48.550
102.0, 172.35430149487277, 187500.0, 187500.0, 187500.0, -187500.02235174447, -187500.02235174447, -187500.02235174447, -187500.02235174447, 0.182, -0.016, 0.992, 192.0, 0.0, 0.0, 0.0, 0.0, 0.0, 0.0, 0.0, 0.0, 0.0, 1.677618468558485E9, 0.0, 2023-02-28 16:07:48.558
103.0, 1096.911859144194, 187500.0, 187500.0, 187500.0, -187500.02235174447, -187500.02235174447, -187500.02235174447, -187500.02235174447, 0.182, -0.016, 0.992, 192.0, 0.0, 0.0, 0.0, 0.0, 0.0, 0.0, 0.0, 0.0, 0.0, 1.6776184685585E9, 0.0, 2023-02-28 16:07:48.558
104.0, 377.74448129468936, 187500.0, 187500.0, 187500.0, -187500.02235174447, -187500.02235174447, -187500.02235174447, -187500.02235174447, 0.182, -0.016, 0.992, 192.0, 0.0, 0.0, 0.0, 0.0, 0.0, 0.0, 0.0, 0.0, 0.0, 1.67761846856505E9, 0.0, 2023-02-28 16:07:48.565
105.0, -634.7671907862652, 187500.0, 187500.0, 187500.0, -187500.02235174447, -187500.02235174447, -187500.02235174447, -187500.02235174447, 0.18, -0.024, 0.994, 192.0, 5.0, 160.0, 255.0, 64.0, 31.0, 16.0, 0.0, 0.0, 0.0, 1.677618468565063E9, 0.0, 2023-02-28 16:07:48.565
106.0, 64.35067228682904, 187500.0, 187500.0, 187500.0, -187500.02235174447, -187500.02235174447, -187500.02235174447, -187500.02235174447, 0.18, -0.024, 0.994, 192.0, 0.0, 0.0, 0.0, 0.0, 0.0, 0.0, 0.0, 0.0, 0.0, 1.677618468573076E9, 0.0, 2023-02-28 16:07:48.573
107.0, 785.6414658595879, 187500.0, 187500.0, 187500.0, -187500.02235174447, -187500.02235174447, -187500.02235174447, -187500.02235174447, 0.18, -0.024, 0.994, 192.0, 0.0, 0.0, 0.0, 0.0, 0.0, 0.0, 0.0, 0.0, 0.0, 1.677618468573095E9, 0.0, 2023-02-28 16:07:48.573
108.0, 337.3548790639495, 187500.0, 187500.0, 187500.0, -187500.02235174447, -187500.02235174447, -187500.02235174447, -187500.02235174447, 0.18, -0.024, 0.994, 192.0, 0.0, 0.0, 0.0, 0.0, 0.0, 0.0, 0.0, 0.0, 0.0, 1.677618468581117E9, 0.0, 2023-02-28 16:07:48.581
109.0, -165.33585373590634, 187500.0, 187500.0, 187500.0, -187500.02235174447, -187500.02235174447, -187500.02235174447, -187500.02235174447, 0.18, -0.024, 0.994, 192.0, 0.0, 0.0, 0.0, 0.0, 0.0, 0.0, 0.0, 0.0, 0.0, 1.677618468581129E9, 0.0, 2023-02-28 16:07:48.581
110.0, -50.13496281325374, 187500.0, 187500.0, 187500.0, -187500.02235174447, -187500.02235174447, -187500.02235174447, -187500.02235174447, 0.18, -0.024, 0.994, 192.0, 0.0, 0.0, 0.0, 0.0, 0.0, 0.0, 0.0, 0.0, 0.0, 1.677618468587739E9, 0.0, 2023-02-28 16:07:48.587
111.0, 467.39732830492596, 187500.0, 187500.0, 187500.0, -187500.02235174447, -187500.02235174447, -187500.02235174447, -187500.02235174447, 0.18, -0.024, 0.994, 192.0, 0.0, 0.0, 0.0, 0.0, 0.0, 0.0, 0.0, 0.0, 0.0, 1.677618468587762E9, 0.0, 2023-02-28 16:07:48.587
112.0, 449.6276914629569, 187500.0, 187500.0, 187500.0, -187500.02235174447, -187500.02235174447, -187500.02235174447, -187500.02235174447, 0.18, -0.024, 0.994, 192.0, 0.0, 0.0, 0.0, 0.0, 0.0, 0.0, 0.0, 0.0, 0.0, 1.677618468595729E9, 0.0, 2023-02-28 16:07:48.595
113.0, -244.68454655224642, 187500.0, 187500.0, 187500.0, -187500.02235174447, -187500.02235174447, -187500.02235174447, -187500.02235174447, 0.18, -0.024, 0.994, 192.0, 0.0, 0.0, 0.0, 0.0, 0.0, 0.0, 0.0, 0.0, 0.0, 1.67761846859575E9, 0.0, 2023-02-28 16:07:48.595
114.0, -197.23179307362952, 187500.0, 187500.0, 187500.0, -187500.02235174447, -187500.02235174447, -187500.02235174447, -187500.02235174447, 0.18, -0.024, 0.994, 192.0, 0.0, 0.0, 0.0, 0.0, 0.0, 0.0, 0.0, 0.0, 0.0, 1.677618468602778E9, 0.0, 2023-02-28 16:07:48.602
115.0, 564.3368440075927, 187500.0, 187500.0, 187500.0, -187500.02235174447, -187500.02235174447, -187500.02235174447, -187500.02235174447, 0.178, -0.018000000000000002, 0.998, 192.0, 5.0, 144.0, 255.0, 112.0, 31.0, 48.0, 0.0, 0.0, 0.0, 1.677618468610876E9, 0.0, 2023-02-28 16:07:48.610
116.0, 609.9567544408744, 187500.0, 187500.0, 187500.0, -187500.02235174447, -187500.02235174447, -187500.02235174447, -187500.02235174447, 0.178, -0.018000000000000002, 0.998, 192.0, 0.0, 0.0, 0.0, 0.0, 0.0, 0.0, 0.0, 0.0, 0.0, 1.677618468610926E9, 0.0, 2023-02-28 16:07:48.610
117.0, -62.137849585753635, 187500.0, 187500.0, 187500.0, -187500.02235174447, -187500.02235174447, -187500.02235174447, -187500.02235174447, 0.178, -0.018000000000000002, 0.998, 192.0, 0.0, 0.0, 0.0, 0.0, 0.0, 0.0, 0.0, 0.0, 0.0, 1.677618468617253E9, 0.0, 2023-02-28 16:07:48.617
118.0, -551.5292944347018, 187500.0, 187500.0, 187500.0, -187500.02235174447, -187500.02235174447, -187500.02235174447, -187500.02235174447, 0.178, -0.018000000000000002, 0.998, 192.0, 0.0, 0.0, 0.0, 0.0, 0.0, 0.0, 0.0, 0.0, 0.0, 1.677618468617268E9, 0.0, 2023-02-28 16:07:48.617
119.0, 246.1597616862967, 187500.0, 187500.0, 187500.0, -187500.02235174447, -187500.02235174447, -187500.02235174447, -187500.02235174447, 0.178, -0.018000000000000002, 0.998, 192.0, 0.0, 0.0, 0.0, 0.0, 0.0, 0.0, 0.0, 0.0, 0.0, 1.677618468625401E9, 0.0, 2023-02-28 16:07:48.625
120.0, 706.5609939767115, 187500.0, 187500.0, 187500.0, -187500.02235174447, -187500.02235174447, -187500.02235174447, -187500.02235174447, 0.178, -0.018000000000000002, 0.998, 192.0, 0.0, 0.0, 0.0, 0.0, 0.0, 0.0, 0.0, 0.0, 0.0, 1.677618468625414E9, 0.0, 2023-02-28 16:07:48.625
121.0, 323.63090796839094, 187500.0, 187500.0, 187500.0, -187500.02235174447, -187500.02235174447, -187500.02235174447, -187500.02235174447, 0.178, -0.018000000000000002, 0.998, 192.0, 0.0, 0.0, 0.0, 0.0, 0.0, 0.0, 0.0, 0.0, 0.0, 1.677618468633433E9, 0.0, 2023-02-28 16:07:48.633
122.0, -317.0594950985307, 187500.0, 187500.0, 187500.0, -187500.02235174447, -187500.02235174447, -187500.02235174447, -187500.02235174447, 0.178, -0.018000000000000002, 0.998, 192.0, 0.0, 0.0, 0.0, 0.0, 0.0, 0.0, 0.0, 0.0, 0.0, 1.677618468633483E9, 0.0, 2023-02-28 16:07:48.633
123.0, -97.92299245870024, 187500.0, 187500.0, 187500.0, -187500.02235174447, -187500.02235174447, -187500.02235174447, -187500.02235174447, 0.178, -0.018000000000000002, 0.998, 192.0, 0.0, 0.0, 0.0, 0.0, 0.0, 0.0, 0.0, 0.0, 0.0, 1.677618468640448E9, 0.0, 2023-02-28 16:07:48.640
124.0, 499.8967647429425, 187500.0, 187500.0, 187500.0, -187500.02235174447, -187500.02235174447, -187500.02235174447, -187500.02235174447, 0.178, -0.018000000000000002, 0.998, 192.0, 0.0, 0.0, 0.0, 0.0, 0.0, 0.0, 0.0, 0.0, 0.0, 1.677618468640463E9, 0.0, 2023-02-28 16:07:48.640
125.0, 154.78583035300142, 187500.0, 187500.0, 187500.0, -187500.02235174447, -187500.02235174447, -187500.02235174447, -187500.02235174447, 0.18, -0.018000000000000002, 0.996, 192.0, 5.0, 160.0, 255.0, 112.0, 31.0, 32.0, 0.0, 0.0, 0.0, 1.67761846864793E9, 0.0, 2023-02-28 16:07:48.647
126.0, -548.1541810219504, 187500.0, 187500.0, 187500.0, -187500.02235174447, -187500.02235174447, -187500.02235174447, -187500.02235174447, 0.18, -0.018000000000000002, 0.996, 192.0, 0.0, 0.0, 0.0, 0.0, 0.0, 0.0, 0.0, 0.0, 0.0, 1.677618468647946E9, 0.0, 2023-02-28 16:07:48.647
127.0, -83.5284690294825, 187500.0, 187500.0, 187500.0, -187500.02235174447, -187500.02235174447, -187500.02235174447, -187500.02235174447, 0.18, -0.018000000000000002, 0.996, 192.0, 0.0, 0.0, 0.0, 0.0, 0.0, 0.0, 0.0, 0.0, 0.0, 1.677618468655931E9, 0.0, 2023-02-28 16:07:48.655
128.0, 925.7198483609973, 187500.0, 187500.0, 187500.0, -187500.02235174447, -187500.02235174447, -187500.02235174447, -187500.02235174447, 0.18, -0.018000000000000002, 0.996, 192.0, 0.0, 0.0, 0.0, 0.0, 0.0, 0.0, 0.0, 0.0, 0.0, 1.677618468655948E9, 0.0, 2023-02-28 16:07:48.655
129.0, 607.9227456954414, 187500.0, 187500.0, 187500.0, -187500.02235174447, -187500.02235174447, -187500.02235174447, -187500.02235174447, 0.18, -0.018000000000000002, 0.996, 192.0, 0.0, 0.0, 0.0, 0.0, 0.0, 0.0, 0.0, 0.0, 0.0, 1.677618468662914E9, 0.0, 2023-02-28 16:07:48.662
130.0, -841.0290886198388, 187500.0, 187500.0, 187500.0, -187500.02235174447, -187500.02235174447, -187500.02235174447, -187500.02235174447, 0.18, -0.018000000000000002, 0.996, 192.0, 0.0, 0.0, 0.0, 0.0, 0.0, 0.0, 0.0, 0.0, 0.0, 1.677618468670047E9, 0.0, 2023-02-28 16:07:48.670
131.0, -415.11659802396275, 187500.0, 187500.0, 187500.0, -187500.02235174447, -187500.02235174447, -187500.02235174447, -187500.02235174447, 0.18, -0.018000000000000002, 0.996, 192.0, 0.0, 0.0, 0.0, 0.0, 0.0, 0.0, 0.0, 0.0, 0.0, 1.6776184686701E9, 0.0, 2023-02-28 16:07:48.670
132.0, 563.5992364405676, 187500.0, 187500.0, 187500.0, -187500.02235174447, -187500.02235174447, -187500.02235174447, -187500.02235174447, 0.18, -0.018000000000000002, 0.996, 192.0, 0.0, 0.0, 0.0, 0.0, 0.0, 0.0, 0.0, 0.0, 0.0, 1.677618468677728E9, 0.0, 2023-02-28 16:07:48.677
133.0, 474.88516269745384, 187500.0, 187500.0, 187500.0, -187500.02235174447, -187500.02235174447, -187500.02235174447, -187500.02235174447, 0.18, -0.018000000000000002, 0.996, 192.0, 0.0, 0.0, 0.0, 0.0, 0.0, 0.0, 0.0, 0.0, 0.0, 1.677618468677748E9, 0.0, 2023-02-28 16:07:48.677
134.0, -444.06210709358544, 187500.0, 187500.0, 187500.0, -187500.02235174447, -187500.02235174447, -187500.02235174447, -187500.02235174447, 0.18, -0.018000000000000002, 0.996, 192.0, 0.0, 0.0, 0.0, 0.0, 0.0, 0.0, 0.0, 0.0, 0.0, 1.677618468685645E9, 0.0, 2023-02-28 16:07:48.685
135.0, -274.4347184222601, 187500.0, 187500.0, 187500.0, -187500.02235174447, -187500.02235174447, -187500.02235174447, -187500.02235174447, 0.178, -0.022, 0.996, 192.0, 5.0, 144.0, 255.0, 80.0, 31.0, 32.0, 0.0, 0.0, 0.0, 1.677618468685659E9, 0.0, 2023-02-28 16:07:48.685
136.0, 529.6916401018668, 187500.0, 187500.0, 187500.0, -187500.02235174447, -187500.02235174447, -187500.02235174447, -187500.02235174447, 0.178, -0.022, 0.996, 192.0, 0.0, 0.0, 0.0, 0.0, 0.0, 0.0, 0.0, 0.0, 0.0, 1.677618468693541E9, 0.0, 2023-02-28 16:07:48.693
137.0, 536.2407012272718, 187500.0, 187500.0, 187500.0, -187500.02235174447, -187500.02235174447, -187500.02235174447, -187500.02235174447, 0.178, -0.022, 0.996, 192.0, 0.0, 0.0, 0.0, 0.0, 0.0, 0.0, 0.0, 0.0, 0.0, 1.677618468693561E9, 0.0, 2023-02-28 16:07:48.693
138.0, -613.8683097205532, 187500.0, 187500.0, 187500.0, -187500.02235174447, -187500.02235174447, -187500.02235174447, -187500.02235174447, 0.178, -0.022, 0.996, 192.0, 0.0, 0.0, 0.0, 0.0, 0.0, 0.0, 0.0, 0.0, 0.0, 1.677618468700275E9, 0.0, 2023-02-28 16:07:48.700
139.0, -455.05916536559647, 187500.0, 187500.0, 187500.0, -187500.02235174447, -187500.02235174447, -187500.02235174447, -187500.02235174447, 0.178, -0.022, 0.996, 192.0, 0.0, 0.0, 0.0, 0.0, 0.0, 0.0, 0.0, 0.0, 0.0, 1.677618468700288E9, 0.0, 2023-02-28 16:07:48.700
140.0, 297.1440907888521, 187500.0, 187500.0, 187500.0, -187500.02235174447, -187500.02235174447, -187500.02235174447, -187500.02235174447, 0.178, -0.022, 0.996, 192.0, 0.0, 0.0, 0.0, 0.0, 0.0, 0.0, 0.0, 0.0, 0.0, 1.677618468708124E9, 0.0, 2023-02-28 16:07:48.708
141.0, 362.14296366488503, 187500.0, 187500.0, 187500.0, -187500.02235174447, -187500.02235174447, -187500.02235174447, -187500.02235174447, 0.178, -0.022, 0.996, 192.0, 0.0, 0.0, 0.0, 0.0, 0.0, 0.0, 0.0, 0.0, 0.0, 1.677618468708139E9, 0.0, 2023-02-28 16:07:48.708
142.0, -412.43438868932594, 187500.0, 187500.0, 187500.0, -187500.02235174447, -187500.02235174447, -187500.02235174447, -187500.02235174447, 0.178, -0.022, 0.996, 192.0, 0.0, 0.0, 0.0, 0.0, 0.0, 0.0, 0.0, 0.0, 0.0, 1.677618468716285E9, 0.0, 2023-02-28 16:07:48.716
143.0, -526.5847476225791, 187500.0, 187500.0, 187500.0, -187500.02235174447, -187500.02235174447, -187500.02235174447, -187500.02235174447, 0.178, -0.022, 0.996, 192.0, 0.0, 0.0, 0.0, 0.0, 0.0, 0.0, 0.0, 0.0, 0.0, 1.677618468716312E9, 0.0, 2023-02-28 16:07:48.716
144.0, 70.9220851566893, 187500.0, 187500.0, 187500.0, -187500.02235174447, -187500.02235174447, -187500.02235174447, -187500.02235174447, 0.178, -0.022, 0.996, 192.0, 0.0, 0.0, 0.0, 0.0, 0.0, 0.0, 0.0, 0.0, 0.0, 1.67761846872325E9, 0.0, 2023-02-28 16:07:48.723
145.0, 612.8177777311537, 187500.0, 187500.0, 187500.0, -187500.02235174447, -187500.02235174447, -187500.02235174447, -187500.02235174447, 0.186, -0.024, 0.998, 192.0, 5.0, 208.0, 255.0, 64.0, 31.0, 48.0, 0.0, 0.0, 0.0, 1.677618468723272E9, 0.0, 2023-02-28 16:07:48.723
146.0, -2.3245814233519346, 187500.0, 187500.0, 187500.0, -187500.02235174447, -187500.02235174447, -187500.02235174447, -187500.02235174447, 0.186, -0.024, 0.998, 192.0, 0.0, 0.0, 0.0, 0.0, 0.0, 0.0, 0.0, 0.0, 0.0, 1.677618468729869E9, 0.0, 2023-02-28 16:07:48.729
147.0, -481.9483139453309, 187500.0, 187500.0, 187500.0, -187500.02235174447, -187500.02235174447, -187500.02235174447, -187500.02235174447, 0.186, -0.024, 0.998, 192.0, 0.0, 0.0, 0.0, 0.0, 0.0, 0.0, 0.0, 0.0, 0.0, 1.677618468738037E9, 0.0, 2023-02-28 16:07:48.738
148.0, 153.66824313023605, 187500.0, 187500.0, 187500.0, -187500.02235174447, -187500.02235174447, -187500.02235174447, -187500.02235174447, 0.186, -0.024, 0.998, 192.0, 0.0, 0.0, 0.0, 0.0, 0.0, 0.0, 0.0, 0.0, 0.0, 1.677618468738054E9, 0.0, 2023-02-28 16:07:48.738
149.0, 671.4240516929689, 187500.0, 187500.0, 187500.0, -187500.02235174447, -187500.02235174447, -187500.02235174447, -187500.02235174447, 0.186, -0.024, 0.998, 192.0, 0.0, 0.0, 0.0, 0.0, 0.0, 0.0, 0.0, 0.0, 0.0, 1.677618468745815E9, 0.0, 2023-02-28 16:07:48.745
150.0, -245.75743028610114, 187500.0, 187500.0, 187500.0, -187500.02235174447, -187500.02235174447, -187500.02235174447, -187500.02235174447, 0.186, -0.024, 0.998, 192.0, 0.0, 0.0, 0.0, 0.0, 0.0, 0.0, 0.0, 0.0, 0.0, 1.67761846874583E9, 0.0, 2023-02-28 16:07:48.745
151.0, -720.7543517058316, 187500.0, 187500.0, 187500.0, -187500.02235174447, -187500.02235174447, -187500.02235174447, -187500.02235174447, 0.186, -0.024, 0.998, 192.0, 0.0, 0.0, 0.0, 0.0, 0.0, 0.0, 0.0, 0.0, 0.0, 1.677618468752517E9, 0.0, 2023-02-28 16:07:48.752
152.0, -246.2044651752073, 187500.0, 187500.0, 187500.0, -187500.02235174447, -187500.02235174447, -187500.02235174447, -187500.02235174447, 0.186, -0.024, 0.998, 192.0, 0.0, 0.0, 0.0, 0.0, 0.0, 0.0, 0.0, 0.0, 0.0, 1.677618468752532E9, 0.0, 2023-02-28 16:07:48.752
153.0, 399.62683911643495, 187500.0, 187500.0, 187500.0, -187500.02235174447, -187500.02235174447, -187500.02235174447, -187500.02235174447, 0.186, -0.024, 0.998, 192.0, 0.0, 0.0, 0.0, 0.0, 0.0, 0.0, 0.0, 0.0, 0.0, 1.677618468760641E9, 0.0, 2023-02-28 16:07:48.760
154.0, 10.304154193896556, 187500.0, 187500.0, 187500.0, -187500.02235174447, -187500.02235174447, -187500.02235174447, -187500.02235174447, 0.186, -0.024, 0.998, 192.0, 0.0, 0.0, 0.0, 0.0, 0.0, 0.0, 0.0, 0.0, 0.0, 1.677618468760669E9, 0.0, 2023-02-28 16:07:48.760
155.0, -574.5515912236681, 187500.0, 187500.0, 187500.0, -187500.02235174447, -187500.02235174447, -187500.02235174447, -187500.02235174447, 0.182, -0.02, 0.998, 192.0, 5.0, 176.0, 255.0, 96.0, 31.0, 48.0, 0.0, 0.0, 0.0, 1.677618468768693E9, 0.0, 2023-02-28 16:07:48.768
156.0, -454.92505489886463, 187500.0, 187500.0, 187500.0, -187500.02235174447, -187500.02235174447, -187500.02235174447, -187500.02235174447, 0.182, -0.02, 0.998, 192.0, 0.0, 0.0, 0.0, 0.0, 0.0, 0.0, 0.0, 0.0, 0.0, 1.677618468768717E9, 0.0, 2023-02-28 16:07:48.768
157.0, 349.49187630318124, 187500.0, 187500.0, 187500.0, -187500.02235174447, -187500.02235174447, -187500.02235174447, -187500.02235174447, 0.182, -0.02, 0.998, 192.0, 0.0, 0.0, 0.0, 0.0, 0.0, 0.0, 0.0, 0.0, 0.0, 1.677618468775706E9, 0.0, 2023-02-28 16:07:48.775
158.0, 223.1151131528751, 187500.0, 187500.0, 187500.0, -187500.02235174447, -187500.02235174447, -187500.02235174447, -187500.02235174447, 0.182, -0.02, 0.998, 192.0, 0.0, 0.0, 0.0, 0.0, 0.0, 0.0, 0.0, 0.0, 0.0, 1.677618468775725E9, 0.0, 2023-02-28 16:07:48.775
159.0, -257.5144478695927, 187500.0, 187500.0, 187500.0, -187500.02235174447, -187500.02235174447, -187500.02235174447, -187500.02235174447, 0.182, -0.02, 0.998, 192.0, 0.0, 0.0, 0.0, 0.0, 0.0, 0.0, 0.0, 0.0, 0.0, 1.677618468783086E9, 0.0, 2023-02-28 16:07:48.783
160.0, -319.92051838880997, 187500.0, 187500.0, 187500.0, -187500.02235174447, -187500.02235174447, -187500.02235174447, -187500.02235174447, 0.182, -0.02, 0.998, 192.0, 0.0, 0.0, 0.0, 0.0, 0.0, 0.0, 0.0, 0.0, 0.0, 1.677618468783101E9, 0.0, 2023-02-28 16:07:48.783
161.0, 266.03046250706467, 187500.0, 187500.0, 187500.0, -187500.02235174447, -187500.02235174447, -187500.02235174447, -187500.02235174447, 0.182, -0.02, 0.998, 192.0, 0.0, 0.0, 0.0, 0.0, 0.0, 0.0, 0.0, 0.0, 0.0, 1.677618468790274E9, 0.0, 2023-02-28 16:07:48.790
162.0, 95.79957673544607, 187500.0, 187500.0, 187500.0, -187500.02235174447, -187500.02235174447, -187500.02235174447, -187500.02235174447, 0.182, -0.02, 0.998, 192.0, 0.0, 0.0, 0.0, 0.0, 0.0, 0.0, 0.0, 0.0, 0.0, 1.677618468798132E9, 0.0, 2023-02-28 16:07:48.798
163.0, -616.1258359105392, 187500.0, 187500.0, 187500.0, -187500.02235174447, -187500.02235174447, -187500.02235174447, -187500.02235174447, 0.182, -0.02, 0.998, 192.0, 0.0, 0.0, 0.0, 0.0, 0.0, 0.0, 0.0, 0.0, 0.0, 1.677618468798149E9, 0.0, 2023-02-28 16:07:48.798
164.0, -747.0176514408173, 187500.0, 187500.0, 187500.0, -187500.02235174447, -187500.02235174447, -187500.02235174447, -187500.02235174447, 0.17400000000000002, -0.02, 0.998, 192.0, 5.0, 112.0, 255.0, 96.0, 31.0, 48.0, 0.0, 0.0, 0.0, 1.677618468805308E9, 0.0, 2023-02-28 16:07:48.805
165.0, 91.1057103998316, 187500.0, 187500.0, 187500.0, -187500.02235174447, -187500.02235174447, -187500.02235174447, -187500.02235174447, 0.17400000000000002, -0.02, 0.998, 192.0, 0.0, 0.0, 0.0, 0.0, 0.0, 0.0, 0.0, 0.0, 0.0, 1.677618468805325E9, 0.0, 2023-02-28 16:07:48.805
166.0, 443.30214778210495, 187500.0, 187500.0, 187500.0, -187500.02235174447, -187500.02235174447, -187500.02235174447, -187500.02235174447, 0.17400000000000002, -0.02, 0.998, 192.0, 0.0, 0.0, 0.0, 0.0, 0.0, 0.0, 0.0, 0.0, 0.0, 1.677618468812894E9, 0.0, 2023-02-28 16:07:48.812
167.0, -350.7435739926784, 187500.0, 187500.0, 187500.0, -187500.02235174447, -187500.02235174447, -187500.02235174447, -187500.02235174447, 0.17400000000000002, -0.02, 0.998, 192.0, 0.0, 0.0, 0.0, 0.0, 0.0, 0.0, 0.0, 0.0, 0.0, 1.677618468812913E9, 0.0, 2023-02-28 16:07:48.812
168.0, -748.9846049528844, 187500.0, 187500.0, 187500.0, -187500.02235174447, -187500.02235174447, -187500.02235174447, -187500.02235174447, 0.17400000000000002, -0.02, 0.998, 192.0, 0.0, 0.0, 0.0, 0.0, 0.0, 0.0, 0.0, 0.0, 0.0, 1.677618468820744E9, 0.0, 2023-02-28 16:07:48.820
169.0, 86.07656789738749, 187500.0, 187500.0, 187500.0, -187500.02235174447, -187500.02235174447, -187500.02235174447, -187500.02235174447, 0.17400000000000002, -0.02, 0.998, 192.0, 0.0, 0.0, 0.0, 0.0, 0.0, 0.0, 0.0, 0.0, 0.0, 1.677618468820759E9, 0.0, 2023-02-28 16:07:48.820
170.0, 567.6449021869781, 187500.0, 187500.0, 187500.0, -187500.02235174447, -187500.02235174447, -187500.02235174447, -187500.02235174447, 0.17400000000000002, -0.02, 0.998, 192.0, 0.0, 0.0, 0.0, 0.0, 0.0, 0.0, 0.0, 0.0, 0.0, 1.677618468828913E9, 0.0, 2023-02-28 16:07:48.828
171.0, -250.3171861549838, 187500.0, 187500.0, 187500.0, -187500.02235174447, -187500.02235174447, -187500.02235174447, -187500.02235174447, 0.17400000000000002, -0.02, 0.998, 192.0, 0.0, 0.0, 0.0, 0.0, 0.0, 0.0, 0.0, 0.0, 0.0, 1.677618468828928E9, 0.0, 2023-02-28 16:07:48.828
172.0, -852.763754458875, 187500.0, 187500.0, 187500.0, -187500.02235174447, -187500.02235174447, -187500.02235174447, -187500.02235174447, 0.17400000000000002, -0.02, 0.998, 192.0, 0.0, 0.0, 0.0, 0.0, 0.0, 0.0, 0.0, 0.0, 0.0, 1.677618468835379E9, 0.0, 2023-02-28 16:07:48.835
173.0, -52.05721283641015, 187500.0, 187500.0, 187500.0, -187500.02235174447, -187500.02235174447, -187500.02235174447, -187500.02235174447, 0.17400000000000002, -0.02, 0.998, 192.0, 0.0, 0.0, 0.0, 0.0, 0.0, 0.0, 0.0, 0.0, 0.0, 1.677618468835394E9, 0.0, 2023-02-28 16:07:48.835
174.0, 451.2817205526496, 187500.0, 187500.0, 187500.0, -187500.02235174447, -187500.02235174447, -187500.02235174447, -187500.02235174447, 0.178, -0.02, 0.998, 192.0, 5.0, 144.0, 255.0, 96.0, 31.0, 48.0, 0.0, 0.0, 0.0, 1.677618468843435E9, 0.0, 2023-02-28 16:07:48.843
175.0, -10.751189083002696, 187500.0, 187500.0, 187500.0, -187500.02235174447, -187500.02235174447, -187500.02235174447, -187500.02235174447, 0.178, -0.02, 0.998, 192.0, 0.0, 0.0, 0.0, 0.0, 0.0, 0.0, 0.0, 0.0, 0.0, 1.677618468843453E9, 0.0, 2023-02-28 16:07:48.843
176.0, -1004.9567824550609, 187500.0, 187500.0, 187500.0, -187500.02235174447, -187500.02235174447, -187500.02235174447, -187500.02235174447, 0.178, -0.02, 0.998, 192.0, 0.0, 0.0, 0.0, 0.0, 0.0, 0.0, 0.0, 0.0, 0.0, 1.677618468850496E9, 0.0, 2023-02-28 16:07:48.850
177.0, -660.22582772086, 187500.0, 187500.0, 187500.0, -187500.02235174447, -187500.02235174447, -187500.02235174447, -187500.02235174447, 0.178, -0.02, 0.998, 192.0, 0.0, 0.0, 0.0, 0.0, 0.0, 0.0, 0.0, 0.0, 0.0, 1.677618468858509E9, 0.0, 2023-02-28 16:07:48.858
178.0, 284.87298308288854, 187500.0, 187500.0, 187500.0, -187500.02235174447, -187500.02235174447, -187500.02235174447, -187500.02235174447, 0.178, -0.02, 0.998, 192.0, 0.0, 0.0, 0.0, 0.0, 0.0, 0.0, 0.0, 0.0, 0.0, 1.677618468858535E9, 0.0, 2023-02-28 16:07:48.858
179.0, 18.239023475530562, 187500.0, 187500.0, 187500.0, -187500.02235174447, -187500.02235174447, -187500.02235174447, -187500.02235174447, 0.178, -0.02, 0.998, 192.0, 0.0, 0.0, 0.0, 0.0, 0.0, 0.0, 0.0, 0.0, 0.0, 1.677618468865163E9, 0.0, 2023-02-28 16:07:48.865
180.0, -675.7379383728431, 187500.0, 187500.0, 187500.0, -187500.02235174447, -187500.02235174447, -187500.02235174447, -187500.02235174447, 0.178, -0.02, 0.998, 192.0, 0.0, 0.0, 0.0, 0.0, 0.0, 0.0, 0.0, 0.0, 0.0, 1.677618468865181E9, 0.0, 2023-02-28 16:07:48.865
181.0, -438.45181923530333, 187500.0, 187500.0, 187500.0, -187500.02235174447, -187500.02235174447, -187500.02235174447, -187500.02235174447, 0.178, -0.02, 0.998, 192.0, 0.0, 0.0, 0.0, 0.0, 0.0, 0.0, 0.0, 0.0, 0.0, 1.677618468873036E9, 0.0, 2023-02-28 16:07:48.873
