%OpenBCI Raw EEG Data
%Number of channels = 8
%Sample Rate = 250 Hz
%Board = OpenBCI_GUI$BoardCytonSerial
Sample Index, EXG Channel 0, EXG Channel 1, EXG Channel 2, EXG Channel 3, EXG Channel 4, EXG Channel 5, EXG Channel 6, EXG Channel 7, Accel Channel 0, Accel Channel 1, Accel Channel 2, Other, Other, Other, Other, Other, Other, Other, Analog Channel 0, Analog Channel 1, Analog Channel 2, Timestamp, Other, Timestamp (Formatted)
236.0, 666.7078336128991, 187500.0, 187500.0, 187500.0, -187500.02235174447, -187500.02235174447, -187500.02235174447, -187500.02235174447, 0.0, 0.0, 0.0, 192.0, 0.0, 0.0, 0.0, 0.0, 0.0, 0.0, 0.0, 0.0, 0.0, 1.677618360441992E9, 0.0, 2023-02-28 16:06:00.441
237.0, 527.4341139118808, 187500.0, 187500.0, 187500.0, -187500.02235174447, -187500.02235174447, -187500.02235174447, -187500.02235174447, 0.176, -0.016, 0.996, 192.0, 5.0, 128.0, 255.0, 128.0, 31.0, 32.0, 0.0, 0.0, 0.0, 1.677618360442011E9, 0.0, 2023-02-28 16:06:00.442
238.0, -284.3365412159611, 187500.0, 187500.0, 187500.0, -187500.02235174447, -187500.02235174447, -187500.02235174447, -187500.02235174447, 0.176, -0.016, 0.996, 192.0, 0.0, 0.0, 0.0, 0.0, 0.0, 0.0, 0.0, 0.0, 0.0, 1.677618360442022E9, 0.0, 2023-02-28 16:06:00.442
239.0, -234.38039235834987, 187500.0, 187500.0, 187500.0, -187500.02235174447, -187500.02235174447, -187500.02235174447, -187500.02235174447, 0.176, -0.016, 0.996, 192.0, 0.0, 0.0, 0.0, 0.0, 0.0, 0.0, 0.0, 0.0, 0.0, 1.677618360442032E9, 0.0, 2023-02-28 16:06:00.442
0.0, 0.0, 0.0, 0.0, 0.0, 0.0, 0.0, 0.0, 0.0, 0.176, -0.016, 0.996, 192.0, 0.0, 0.0, 0.0, 0.0, 0.0, 0.0, 0.0, 0.0, 0.0, 1.677618360535944E9, 0.0, 2023-02-28 16:06:00.535
1.0, 2401.7172934671994, 187500.0, 187500.0, 187500.0, -187500.02235174447, -187500.02235174447, -187500.02235174447, -187500.02235174447, 0.176, -0.016, 0.994, 192.0, 5.0, 128.0, 255.0, 128.0, 31.0, 16.0, 0.0, 0.0, 0.0, 1.677618360542462E9, 0.0, 2023-02-28 16:06:00.542
2.0, 1920.2160144109744, 187500.0, 187500.0, 187500.0, -187500.02235174447, -187500.02235174447, -187500.02235174447, -187500.02235174447, 0.176, -0.016, 0.994, 192.0, 0.0, 0.0, 0.0, 0.0, 0.0, 0.0, 0.0, 0.0, 0.0, 1.677618360542482E9, 0.0, 2023-02-28 16:06:00.542
3.0, 1024.6486693201864, 187500.0, 187500.0, 187500.0, -187500.02235174447, -187500.02235174447, -187500.02235174447, -187500.02235174447, 0.176, -0.016, 0.994, 192.0, 0.0, 0.0, 0.0, 0.0, 0.0, 0.0, 0.0, 0.0, 0.0, 1.677618360549869E9, 0.0, 2023-02-28 16:06:00.549
4.0, 1417.1229502109231, 187500.0, 187500.0, 187500.0, -187500.02235174447, -187500.02235174447, -187500.02235174447, -187500.02235174447, 0.176, -0.016, 0.994, 192.0, 0.0, 0.0, 0.0, 0.0, 0.0, 0.0, 0.0, 0.0, 0.0, 1.677618360557658E9, 0.0, 2023-02-28 16:06:00.557
5.0, 2324.134388462828, 187500.0, 187500.0, 187500.0, -187500.02235174447, -187500.02235174447, -187500.02235174447, -187500.02235174447, 0.176, -0.016, 0.994, 192.0, 0.0, 0.0, 0.0, 0.0, 0.0, 0.0, 0.0, 0.0, 0.0, 1.677618360557678E9, 0.0, 2023-02-28 16:06:00.557
6.0, 2093.933772317621, 187500.0, 187500.0, 187500.0, -187500.02235174447, -187500.02235174447, -187500.02235174447, -187500.02235174447, 0.176, -0.016, 0.994, 192.0, 0.0, 0.0, 0.0, 0.0, 0.0, 0.0, 0.0, 0.0, 0.0, 1.677618360565585E9, 0.0, 2023-02-28 16:06:00.565
7.0, 1122.7951792234396, 187500.0, 187500.0, 187500.0, -187500.02235174447, -187500.02235174447, -187500.02235174447, -187500.02235174447, 0.176, -0.016, 0.994, 192.0, 0.0, 0.0, 0.0, 0.0, 0.0, 0.0, 0.0, 0.0, 0.0, 1.677618360565602E9, 0.0, 2023-02-28 16:06:00.565
8.0, 1251.2059511191787, 187500.0, 187500.0, 187500.0, -187500.02235174447, -187500.02235174447, -187500.02235174447, -187500.02235174447, 0.17400000000000002, -0.018000000000000002, 0.996, 192.0, 5.0, 112.0, 255.0, 112.0, 31.0, 32.0, 0.0, 0.0, 0.0, 1.677618360572414E9, 0.0, 2023-02-28 16:06:00.572
9.0, 2214.4320266761815, 187500.0, 187500.0, 187500.0, -187500.02235174447, -187500.02235174447, -187500.02235174447, -187500.02235174447, 0.17400000000000002, -0.018000000000000002, 0.996, 192.0, 0.0, 0.0, 0.0, 0.0, 0.0, 0.0, 0.0, 0.0, 0.0, 1.677618360572464E9, 0.0, 2023-02-28 16:06:00.572
10.0, 2239.8683118663207, 187500.0, 187500.0, 187500.0, -187500.02235174447, -187500.02235174447, -187500.02235174447, -187500.02235174447, 0.17400000000000002, -0.018000000000000002, 0.996, 192.0, 0.0, 0.0, 0.0, 0.0, 0.0, 0.0, 0.0, 0.0, 0.0, 1.677618360580353E9, 0.0, 2023-02-28 16:06:00.580
11.0, 1259.6325587788294, 187500.0, 187500.0, 187500.0, -187500.02235174447, -187500.02235174447, -187500.02235174447, -187500.02235174447, 0.17400000000000002, -0.018000000000000002, 0.996, 192.0, 0.0, 0.0, 0.0, 0.0, 0.0, 0.0, 0.0, 0.0, 0.0, 1.677618360580369E9, 0.0, 2023-02-28 16:06:00.580
12.0, 1115.1285308752695, 187500.0, 187500.0, 187500.0, -187500.02235174447, -187500.02235174447, -187500.02235174447, -187500.02235174447, 0.17400000000000002, -0.018000000000000002, 0.996, 192.0, 0.0, 0.0, 0.0, 0.0, 0.0, 0.0, 0.0, 0.0, 0.0, 1.677618360588851E9, 0.0, 2023-02-28 16:06:00.588
13.0, 2058.3050916558614, 187500.0, 187500.0, 187500.0, -187500.02235174447, -187500.02235174447, -187500.02235174447, -187500.02235174447, 0.17400000000000002, -0.018000000000000002, 0.996, 192.0, 0.0, 0.0, 0.0, 0.0, 0.0, 0.0, 0.0, 0.0, 0.0, 1.677618360588869E9, 0.0, 2023-02-28 16:06:00.588
14.0, 2348.564845152479, 187500.0, 187500.0, 187500.0, -187500.02235174447, -187500.02235174447, -187500.02235174447, -187500.02235174447, 0.17400000000000002, -0.018000000000000002, 0.996, 192.0, 0.0, 0.0, 0.0, 0.0, 0.0, 0.0, 0.0, 0.0, 0.0, 1.677618360594799E9, 0.0, 2023-02-28 16:06:00.594
15.0, 1433.640889363395, 187500.0, 187500.0, 187500.0, -187500.02235174447, -187500.02235174447, -187500.02235174447, -187500.02235174447, 0.17400000000000002, -0.018000000000000002, 0.996, 192.0, 0.0, 0.0, 0.0, 0.0, 0.0, 0.0, 0.0, 0.0, 0.0, 1.677618360594814E9, 0.0, 2023-02-28 16:06:00.594
16.0, 1038.3726404157449, 187500.0, 187500.0, 187500.0, -187500.02235174447, -187500.02235174447, -187500.02235174447, -187500.02235174447, 0.17400000000000002, -0.018000000000000002, 0.996, 192.0, 0.0, 0.0, 0.0, 0.0, 0.0, 0.0, 0.0, 0.0, 0.0, 1.677618360602971E9, 0.0, 2023-02-28 16:06:00.602
17.0, 1890.1529181185865, 187500.0, 187500.0, 187500.0, -187500.02235174447, -187500.02235174447, -187500.02235174447, -187500.02235174447, 0.17400000000000002, -0.016, 0.994, 192.0, 5.0, 112.0, 255.0, 128.0, 31.0, 16.0, 0.0, 0.0, 0.0, 1.677618360602987E9, 0.0, 2023-02-28 16:06:00.602
18.0, 2398.5433457545455, 187500.0, 187500.0, 187500.0, -187500.02235174447, -187500.02235174447, -187500.02235174447, -187500.02235174447, 0.17400000000000002, -0.016, 0.994, 192.0, 0.0, 0.0, 0.0, 0.0, 0.0, 0.0, 0.0, 0.0, 0.0, 1.677618360609871E9, 0.0, 2023-02-28 16:06:00.609
19.0, 1598.2391355322761, 187500.0, 187500.0, 187500.0, -187500.02235174447, -187500.02235174447, -187500.02235174447, -187500.02235174447, 0.17400000000000002, -0.016, 0.994, 192.0, 0.0, 0.0, 0.0, 0.0, 0.0, 0.0, 0.0, 0.0, 0.0, 1.677618360609896E9, 0.0, 2023-02-28 16:06:00.609
20.0, 969.6410262156757, 187500.0, 187500.0, 187500.0, -187500.02235174447, -187500.02235174447, -187500.02235174447, -187500.02235174447, 0.17400000000000002, -0.016, 0.994, 192.0, 0.0, 0.0, 0.0, 0.0, 0.0, 0.0, 0.0, 0.0, 0.0, 1.677618360617919E9, 0.0, 2023-02-28 16:06:00.617
21.0, 1716.4798637008505, 187500.0, 187500.0, 187500.0, -187500.02235174447, -187500.02235174447, -187500.02235174447, -187500.02235174447, 0.17400000000000002, -0.016, 0.994, 192.0, 0.0, 0.0, 0.0, 0.0, 0.0, 0.0, 0.0, 0.0, 0.0, 1.677618360624547E9, 0.0, 2023-02-28 16:06:00.624
22.0, 2416.916479696808, 187500.0, 187500.0, 187500.0, -187500.02235174447, -187500.02235174447, -187500.02235174447, -187500.02235174447, 0.17400000000000002, -0.016, 0.994, 192.0, 0.0, 0.0, 0.0, 0.0, 0.0, 0.0, 0.0, 0.0, 0.0, 1.677618360624561E9, 0.0, 2023-02-28 16:06:00.624
23.0, 1782.529268566283, 187500.0, 187500.0, 187500.0, -187500.02235174447, -187500.02235174447, -187500.02235174447, -187500.02235174447, 0.17400000000000002, -0.016, 0.994, 192.0, 0.0, 0.0, 0.0, 0.0, 0.0, 0.0, 0.0, 0.0, 0.0, 1.677618360632397E9, 0.0, 2023-02-28 16:06:00.632
24.0, 981.018064143427, 187500.0, 187500.0, 187500.0, -187500.02235174447, -187500.02235174447, -187500.02235174447, -187500.02235174447, 0.17400000000000002, -0.016, 0.994, 192.0, 0.0, 0.0, 0.0, 0.0, 0.0, 0.0, 0.0, 0.0, 0.0, 1.677618360632421E9, 0.0, 2023-02-28 16:06:00.632
25.0, 1533.0167452116902, 187500.0, 187500.0, 187500.0, -187500.02235174447, -187500.02235174447, -187500.02235174447, -187500.02235174447, 0.17400000000000002, -0.016, 0.994, 192.0, 0.0, 0.0, 0.0, 0.0, 0.0, 0.0, 0.0, 0.0, 0.0, 1.677618360640477E9, 0.0, 2023-02-28 16:06:00.640
26.0, 2386.4510520042245, 187500.0, 187500.0, 187500.0, -187500.02235174447, -187500.02235174447, -187500.02235174447, -187500.02235174447, 0.17400000000000002, -0.016, 0.994, 192.0, 0.0, 0.0, 0.0, 0.0, 0.0, 0.0, 0.0, 0.0, 0.0, 1.677618360640491E9, 0.0, 2023-02-28 16:06:00.640
27.0, 1966.5735324112813, 187500.0, 187500.0, 187500.0, -187500.02235174447, -187500.02235174447, -187500.02235174447, -187500.02235174447, 0.178, -0.018000000000000002, 0.994, 192.0, 5.0, 144.0, 255.0, 112.0, 31.0, 16.0, 0.0, 0.0, 0.0, 1.677618360647694E9, 0.0, 2023-02-28 16:06:00.647
28.0, 1033.2987944243903, 187500.0, 187500.0, 187500.0, -187500.02235174447, -187500.02235174447, -187500.02235174447, -187500.02235174447, 0.178, -0.018000000000000002, 0.994, 192.0, 0.0, 0.0, 0.0, 0.0, 0.0, 0.0, 0.0, 0.0, 0.0, 1.677618360647707E9, 0.0, 2023-02-28 16:06:00.647
29.0, 1381.874249204904, 187500.0, 187500.0, 187500.0, -187500.02235174447, -187500.02235174447, -187500.02235174447, -187500.02235174447, 0.178, -0.018000000000000002, 0.994, 192.0, 0.0, 0.0, 0.0, 0.0, 0.0, 0.0, 0.0, 0.0, 0.0, 1.677618360655156E9, 0.0, 2023-02-28 16:06:00.655
30.0, 2297.3569986053703, 187500.0, 187500.0, 187500.0, -187500.02235174447, -187500.02235174447, -187500.02235174447, -187500.02235174447, 0.178, -0.018000000000000002, 0.994, 192.0, 0.0, 0.0, 0.0, 0.0, 0.0, 0.0, 0.0, 0.0, 0.0, 1.677618360655175E9, 0.0, 2023-02-28 16:06:00.655
31.0, 2105.8472521122994, 187500.0, 187500.0, 187500.0, -187500.02235174447, -187500.02235174447, -187500.02235174447, -187500.02235174447, 0.178, -0.018000000000000002, 0.994, 192.0, 0.0, 0.0, 0.0, 0.0, 0.0, 0.0, 0.0, 0.0, 0.0, 1.677618360663268E9, 0.0, 2023-02-28 16:06:00.663
32.0, 1122.5716617788867, 187500.0, 187500.0, 187500.0, -187500.02235174447, -187500.02235174447, -187500.02235174447, -187500.02235174447, 0.178, -0.018000000000000002, 0.994, 192.0, 0.0, 0.0, 0.0, 0.0, 0.0, 0.0, 0.0, 0.0, 0.0, 1.677618360663287E9, 0.0, 2023-02-28 16:06:00.663
33.0, 1176.394662427266, 187500.0, 187500.0, 187500.0, -187500.02235174447, -187500.02235174447, -187500.02235174447, -187500.02235174447, 0.178, -0.018000000000000002, 0.994, 192.0, 0.0, 0.0, 0.0, 0.0, 0.0, 0.0, 0.0, 0.0, 0.0, 1.677618360671159E9, 0.0, 2023-02-28 16:06:00.671
34.0, 2134.837464670833, 187500.0, 187500.0, 187500.0, -187500.02235174447, -187500.02235174447, -187500.02235174447, -187500.02235174447, 0.178, -0.018000000000000002, 0.994, 192.0, 0.0, 0.0, 0.0, 0.0, 0.0, 0.0, 0.0, 0.0, 0.0, 1.677618360671181E9, 0.0, 2023-02-28 16:06:00.671
35.0, 2249.546617215469, 187500.0, 187500.0, 187500.0, -187500.02235174447, -187500.02235174447, -187500.02235174447, -187500.02235174447, 0.178, -0.018000000000000002, 0.994, 192.0, 0.0, 0.0, 0.0, 0.0, 0.0, 0.0, 0.0, 0.0, 0.0, 1.67761836067731E9, 0.0, 2023-02-28 16:06:00.677
36.0, 1292.2661056835777, 187500.0, 187500.0, 187500.0, -187500.02235174447, -187500.02235174447, -187500.02235174447, -187500.02235174447, 0.178, -0.018000000000000002, 0.994, 192.0, 0.0, 0.0, 0.0, 0.0, 0.0, 0.0, 0.0, 0.0, 0.0, 1.677618360684856E9, 0.0, 2023-02-28 16:06:00.684
37.0, 1062.244303494013, 187500.0, 187500.0, 187500.0, -187500.02235174447, -187500.02235174447, -187500.02235174447, -187500.02235174447, 0.18, -0.02, 0.996, 192.0, 5.0, 160.0, 255.0, 96.0, 31.0, 32.0, 0.0, 0.0, 0.0, 1.677618360684883E9, 0.0, 2023-02-28 16:06:00.684
38.0, 1988.4782419774822, 187500.0, 187500.0, 187500.0, -187500.02235174447, -187500.02235174447, -187500.02235174447, -187500.02235174447, 0.18, -0.02, 0.996, 192.0, 0.0, 0.0, 0.0, 0.0, 0.0, 0.0, 0.0, 0.0, 0.0, 1.677618360692603E9, 0.0, 2023-02-28 16:06:00.692
39.0, 2333.142141478317, 187500.0, 187500.0, 187500.0, -187500.02235174447, -187500.02235174447, -187500.02235174447, -187500.02235174447, 0.18, -0.02, 0.996, 192.0, 0.0, 0.0, 0.0, 0.0, 0.0, 0.0, 0.0, 0.0, 0.0, 1.677618360692626E9, 0.0, 2023-02-28 16:06:00.692
40.0, 1432.9703370297357, 187500.0, 187500.0, 187500.0, -187500.02235174447, -187500.02235174447, -187500.02235174447, -187500.02235174447, 0.18, -0.02, 0.996, 192.0, 0.0, 0.0, 0.0, 0.0, 0.0, 0.0, 0.0, 0.0, 0.0, 1.677618360700875E9, 0.0, 2023-02-28 16:06:00.700
41.0, 973.5078780064438, 187500.0, 187500.0, 187500.0, -187500.02235174447, -187500.02235174447, -187500.02235174447, -187500.02235174447, 0.18, -0.02, 0.996, 192.0, 0.0, 0.0, 0.0, 0.0, 0.0, 0.0, 0.0, 0.0, 0.0, 1.677618360700887E9, 0.0, 2023-02-28 16:06:00.700
42.0, 1829.7585046003467, 187500.0, 187500.0, 187500.0, -187500.02235174447, -187500.02235174447, -187500.02235174447, -187500.02235174447, 0.18, -0.02, 0.996, 192.0, 0.0, 0.0, 0.0, 0.0, 0.0, 0.0, 0.0, 0.0, 0.0, 1.677618360707492E9, 0.0, 2023-02-28 16:06:00.707
43.0, 2393.7377206966544, 187500.0, 187500.0, 187500.0, -187500.02235174447, -187500.02235174447, -187500.02235174447, -187500.02235174447, 0.18, -0.02, 0.996, 192.0, 0.0, 0.0, 0.0, 0.0, 0.0, 0.0, 0.0, 0.0, 0.0, 1.677618360707511E9, 0.0, 2023-02-28 16:06:00.707
44.0, 1619.3168305536308, 187500.0, 187500.0, 187500.0, -187500.02235174447, -187500.02235174447, -187500.02235174447, -187500.02235174447, 0.18, -0.02, 0.996, 192.0, 0.0, 0.0, 0.0, 0.0, 0.0, 0.0, 0.0, 0.0, 0.0, 1.67761836071535E9, 0.0, 2023-02-28 16:06:00.715
45.0, 936.8957205886509, 187500.0, 187500.0, 187500.0, -187500.02235174447, -187500.02235174447, -187500.02235174447, -187500.02235174447, 0.18, -0.02, 0.996, 192.0, 0.0, 0.0, 0.0, 0.0, 0.0, 0.0, 0.0, 0.0, 0.0, 1.677618360715374E9, 0.0, 2023-02-28 16:06:00.715
46.0, 1651.9280257139237, 187500.0, 187500.0, 187500.0, -187500.02235174447, -187500.02235174447, -187500.02235174447, -187500.02235174447, 0.18, -0.02, 0.996, 192.0, 0.0, 0.0, 0.0, 0.0, 0.0, 0.0, 0.0, 0.0, 0.0, 1.677618360723457E9, 0.0, 2023-02-28 16:06:00.723
47.0, 2395.883488164364, 187500.0, 187500.0, 187500.0, -187500.02235174447, -187500.02235174447, -187500.02235174447, -187500.02235174447, 0.17400000000000002, -0.018000000000000002, 0.998, 192.0, 5.0, 112.0, 255.0, 112.0, 31.0, 48.0, 0.0, 0.0, 0.0, 1.677618360723469E9, 0.0, 2023-02-28 16:06:00.723
48.0, 1799.3154286522185, 187500.0, 187500.0, 187500.0, -187500.02235174447, -187500.02235174447, -187500.02235174447, -187500.02235174447, 0.17400000000000002, -0.018000000000000002, 0.998, 192.0, 0.0, 0.0, 0.0, 0.0, 0.0, 0.0, 0.0, 0.0, 0.0, 1.677618360730192E9, 0.0, 2023-02-28 16:06:00.730
49.0, 948.3621654942234, 187500.0, 187500.0, 187500.0, -187500.02235174447, -187500.02235174447, -187500.02235174447, -187500.02235174447, 0.17400000000000002, -0.018000000000000002, 0.998, 192.0, 0.0, 0.0, 0.0, 0.0, 0.0, 0.0, 0.0, 0.0, 0.0, 1.677618360730213E9, 0.0, 2023-02-28 16:06:00.730
50.0, 1470.476564225741, 187500.0, 187500.0, 187500.0, -187500.02235174447, -187500.02235174447, -187500.02235174447, -187500.02235174447, 0.17400000000000002, -0.018000000000000002, 0.998, 192.0, 0.0, 0.0, 0.0, 0.0, 0.0, 0.0, 0.0, 0.0, 0.0, 1.677618360737055E9, 0.0, 2023-02-28 16:06:00.737
51.0, 2356.6114731563894, 187500.0, 187500.0, 187500.0, -187500.02235174447, -187500.02235174447, -187500.02235174447, -187500.02235174447, 0.17400000000000002, -0.018000000000000002, 0.998, 192.0, 0.0, 0.0, 0.0, 0.0, 0.0, 0.0, 0.0, 0.0, 0.0, 1.677618360744973E9, 0.0, 2023-02-28 16:06:00.744
52.0, 1984.969018097999, 187500.0, 187500.0, 187500.0, -187500.02235174447, -187500.02235174447, -187500.02235174447, -187500.02235174447, 0.17400000000000002, -0.018000000000000002, 0.998, 192.0, 0.0, 0.0, 0.0, 0.0, 0.0, 0.0, 0.0, 0.0, 0.0, 1.677618360744985E9, 0.0, 2023-02-28 16:06:00.744
53.0, 1042.7759340734403, 187500.0, 187500.0, 187500.0, -187500.02235174447, -187500.02235174447, -187500.02235174447, -187500.02235174447, 0.17400000000000002, -0.018000000000000002, 0.998, 192.0, 0.0, 0.0, 0.0, 0.0, 0.0, 0.0, 0.0, 0.0, 0.0, 1.677618360753797E9, 0.0, 2023-02-28 16:06:00.753
54.0, 1305.967725034681, 187500.0, 187500.0, 187500.0, -187500.02235174447, -187500.02235174447, -187500.02235174447, -187500.02235174447, 0.17400000000000002, -0.018000000000000002, 0.998, 192.0, 0.0, 0.0, 0.0, 0.0, 0.0, 0.0, 0.0, 0.0, 0.0, 1.67761836075382E9, 0.0, 2023-02-28 16:06:00.753
55.0, 2242.304652011949, 187500.0, 187500.0, 187500.0, -187500.02235174447, -187500.02235174447, -187500.02235174447, -187500.02235174447, 0.17400000000000002, -0.018000000000000002, 0.998, 192.0, 0.0, 0.0, 0.0, 0.0, 0.0, 0.0, 0.0, 0.0, 0.0, 1.677618360760375E9, 0.0, 2023-02-28 16:06:00.760
56.0, 2131.417647769171, 187500.0, 187500.0, 187500.0, -187500.02235174447, -187500.02235174447, -187500.02235174447, -187500.02235174447, 0.17400000000000002, -0.018000000000000002, 0.998, 192.0, 0.0, 0.0, 0.0, 0.0, 0.0, 0.0, 0.0, 0.0, 0.0, 1.677618360760441E9, 0.0, 2023-02-28 16:06:00.760
57.0, 1160.457868630632, 187500.0, 187500.0, 187500.0, -187500.02235174447, -187500.02235174447, -187500.02235174447, -187500.02235174447, 0.17400000000000002, -0.022, 0.996, 192.0, 5.0, 112.0, 255.0, 80.0, 31.0, 32.0, 0.0, 0.0, 0.0, 1.67761836076839E9, 0.0, 2023-02-28 16:06:00.768
58.0, 1157.7309558070847, 187500.0, 187500.0, 187500.0, -187500.02235174447, -187500.02235174447, -187500.02235174447, -187500.02235174447, 0.17400000000000002, -0.022, 0.996, 192.0, 0.0, 0.0, 0.0, 0.0, 0.0, 0.0, 0.0, 0.0, 0.0, 1.677618360768419E9, 0.0, 2023-02-28 16:06:00.768
59.0, 2109.9823248365315, 187500.0, 187500.0, 187500.0, -187500.02235174447, -187500.02235174447, -187500.02235174447, -187500.02235174447, 0.17400000000000002, -0.022, 0.996, 192.0, 0.0, 0.0, 0.0, 0.0, 0.0, 0.0, 0.0, 0.0, 0.0, 1.677618360774886E9, 0.0, 2023-02-28 16:06:00.774
60.0, 2260.20839932065, 187500.0, 187500.0, 187500.0, -187500.02235174447, -187500.02235174447, -187500.02235174447, -187500.02235174447, 0.17400000000000002, -0.022, 0.996, 192.0, 0.0, 0.0, 0.0, 0.0, 0.0, 0.0, 0.0, 0.0, 0.0, 1.677618360774906E9, 0.0, 2023-02-28 16:06:00.774
61.0, 1324.4302659547648, 187500.0, 187500.0, 187500.0, -187500.02235174447, -187500.02235174447, -187500.02235174447, -187500.02235174447, 0.17400000000000002, -0.022, 0.996, 192.0, 0.0, 0.0, 0.0, 0.0, 0.0, 0.0, 0.0, 0.0, 0.0, 1.677618360783081E9, 0.0, 2023-02-28 16:06:00.783
62.0, 1071.9226088431608, 187500.0, 187500.0, 187500.0, -187500.02235174447, -187500.02235174447, -187500.02235174447, -187500.02235174447, 0.17400000000000002, -0.022, 0.996, 192.0, 0.0, 0.0, 0.0, 0.0, 0.0, 0.0, 0.0, 0.0, 0.0, 1.677618360783093E9, 0.0, 2023-02-28 16:06:00.783
63.0, 1960.225636985974, 187500.0, 187500.0, 187500.0, -187500.02235174447, -187500.02235174447, -187500.02235174447, -187500.02235174447, 0.17400000000000002, -0.022, 0.996, 192.0, 0.0, 0.0, 0.0, 0.0, 0.0, 0.0, 0.0, 0.0, 0.0, 1.6776183607913E9, 0.0, 2023-02-28 16:06:00.791
64.0, 2352.409345198792, 187500.0, 187500.0, 187500.0, -187500.02235174447, -187500.02235174447, -187500.02235174447, -187500.02235174447, 0.17400000000000002, -0.022, 0.996, 192.0, 0.0, 0.0, 0.0, 0.0, 0.0, 0.0, 0.0, 0.0, 0.0, 1.677618360791318E9, 0.0, 2023-02-28 16:06:00.791
65.0, 1499.5561837620955, 187500.0, 187500.0, 187500.0, -187500.02235174447, -187500.02235174447, -187500.02235174447, -187500.02235174447, 0.17400000000000002, -0.022, 0.996, 192.0, 0.0, 0.0, 0.0, 0.0, 0.0, 0.0, 0.0, 0.0, 0.0, 1.67761836079716E9, 0.0, 2023-02-28 16:06:00.797
66.0, 994.5185177944325, 187500.0, 187500.0, 187500.0, -187500.02235174447, -187500.02235174447, -187500.02235174447, -187500.02235174447, 0.17400000000000002, -0.022, 0.996, 192.0, 0.0, 0.0, 0.0, 0.0, 0.0, 0.0, 0.0, 0.0, 0.0, 1.67761836080463E9, 0.0, 2023-02-28 16:06:00.804
67.0, 1803.2940391652633, 187500.0, 187500.0, 187500.0, -187500.02235174447, -187500.02235174447, -187500.02235174447, -187500.02235174447, 0.18, -0.022, 0.992, 192.0, 5.0, 160.0, 255.0, 80.0, 31.0, 0.0, 0.0, 0.0, 0.0, 1.67761836080465E9, 0.0, 2023-02-28 16:06:00.804
68.0, 2406.6123255029115, 187500.0, 187500.0, 187500.0, -187500.02235174447, -187500.02235174447, -187500.02235174447, -187500.02235174447, 0.18, -0.022, 0.992, 192.0, 0.0, 0.0, 0.0, 0.0, 0.0, 0.0, 0.0, 0.0, 0.0, 1.677618360812722E9, 0.0, 2023-02-28 16:06:00.812
69.0, 1730.136779563043, 187500.0, 187500.0, 187500.0, -187500.02235174447, -187500.02235174447, -187500.02235174447, -187500.02235174447, 0.18, -0.022, 0.992, 192.0, 0.0, 0.0, 0.0, 0.0, 0.0, 0.0, 0.0, 0.0, 0.0, 1.677618360812748E9, 0.0, 2023-02-28 16:06:00.812
70.0, 1045.1899224746135, 187500.0, 187500.0, 187500.0, -187500.02235174447, -187500.02235174447, -187500.02235174447, -187500.02235174447, 0.18, -0.022, 0.992, 192.0, 0.0, 0.0, 0.0, 0.0, 0.0, 0.0, 0.0, 0.0, 0.0, 1.677618360820703E9, 0.0, 2023-02-28 16:06:00.820
71.0, 1700.654828626493, 187500.0, 187500.0, 187500.0, -187500.02235174447, -187500.02235174447, -187500.02235174447, -187500.02235174447, 0.18, -0.022, 0.992, 192.0, 0.0, 0.0, 0.0, 0.0, 0.0, 0.0, 0.0, 0.0, 0.0, 1.677618360820721E9, 0.0, 2023-02-28 16:06:00.820
72.0, 2393.402444529825, 187500.0, 187500.0, 187500.0, -187500.02235174447, -187500.02235174447, -187500.02235174447, -187500.02235174447, 0.18, -0.022, 0.992, 192.0, 0.0, 0.0, 0.0, 0.0, 0.0, 0.0, 0.0, 0.0, 0.0, 1.677618360827225E9, 0.0, 2023-02-28 16:06:00.827
73.0, 1921.3336016337398, 187500.0, 187500.0, 187500.0, -187500.02235174447, -187500.02235174447, -187500.02235174447, -187500.02235174447, 0.18, -0.022, 0.992, 192.0, 0.0, 0.0, 0.0, 0.0, 0.0, 0.0, 0.0, 0.0, 0.0, 1.677618360827239E9, 0.0, 2023-02-28 16:06:00.827
74.0, 1171.3878716692773, 187500.0, 187500.0, 187500.0, -187500.02235174447, -187500.02235174447, -187500.02235174447, -187500.02235174447, 0.18, -0.022, 0.992, 192.0, 0.0, 0.0, 0.0, 0.0, 0.0, 0.0, 0.0, 0.0, 0.0, 1.677618360835254E9, 0.0, 2023-02-28 16:06:00.835
75.0, 1469.0460525806013, 187500.0, 187500.0, 187500.0, -187500.02235174447, -187500.02235174447, -187500.02235174447, -187500.02235174447, 0.18, -0.022, 0.992, 192.0, 0.0, 0.0, 0.0, 0.0, 0.0, 0.0, 0.0, 0.0, 0.0, 1.677618360835272E9, 0.0, 2023-02-28 16:06:00.835
76.0, 2329.565862365468, 187500.0, 187500.0, 187500.0, -187500.02235174447, -187500.02235174447, -187500.02235174447, -187500.02235174447, 0.17200000000000001, -0.022, 0.99, 192.0, 5.0, 96.0, 255.0, 80.0, 30.0, 240.0, 0.0, 0.0, 0.0, 1.677618360843263E9, 0.0, 2023-02-28 16:06:00.843
77.0, 2049.1408764291855, 187500.0, 187500.0, 187500.0, -187500.02235174447, -187500.02235174447, -187500.02235174447, -187500.02235174447, 0.17200000000000001, -0.022, 0.99, 192.0, 0.0, 0.0, 0.0, 0.0, 0.0, 0.0, 0.0, 0.0, 0.0, 1.677618360843281E9, 0.0, 2023-02-28 16:06:00.843
78.0, 1110.300554072923, 187500.0, 187500.0, 187500.0, -187500.02235174447, -187500.02235174447, -187500.02235174447, -187500.02235174447, 0.17200000000000001, -0.022, 0.99, 192.0, 0.0, 0.0, 0.0, 0.0, 0.0, 0.0, 0.0, 0.0, 0.0, 1.677618360850366E9, 0.0, 2023-02-28 16:06:00.850
79.0, 1332.5886526809518, 187500.0, 187500.0, 187500.0, -187500.02235174447, -187500.02235174447, -187500.02235174447, -187500.02235174447, 0.17200000000000001, -0.022, 0.99, 192.0, 0.0, 0.0, 0.0, 0.0, 0.0, 0.0, 0.0, 0.0, 0.0, 1.677618360850449E9, 0.0, 2023-02-28 16:06:00.850
80.0, 2360.9030080918087, 187500.0, 187500.0, 187500.0, -187500.02235174447, -187500.02235174447, -187500.02235174447, -187500.02235174447, 0.17200000000000001, -0.022, 0.99, 192.0, 0.0, 0.0, 0.0, 0.0, 0.0, 0.0, 0.0, 0.0, 0.0, 1.677618360856832E9, 0.0, 2023-02-28 16:06:00.856
81.0, 2592.3106184376024, 187500.0, 187500.0, 187500.0, -187500.02235174447, -187500.02235174447, -187500.02235174447, -187500.02235174447, 0.17200000000000001, -0.022, 0.99, 192.0, 0.0, 0.0, 0.0, 0.0, 0.0, 0.0, 0.0, 0.0, 0.0, 1.677618360856853E9, 0.0, 2023-02-28 16:06:00.856
82.0, 1398.4368918462865, 187500.0, 187500.0, 187500.0, -187500.02235174447, -187500.02235174447, -187500.02235174447, -187500.02235174447, 0.17200000000000001, -0.022, 0.99, 192.0, 0.0, 0.0, 0.0, 0.0, 0.0, 0.0, 0.0, 0.0, 0.0, 1.677618360864959E9, 0.0, 2023-02-28 16:06:00.864
83.0, 1296.7588063190944, 187500.0, 187500.0, 187500.0, -187500.02235174447, -187500.02235174447, -187500.02235174447, -187500.02235174447, 0.17200000000000001, -0.022, 0.99, 192.0, 0.0, 0.0, 0.0, 0.0, 0.0, 0.0, 0.0, 0.0, 0.0, 1.67761836087301E9, 0.0, 2023-02-28 16:06:00.873
84.0, 2044.5587688158475, 187500.0, 187500.0, 187500.0, -187500.02235174447, -187500.02235174447, -187500.02235174447, -187500.02235174447, 0.17200000000000001, -0.022, 0.99, 192.0, 0.0, 0.0, 0.0, 0.0, 0.0, 0.0, 0.0, 0.0, 0.0, 1.677618360873024E9, 0.0, 2023-02-28 16:06:00.873
85.0, 2611.8907465804514, 187500.0, 187500.0, 187500.0, -187500.02235174447, -187500.02235174447, -187500.02235174447, -187500.02235174447, 0.17200000000000001, -0.022, 0.99, 192.0, 0.0, 0.0, 0.0, 0.0, 0.0, 0.0, 0.0, 0.0, 0.0, 1.67761836087995E9, 0.0, 2023-02-28 16:06:00.879
86.0, 1719.4749974578617, 187500.0, 187500.0, 187500.0, -187500.02235174447, -187500.02235174447, -187500.02235174447, -187500.02235174447, 0.17200000000000001, -0.022, 0.994, 192.0, 5.0, 96.0, 255.0, 80.0, 31.0, 16.0, 0.0, 0.0, 0.0, 1.677618360879965E9, 0.0, 2023-02-28 16:06:00.879
87.0, 905.5585748623104, 187500.0, 187500.0, 187500.0, -187500.02235174447, -187500.02235174447, -187500.02235174447, -187500.02235174447, 0.17200000000000001, -0.022, 0.994, 192.0, 0.0, 0.0, 0.0, 0.0, 0.0, 0.0, 0.0, 0.0, 0.0, 1.677618360887647E9, 0.0, 2023-02-28 16:06:00.887
88.0, 2127.5284442339475, 187500.0, 187500.0, 187500.0, -187500.02235174447, -187500.02235174447, -187500.02235174447, -187500.02235174447, 0.17200000000000001, -0.022, 0.994, 192.0, 0.0, 0.0, 0.0, 0.0, 0.0, 0.0, 0.0, 0.0, 0.0, 1.677618360887662E9, 0.0, 2023-02-28 16:06:00.887
89.0, 3037.2891470538557, 187500.0, 187500.0, 187500.0, -187500.02235174447, -187500.02235174447, -187500.02235174447, -187500.02235174447, 0.17200000000000001, -0.022, 0.994, 192.0, 0.0, 0.0, 0.0, 0.0, 0.0, 0.0, 0.0, 0.0, 0.0, 1.677618360895628E9, 0.0, 2023-02-28 16:06:00.895
90.0, 1772.5156870503054, 187500.0, 187500.0, 187500.0, -187500.02235174447, -187500.02235174447, -187500.02235174447, -187500.02235174447, 0.17200000000000001, -0.022, 0.994, 192.0, 0.0, 0.0, 0.0, 0.0, 0.0, 0.0, 0.0, 0.0, 0.0, 1.677618360895651E9, 0.0, 2023-02-28 16:06:00.895
91.0, 971.5185727499215, 187500.0, 187500.0, 187500.0, -187500.02235174447, -187500.02235174447, -187500.02235174447, -187500.02235174447, 0.17200000000000001, -0.022, 0.994, 192.0, 0.0, 0.0, 0.0, 0.0, 0.0, 0.0, 0.0, 0.0, 0.0, 1.677618360903508E9, 0.0, 2023-02-28 16:06:00.903
92.0, 2109.13295854723, 187500.0, 187500.0, 187500.0, -187500.02235174447, -187500.02235174447, -187500.02235174447, -187500.02235174447, 0.17200000000000001, -0.022, 0.994, 192.0, 0.0, 0.0, 0.0, 0.0, 0.0, 0.0, 0.0, 0.0, 0.0, 1.677618360903532E9, 0.0, 2023-02-28 16:06:00.903
93.0, 2290.8079374799654, 187500.0, 187500.0, 187500.0, -187500.02235174447, -187500.02235174447, -187500.02235174447, -187500.02235174447, 0.17200000000000001, -0.022, 0.994, 192.0, 0.0, 0.0, 0.0, 0.0, 0.0, 0.0, 0.0, 0.0, 0.0, 1.677618360910123E9, 0.0, 2023-02-28 16:06:00.910
94.0, 1582.0341208021787, 187500.0, 187500.0, 187500.0, -187500.02235174447, -187500.02235174447, -187500.02235174447, -187500.02235174447, 0.17200000000000001, -0.022, 0.994, 192.0, 0.0, 0.0, 0.0, 0.0, 0.0, 0.0, 0.0, 0.0, 0.0, 1.677618360910135E9, 0.0, 2023-02-28 16:06:00.910
95.0, 869.0134726778833, 187500.0, 187500.0, 187500.0, -187500.02235174447, -187500.02235174447, -187500.02235174447, -187500.02235174447, 0.17200000000000001, -0.022, 0.994, 192.0, 0.0, 0.0, 0.0, 0.0, 0.0, 0.0, 0.0, 0.0, 0.0, 1.677618360918304E9, 0.0, 2023-02-28 16:06:00.918
96.0, 1935.1916831960302, 187500.0, 187500.0, 187500.0, -187500.02235174447, -187500.02235174447, -187500.02235174447, -187500.02235174447, 0.17200000000000001, -0.028, 0.992, 192.0, 5.0, 96.0, 255.0, 32.0, 31.0, 0.0, 0.0, 0.0, 0.0, 1.677618360918317E9, 0.0, 2023-02-28 16:06:00.918
97.0, 2299.346303861893, 187500.0, 187500.0, 187500.0, -187500.02235174447, -187500.02235174447, -187500.02235174447, -187500.02235174447, 0.17200000000000001, -0.028, 0.992, 192.0, 0.0, 0.0, 0.0, 0.0, 0.0, 0.0, 0.0, 0.0, 0.0, 1.677618360925241E9, 0.0, 2023-02-28 16:06:00.925
98.0, 1916.5726800647594, 187500.0, 187500.0, 187500.0, -187500.02235174447, -187500.02235174447, -187500.02235174447, -187500.02235174447, 0.17200000000000001, -0.028, 0.992, 192.0, 0.0, 0.0, 0.0, 0.0, 0.0, 0.0, 0.0, 0.0, 0.0, 1.67761836093318E9, 0.0, 2023-02-28 16:06:00.933
99.0, 1516.1411781479333, 187500.0, 187500.0, 187500.0, -187500.02235174447, -187500.02235174447, -187500.02235174447, -187500.02235174447, 0.17200000000000001, -0.028, 0.992, 192.0, 0.0, 0.0, 0.0, 0.0, 0.0, 0.0, 0.0, 0.0, 0.0, 1.677618360933197E9, 0.0, 2023-02-28 16:06:00.933
100.0, 1990.6687129341024, 187500.0, 187500.0, 187500.0, -187500.02235174447, -187500.02235174447, -187500.02235174447, -187500.02235174447, 0.17200000000000001, -0.028, 0.992, 192.0, 0.0, 0.0, 0.0, 0.0, 0.0, 0.0, 0.0, 0.0, 0.0, 1.677618360939769E9, 0.0, 2023-02-28 16:06:00.939
101.0, 2079.3827866772162, 187500.0, 187500.0, 187500.0, -187500.02235174447, -187500.02235174447, -187500.02235174447, -187500.02235174447, 0.17200000000000001, -0.028, 0.992, 192.0, 0.0, 0.0, 0.0, 0.0, 0.0, 0.0, 0.0, 0.0, 0.0, 1.677618360939788E9, 0.0, 2023-02-28 16:06:00.939
102.0, 2156.47395330357, 187500.0, 187500.0, 187500.0, -187500.02235174447, -187500.02235174447, -187500.02235174447, -187500.02235174447, 0.17200000000000001, -0.028, 0.992, 192.0, 0.0, 0.0, 0.0, 0.0, 0.0, 0.0, 0.0, 0.0, 0.0, 1.677618360947883E9, 0.0, 2023-02-28 16:06:00.947
103.0, 1608.4091792594409, 187500.0, 187500.0, 187500.0, -187500.02235174447, -187500.02235174447, -187500.02235174447, -187500.02235174447, 0.17200000000000001, -0.028, 0.992, 192.0, 0.0, 0.0, 0.0, 0.0, 0.0, 0.0, 0.0, 0.0, 0.0, 1.677618360947901E9, 0.0, 2023-02-28 16:06:00.947
104.0, 1495.2422970822213, 187500.0, 187500.0, 187500.0, -187500.02235174447, -187500.02235174447, -187500.02235174447, -187500.02235174447, 0.17200000000000001, -0.028, 0.992, 192.0, 0.0, 0.0, 0.0, 0.0, 0.0, 0.0, 0.0, 0.0, 0.0, 1.677618360955939E9, 0.0, 2023-02-28 16:06:00.955
105.0, 2246.1715038027173, 187500.0, 187500.0, 187500.0, -187500.02235174447, -187500.02235174447, -187500.02235174447, -187500.02235174447, 0.17200000000000001, -0.028, 0.992, 192.0, 0.0, 0.0, 0.0, 0.0, 0.0, 0.0, 0.0, 0.0, 0.0, 1.677618360955958E9, 0.0, 2023-02-28 16:06:00.955
106.0, 2786.7260917098633, 187500.0, 187500.0, 187500.0, -187500.02235174447, -187500.02235174447, -187500.02235174447, -187500.02235174447, 0.17200000000000001, -0.024, 0.994, 192.0, 5.0, 96.0, 255.0, 64.0, 31.0, 16.0, 0.0, 0.0, 0.0, 1.677618360962515E9, 0.0, 2023-02-28 16:06:00.962
107.0, 1417.5699851000293, 187500.0, 187500.0, 187500.0, -187500.02235174447, -187500.02235174447, -187500.02235174447, -187500.02235174447, 0.17200000000000001, -0.024, 0.994, 192.0, 0.0, 0.0, 0.0, 0.0, 0.0, 0.0, 0.0, 0.0, 0.0, 1.677618360962534E9, 0.0, 2023-02-28 16:06:00.962
108.0, 1449.2647587376546, 187500.0, 187500.0, 187500.0, -187500.02235174447, -187500.02235174447, -187500.02235174447, -187500.02235174447, 0.17200000000000001, -0.024, 0.994, 192.0, 0.0, 0.0, 0.0, 0.0, 0.0, 0.0, 0.0, 0.0, 0.0, 1.67761836097046E9, 0.0, 2023-02-28 16:06:00.970
109.0, 2382.114813579895, 187500.0, 187500.0, 187500.0, -187500.02235174447, -187500.02235174447, -187500.02235174447, -187500.02235174447, 0.17200000000000001, -0.024, 0.994, 192.0, 0.0, 0.0, 0.0, 0.0, 0.0, 0.0, 0.0, 0.0, 0.0, 1.677618360970481E9, 0.0, 2023-02-28 16:06:00.970
110.0, 3235.839693050348, 187500.0, 187500.0, 187500.0, -187500.02235174447, -187500.02235174447, -187500.02235174447, -187500.02235174447, 0.17200000000000001, -0.024, 0.994, 192.0, 0.0, 0.0, 0.0, 0.0, 0.0, 0.0, 0.0, 0.0, 0.0, 1.67761836097866E9, 0.0, 2023-02-28 16:06:00.978
111.0, 2359.919531335775, 187500.0, 187500.0, 187500.0, -187500.02235174447, -187500.02235174447, -187500.02235174447, -187500.02235174447, 0.17200000000000001, -0.024, 0.994, 192.0, 0.0, 0.0, 0.0, 0.0, 0.0, 0.0, 0.0, 0.0, 0.0, 1.677618360978684E9, 0.0, 2023-02-28 16:06:00.978
112.0, 850.9085596690845, 187500.0, 187500.0, 187500.0, -187500.02235174447, -187500.02235174447, -187500.02235174447, -187500.02235174447, 0.17200000000000001, -0.024, 0.994, 192.0, 0.0, 0.0, 0.0, 0.0, 0.0, 0.0, 0.0, 0.0, 0.0, 1.677618360985689E9, 0.0, 2023-02-28 16:06:00.985
113.0, 1812.5700131142157, 187500.0, 187500.0, 187500.0, -187500.02235174447, -187500.02235174447, -187500.02235174447, -187500.02235174447, 0.17200000000000001, -0.024, 0.994, 192.0, 0.0, 0.0, 0.0, 0.0, 0.0, 0.0, 0.0, 0.0, 0.0, 1.67761836099203E9, 0.0, 2023-02-28 16:06:00.992
114.0, 2762.765021653774, 187500.0, 187500.0, 187500.0, -187500.02235174447, -187500.02235174447, -187500.02235174447, -187500.02235174447, 0.17200000000000001, -0.024, 0.994, 192.0, 0.0, 0.0, 0.0, 0.0, 0.0, 0.0, 0.0, 0.0, 0.0, 1.677618360992042E9, 0.0, 2023-02-28 16:06:00.992
115.0, 2295.367693348848, 187500.0, 187500.0, 187500.0, -187500.02235174447, -187500.02235174447, -187500.02235174447, -187500.02235174447, 0.17200000000000001, -0.024, 0.994, 192.0, 0.0, 0.0, 0.0, 0.0, 0.0, 0.0, 0.0, 0.0, 0.0, 1.677618361000235E9, 0.0, 2023-02-28 16:06:01.000
116.0, 2073.638388352202, 187500.0, 187500.0, 187500.0, -187500.02235174447, -187500.02235174447, -187500.02235174447, -187500.02235174447, 0.17200000000000001, -0.02, 0.996, 192.0, 5.0, 96.0, 255.0, 96.0, 31.0, 32.0, 0.0, 0.0, 0.0, 1.67761836100026E9, 0.0, 2023-02-28 16:06:01.000
117.0, 1476.310369528576, 187500.0, 187500.0, 187500.0, -187500.02235174447, -187500.02235174447, -187500.02235174447, -187500.02235174447, 0.17200000000000001, -0.02, 0.996, 192.0, 0.0, 0.0, 0.0, 0.0, 0.0, 0.0, 0.0, 0.0, 0.0, 1.677618361008166E9, 0.0, 2023-02-28 16:06:01.008
118.0, 2143.733458964045, 187500.0, 187500.0, 187500.0, -187500.02235174447, -187500.02235174447, -187500.02235174447, -187500.02235174447, 0.17200000000000001, -0.02, 0.996, 192.0, 0.0, 0.0, 0.0, 0.0, 0.0, 0.0, 0.0, 0.0, 0.0, 1.677618361008195E9, 0.0, 2023-02-28 16:06:01.008
119.0, 2163.38064234026, 187500.0, 187500.0, 187500.0, -187500.02235174447, -187500.02235174447, -187500.02235174447, -187500.02235174447, 0.17200000000000001, -0.02, 0.996, 192.0, 0.0, 0.0, 0.0, 0.0, 0.0, 0.0, 0.0, 0.0, 0.0, 1.677618361015285E9, 0.0, 2023-02-28 16:06:01.015
120.0, 1685.656808096982, 187500.0, 187500.0, 187500.0, -187500.02235174447, -187500.02235174447, -187500.02235174447, -187500.02235174447, 0.17200000000000001, -0.02, 0.996, 192.0, 0.0, 0.0, 0.0, 0.0, 0.0, 0.0, 0.0, 0.0, 0.0, 1.677618361015342E9, 0.0, 2023-02-28 16:06:01.015
121.0, 2187.185250185162, 187500.0, 187500.0, 187500.0, -187500.02235174447, -187500.02235174447, -187500.02235174447, -187500.02235174447, 0.17200000000000001, -0.02, 0.996, 192.0, 0.0, 0.0, 0.0, 0.0, 0.0, 0.0, 0.0, 0.0, 0.0, 1.677618361022867E9, 0.0, 2023-02-28 16:06:01.022
122.0, 3426.187148831743, 187500.0, 187500.0, 187500.0, -187500.02235174447, -187500.02235174447, -187500.02235174447, -187500.02235174447, 0.17200000000000001, -0.02, 0.996, 192.0, 0.0, 0.0, 0.0, 0.0, 0.0, 0.0, 0.0, 0.0, 0.0, 1.677618361022887E9, 0.0, 2023-02-28 16:06:01.022
123.0, 3057.3610135747213, 187500.0, 187500.0, 187500.0, -187500.02235174447, -187500.02235174447, -187500.02235174447, -187500.02235174447, 0.17200000000000001, -0.02, 0.996, 192.0, 0.0, 0.0, 0.0, 0.0, 0.0, 0.0, 0.0, 0.0, 0.0, 1.677618361030864E9, 0.0, 2023-02-28 16:06:01.030
124.0, 1687.9143342869681, 187500.0, 187500.0, 187500.0, -187500.02235174447, -187500.02235174447, -187500.02235174447, -187500.02235174447, 0.17200000000000001, -0.02, 0.996, 192.0, 0.0, 0.0, 0.0, 0.0, 0.0, 0.0, 0.0, 0.0, 0.0, 1.677618361030883E9, 0.0, 2023-02-28 16:06:01.030
125.0, 1775.5778760406824, 187500.0, 187500.0, 187500.0, -187500.02235174447, -187500.02235174447, -187500.02235174447, -187500.02235174447, 0.17200000000000001, -0.02, 0.996, 192.0, 0.0, 0.0, 0.0, 0.0, 0.0, 0.0, 0.0, 0.0, 0.0, 1.677618361039309E9, 0.0, 2023-02-28 16:06:01.039
126.0, 2534.799579954097, 187500.0, 187500.0, 187500.0, -187500.02235174447, -187500.02235174447, -187500.02235174447, -187500.02235174447, 0.17200000000000001, -0.02, 0.992, 192.0, 5.0, 96.0, 255.0, 96.0, 31.0, 0.0, 0.0, 0.0, 0.0, 1.677618361039327E9, 0.0, 2023-02-28 16:06:01.039
127.0, 3714.725818005302, 187500.0, 187500.0, 187500.0, -187500.02235174447, -187500.02235174447, -187500.02235174447, -187500.02235174447, 0.17200000000000001, -0.02, 0.992, 192.0, 0.0, 0.0, 0.0, 0.0, 0.0, 0.0, 0.0, 0.0, 0.0, 1.677618361044903E9, 0.0, 2023-02-28 16:06:01.044
128.0, 2657.912988413929, 187500.0, 187500.0, 187500.0, -187500.02235174447, -187500.02235174447, -187500.02235174447, -187500.02235174447, 0.17200000000000001, -0.02, 0.992, 192.0, 0.0, 0.0, 0.0, 0.0, 0.0, 0.0, 0.0, 0.0, 0.0, 1.677618361052423E9, 0.0, 2023-02-28 16:06:01.052
129.0, 1119.3530105773225, 187500.0, 187500.0, 187500.0, -187500.02235174447, -187500.02235174447, -187500.02235174447, -187500.02235174447, 0.17200000000000001, -0.02, 0.992, 192.0, 0.0, 0.0, 0.0, 0.0, 0.0, 0.0, 0.0, 0.0, 0.0, 1.677618361052439E9, 0.0, 2023-02-28 16:06:01.052
130.0, 2529.0775333735387, 187500.0, 187500.0, 187500.0, -187500.02235174447, -187500.02235174447, -187500.02235174447, -187500.02235174447, 0.17200000000000001, -0.02, 0.992, 192.0, 0.0, 0.0, 0.0, 0.0, 0.0, 0.0, 0.0, 0.0, 0.0, 1.677618361060433E9, 0.0, 2023-02-28 16:06:01.060
131.0, 2691.5076603302555, 187500.0, 187500.0, 187500.0, -187500.02235174447, -187500.02235174447, -187500.02235174447, -187500.02235174447, 0.17200000000000001, -0.02, 0.992, 192.0, 0.0, 0.0, 0.0, 0.0, 0.0, 0.0, 0.0, 0.0, 0.0, 1.677618361060451E9, 0.0, 2023-02-28 16:06:01.060
132.0, 2291.3890828358035, 187500.0, 187500.0, 187500.0, -187500.02235174447, -187500.02235174447, -187500.02235174447, -187500.02235174447, 0.17200000000000001, -0.02, 0.992, 192.0, 0.0, 0.0, 0.0, 0.0, 0.0, 0.0, 0.0, 0.0, 0.0, 1.677618361068632E9, 0.0, 2023-02-28 16:06:01.068
133.0, 2486.92214333083, 187500.0, 187500.0, 187500.0, -187500.02235174447, -187500.02235174447, -187500.02235174447, -187500.02235174447, 0.17200000000000001, -0.02, 0.992, 192.0, 0.0, 0.0, 0.0, 0.0, 0.0, 0.0, 0.0, 0.0, 0.0, 1.677618361068654E9, 0.0, 2023-02-28 16:06:01.068
134.0, 3313.2214323546214, 187500.0, 187500.0, 187500.0, -187500.02235174447, -187500.02235174447, -187500.02235174447, -187500.02235174447, 0.17200000000000001, -0.02, 0.992, 192.0, 0.0, 0.0, 0.0, 0.0, 0.0, 0.0, 0.0, 0.0, 0.0, 1.6776183610749E9, 0.0, 2023-02-28 16:06:01.074
135.0, 2971.0609282327805, 187500.0, 187500.0, 187500.0, -187500.02235174447, -187500.02235174447, -187500.02235174447, -187500.02235174447, 0.17400000000000002, -0.018000000000000002, 0.996, 192.0, 5.0, 112.0, 255.0, 112.0, 31.0, 32.0, 0.0, 0.0, 0.0, 1.677618361074911E9, 0.0, 2023-02-28 16:06:01.074
136.0, 2815.6268972905755, 187500.0, 187500.0, 187500.0, -187500.02235174447, -187500.02235174447, -187500.02235174447, -187500.02235174447, 0.17400000000000002, -0.018000000000000002, 0.996, 192.0, 0.0, 0.0, 0.0, 0.0, 0.0, 0.0, 0.0, 0.0, 0.0, 1.67761836108303E9, 0.0, 2023-02-28 16:06:01.083
137.0, 2051.5325130859032, 187500.0, 187500.0, 187500.0, -187500.02235174447, -187500.02235174447, -187500.02235174447, -187500.02235174447, 0.17400000000000002, -0.018000000000000002, 0.996, 192.0, 0.0, 0.0, 0.0, 0.0, 0.0, 0.0, 0.0, 0.0, 0.0, 1.677618361083045E9, 0.0, 2023-02-28 16:06:01.083
138.0, 2673.2462851102696, 187500.0, 187500.0, 187500.0, -187500.02235174447, -187500.02235174447, -187500.02235174447, -187500.02235174447, 0.17400000000000002, -0.018000000000000002, 0.996, 192.0, 0.0, 0.0, 0.0, 0.0, 0.0, 0.0, 0.0, 0.0, 0.0, 1.677618361091047E9, 0.0, 2023-02-28 16:06:01.091
139.0, 2585.60509510101, 187500.0, 187500.0, 187500.0, -187500.02235174447, -187500.02235174447, -187500.02235174447, -187500.02235174447, 0.17400000000000002, -0.018000000000000002, 0.996, 192.0, 0.0, 0.0, 0.0, 0.0, 0.0, 0.0, 0.0, 0.0, 0.0, 1.677618361091062E9, 0.0, 2023-02-28 16:06:01.091
140.0, 1381.4942695491636, 187500.0, 187500.0, 187500.0, -187500.02235174447, -187500.02235174447, -187500.02235174447, -187500.02235174447, 0.17400000000000002, -0.018000000000000002, 0.996, 192.0, 0.0, 0.0, 0.0, 0.0, 0.0, 0.0, 0.0, 0.0, 0.0, 1.677618361098143E9, 0.0, 2023-02-28 16:06:01.098
141.0, 2003.1409863401636, 187500.0, 187500.0, 187500.0, -187500.02235174447, -187500.02235174447, -187500.02235174447, -187500.02235174447, 0.17400000000000002, -0.018000000000000002, 0.996, 192.0, 0.0, 0.0, 0.0, 0.0, 0.0, 0.0, 0.0, 0.0, 0.0, 1.677618361098167E9, 0.0, 2023-02-28 16:06:01.098
142.0, 3533.8778536174127, 187500.0, 187500.0, 187500.0, -187500.02235174447, -187500.02235174447, -187500.02235174447, -187500.02235174447, 0.17400000000000002, -0.018000000000000002, 0.996, 192.0, 0.0, 0.0, 0.0, 0.0, 0.0, 0.0, 0.0, 0.0, 0.0, 1.677618361104687E9, 0.0, 2023-02-28 16:06:01.104
143.0, 2712.6971140738865, 187500.0, 187500.0, 187500.0, -187500.02235174447, -187500.02235174447, -187500.02235174447, -187500.02235174447, 0.17400000000000002, -0.018000000000000002, 0.996, 192.0, 0.0, 0.0, 0.0, 0.0, 0.0, 0.0, 0.0, 0.0, 0.0, 1.677618361104705E9, 0.0, 2023-02-28 16:06:01.104
144.0, 2425.2536803786375, 187500.0, 187500.0, 187500.0, -187500.02235174447, -187500.02235174447, -187500.02235174447, -187500.02235174447, 0.17400000000000002, -0.018000000000000002, 0.996, 192.0, 0.0, 0.0, 0.0, 0.0, 0.0, 0.0, 0.0, 0.0, 0.0, 1.677618361112535E9, 0.0, 2023-02-28 16:06:01.112
145.0, 2026.7220767405126, 187500.0, 187500.0, 187500.0, -187500.02235174447, -187500.02235174447, -187500.02235174447, -187500.02235174447, 0.184, -0.016, 0.994, 192.0, 5.0, 192.0, 255.0, 128.0, 31.0, 16.0, 0.0, 0.0, 0.0, 1.677618361120646E9, 0.0, 2023-02-28 16:06:01.120
146.0, 2266.757460446055, 187500.0, 187500.0, 187500.0, -187500.02235174447, -187500.02235174447, -187500.02235174447, -187500.02235174447, 0.184, -0.016, 0.994, 192.0, 0.0, 0.0, 0.0, 0.0, 0.0, 0.0, 0.0, 0.0, 0.0, 1.67761836112066E9, 0.0, 2023-02-28 16:06:01.120
147.0, 3720.045533185665, 187500.0, 187500.0, 187500.0, -187500.02235174447, -187500.02235174447, -187500.02235174447, -187500.02235174447, 0.184, -0.016, 0.994, 192.0, 0.0, 0.0, 0.0, 0.0, 0.0, 0.0, 0.0, 0.0, 0.0, 1.677618361127279E9, 0.0, 2023-02-28 16:06:01.127
148.0, 3634.5501106441156, 187500.0, 187500.0, 187500.0, -187500.02235174447, -187500.02235174447, -187500.02235174447, -187500.02235174447, 0.184, -0.016, 0.994, 192.0, 0.0, 0.0, 0.0, 0.0, 0.0, 0.0, 0.0, 0.0, 0.0, 1.677618361127292E9, 0.0, 2023-02-28 16:06:01.127
149.0, 1416.832377533004, 187500.0, 187500.0, 187500.0, -187500.02235174447, -187500.02235174447, -187500.02235174447, -187500.02235174447, 0.184, -0.016, 0.994, 192.0, 0.0, 0.0, 0.0, 0.0, 0.0, 0.0, 0.0, 0.0, 0.0, 1.677618361135296E9, 0.0, 2023-02-28 16:06:01.135
150.0, 2329.409400154281, 187500.0, 187500.0, 187500.0, -187500.02235174447, -187500.02235174447, -187500.02235174447, -187500.02235174447, 0.184, -0.016, 0.994, 192.0, 0.0, 0.0, 0.0, 0.0, 0.0, 0.0, 0.0, 0.0, 0.0, 1.677618361135318E9, 0.0, 2023-02-28 16:06:01.135
151.0, 3498.7856148225806, 187500.0, 187500.0, 187500.0, -187500.02235174447, -187500.02235174447, -187500.02235174447, -187500.02235174447, 0.184, -0.016, 0.994, 192.0, 0.0, 0.0, 0.0, 0.0, 0.0, 0.0, 0.0, 0.0, 0.0, 1.677618361143141E9, 0.0, 2023-02-28 16:06:01.143
152.0, 2417.4529215637353, 187500.0, 187500.0, 187500.0, -187500.02235174447, -187500.02235174447, -187500.02235174447, -187500.02235174447, 0.184, -0.016, 0.994, 192.0, 0.0, 0.0, 0.0, 0.0, 0.0, 0.0, 0.0, 0.0, 0.0, 1.677618361143161E9, 0.0, 2023-02-28 16:06:01.143
153.0, 2198.2046602016285, 187500.0, 187500.0, 187500.0, -187500.02235174447, -187500.02235174447, -187500.02235174447, -187500.02235174447, 0.184, -0.016, 0.994, 192.0, 0.0, 0.0, 0.0, 0.0, 0.0, 0.0, 0.0, 0.0, 0.0, 1.677618361151315E9, 0.0, 2023-02-28 16:06:01.151
154.0, 2486.877439841919, 187500.0, 187500.0, 187500.0, -187500.02235174447, -187500.02235174447, -187500.02235174447, -187500.02235174447, 0.184, -0.016, 0.994, 192.0, 0.0, 0.0, 0.0, 0.0, 0.0, 0.0, 0.0, 0.0, 0.0, 1.67761836115133E9, 0.0, 2023-02-28 16:06:01.151
155.0, 3137.6931831470947, 187500.0, 187500.0, 187500.0, -187500.02235174447, -187500.02235174447, -187500.02235174447, -187500.02235174447, 0.178, -0.016, 0.994, 192.0, 5.0, 144.0, 255.0, 128.0, 31.0, 16.0, 0.0, 0.0, 0.0, 1.677618361157917E9, 0.0, 2023-02-28 16:06:01.157
156.0, 2894.059168584248, 187500.0, 187500.0, 187500.0, -187500.02235174447, -187500.02235174447, -187500.02235174447, -187500.02235174447, 0.178, -0.016, 0.994, 192.0, 0.0, 0.0, 0.0, 0.0, 0.0, 0.0, 0.0, 0.0, 0.0, 1.677618361157941E9, 0.0, 2023-02-28 16:06:01.157
157.0, 2605.4981476662338, 187500.0, 187500.0, 187500.0, -187500.02235174447, -187500.02235174447, -187500.02235174447, -187500.02235174447, 0.178, -0.016, 0.994, 192.0, 0.0, 0.0, 0.0, 0.0, 0.0, 0.0, 0.0, 0.0, 0.0, 1.677618361165888E9, 0.0, 2023-02-28 16:06:01.165
158.0, 2142.325299063361, 187500.0, 187500.0, 187500.0, -187500.02235174447, -187500.02235174447, -187500.02235174447, -187500.02235174447, 0.178, -0.016, 0.994, 192.0, 0.0, 0.0, 0.0, 0.0, 0.0, 0.0, 0.0, 0.0, 0.0, 1.677618361165904E9, 0.0, 2023-02-28 16:06:01.165
159.0, 2695.1062911875597, 187500.0, 187500.0, 187500.0, -187500.02235174447, -187500.02235174447, -187500.02235174447, -187500.02235174447, 0.178, -0.016, 0.994, 192.0, 0.0, 0.0, 0.0, 0.0, 0.0, 0.0, 0.0, 0.0, 0.0, 1.677618361172927E9, 0.0, 2023-02-28 16:06:01.172
160.0, 3068.335720102277, 187500.0, 187500.0, 187500.0, -187500.02235174447, -187500.02235174447, -187500.02235174447, -187500.02235174447, 0.178, -0.016, 0.994, 192.0, 0.0, 0.0, 0.0, 0.0, 0.0, 0.0, 0.0, 0.0, 0.0, 1.677618361180161E9, 0.0, 2023-02-28 16:06:01.180
161.0, 2398.342180054448, 187500.0, 187500.0, 187500.0, -187500.02235174447, -187500.02235174447, -187500.02235174447, -187500.02235174447, 0.178, -0.016, 0.994, 192.0, 0.0, 0.0, 0.0, 0.0, 0.0, 0.0, 0.0, 0.0, 0.0, 1.677618361180176E9, 0.0, 2023-02-28 16:06:01.180
162.0, 1665.182610175921, 187500.0, 187500.0, 187500.0, -187500.02235174447, -187500.02235174447, -187500.02235174447, -187500.02235174447, 0.178, -0.016, 0.994, 192.0, 0.0, 0.0, 0.0, 0.0, 0.0, 0.0, 0.0, 0.0, 0.0, 1.677618361187615E9, 0.0, 2023-02-28 16:06:01.187
163.0, 2904.698598944974, 187500.0, 187500.0, 187500.0, -187500.02235174447, -187500.02235174447, -187500.02235174447, -187500.02235174447, 0.178, -0.016, 0.994, 192.0, 0.0, 0.0, 0.0, 0.0, 0.0, 0.0, 0.0, 0.0, 0.0, 1.677618361187633E9, 0.0, 2023-02-28 16:06:01.187
164.0, 3085.3901011216763, 187500.0, 187500.0, 187500.0, -187500.02235174447, -187500.02235174447, -187500.02235174447, -187500.02235174447, 0.178, -0.016, 0.994, 192.0, 0.0, 0.0, 0.0, 0.0, 0.0, 0.0, 0.0, 0.0, 0.0, 1.677618361195596E9, 0.0, 2023-02-28 16:06:01.195
165.0, 2657.778877947197, 187500.0, 187500.0, 187500.0, -187500.02235174447, -187500.02235174447, -187500.02235174447, -187500.02235174447, 0.176, -0.02, 0.992, 192.0, 5.0, 128.0, 255.0, 96.0, 31.0, 0.0, 0.0, 0.0, 0.0, 1.677618361195622E9, 0.0, 2023-02-28 16:06:01.195
166.0, 2343.535702650035, 187500.0, 187500.0, 187500.0, -187500.02235174447, -187500.02235174447, -187500.02235174447, -187500.02235174447, 0.176, -0.02, 0.992, 192.0, 0.0, 0.0, 0.0, 0.0, 0.0, 0.0, 0.0, 0.0, 0.0, 1.677618361203672E9, 0.0, 2023-02-28 16:06:01.203
167.0, 2979.3534254256997, 187500.0, 187500.0, 187500.0, -187500.02235174447, -187500.02235174447, -187500.02235174447, -187500.02235174447, 0.176, -0.02, 0.992, 192.0, 0.0, 0.0, 0.0, 0.0, 0.0, 0.0, 0.0, 0.0, 0.0, 1.677618361203688E9, 0.0, 2023-02-28 16:06:01.203
168.0, 3148.4890757190083, 187500.0, 187500.0, 187500.0, -187500.02235174447, -187500.02235174447, -187500.02235174447, -187500.02235174447, 0.176, -0.02, 0.992, 192.0, 0.0, 0.0, 0.0, 0.0, 0.0, 0.0, 0.0, 0.0, 0.0, 1.677618361210294E9, 0.0, 2023-02-28 16:06:01.210
169.0, 3078.6398742961737, 187500.0, 187500.0, 187500.0, -187500.02235174447, -187500.02235174447, -187500.02235174447, -187500.02235174447, 0.176, -0.02, 0.992, 192.0, 0.0, 0.0, 0.0, 0.0, 0.0, 0.0, 0.0, 0.0, 0.0, 1.677618361210314E9, 0.0, 2023-02-28 16:06:01.210
170.0, 2275.541696016991, 187500.0, 187500.0, 187500.0, -187500.02235174447, -187500.02235174447, -187500.02235174447, -187500.02235174447, 0.176, -0.02, 0.992, 192.0, 0.0, 0.0, 0.0, 0.0, 0.0, 0.0, 0.0, 0.0, 0.0, 1.677618361218283E9, 0.0, 2023-02-28 16:06:01.218
171.0, 2311.2597836565715, 187500.0, 187500.0, 187500.0, -187500.02235174447, -187500.02235174447, -187500.02235174447, -187500.02235174447, 0.176, -0.02, 0.992, 192.0, 0.0, 0.0, 0.0, 0.0, 0.0, 0.0, 0.0, 0.0, 0.0, 1.677618361218305E9, 0.0, 2023-02-28 16:06:01.218
172.0, 3214.0243904619683, 187500.0, 187500.0, 187500.0, -187500.02235174447, -187500.02235174447, -187500.02235174447, -187500.02235174447, 0.176, -0.02, 0.992, 192.0, 0.0, 0.0, 0.0, 0.0, 0.0, 0.0, 0.0, 0.0, 0.0, 1.677618361226217E9, 0.0, 2023-02-28 16:06:01.226
173.0, 3046.118086113702, 187500.0, 187500.0, 187500.0, -187500.02235174447, -187500.02235174447, -187500.02235174447, -187500.02235174447, 0.176, -0.02, 0.992, 192.0, 0.0, 0.0, 0.0, 0.0, 0.0, 0.0, 0.0, 0.0, 0.0, 1.677618361226245E9, 0.0, 2023-02-28 16:06:01.226
174.0, 1584.1798882698881, 187500.0, 187500.0, 187500.0, -187500.02235174447, -187500.02235174447, -187500.02235174447, -187500.02235174447, 0.176, -0.02, 0.992, 192.0, 0.0, 0.0, 0.0, 0.0, 0.0, 0.0, 0.0, 0.0, 0.0, 1.677618361233391E9, 0.0, 2023-02-28 16:06:01.233
175.0, 1780.3611493541182, 187500.0, 187500.0, 187500.0, -187500.02235174447, -187500.02235174447, -187500.02235174447, -187500.02235174447, 0.178, -0.022, 0.992, 192.0, 5.0, 144.0, 255.0, 80.0, 31.0, 0.0, 0.0, 0.0, 0.0, 1.677618361239958E9, 0.0, 2023-02-28 16:06:01.239
176.0, 2832.3236503986896, 187500.0, 187500.0, 187500.0, -187500.02235174447, -187500.02235174447, -187500.02235174447, -187500.02235174447, 0.178, -0.022, 0.992, 192.0, 0.0, 0.0, 0.0, 0.0, 0.0, 0.0, 0.0, 0.0, 0.0, 1.67761836123998E9, 0.0, 2023-02-28 16:06:01.239
177.0, 3183.469555791564, 187500.0, 187500.0, 187500.0, -187500.02235174447, -187500.02235174447, -187500.02235174447, -187500.02235174447, 0.178, -0.022, 0.992, 192.0, 0.0, 0.0, 0.0, 0.0, 0.0, 0.0, 0.0, 0.0, 0.0, 1.677618361247865E9, 0.0, 2023-02-28 16:06:01.247
178.0, 3070.079156169791, 187500.0, 187500.0, 187500.0, -187500.02235174447, -187500.02235174447, -187500.02235174447, -187500.02235174447, 0.178, -0.022, 0.992, 192.0, 0.0, 0.0, 0.0, 0.0, 0.0, 0.0, 0.0, 0.0, 0.0, 1.677618361247885E9, 0.0, 2023-02-28 16:06:01.247
179.0, 2480.5071926721566, 187500.0, 187500.0, 187500.0, -187500.02235174447, -187500.02235174447, -187500.02235174447, -187500.02235174447, 0.178, -0.022, 0.992, 192.0, 0.0, 0.0, 0.0, 0.0, 0.0, 0.0, 0.0, 0.0, 0.0, 1.677618361255938E9, 0.0, 2023-02-28 16:06:01.255
180.0, 2267.383309290804, 187500.0, 187500.0, 187500.0, -187500.02235174447, -187500.02235174447, -187500.02235174447, -187500.02235174447, 0.178, -0.022, 0.992, 192.0, 0.0, 0.0, 0.0, 0.0, 0.0, 0.0, 0.0, 0.0, 0.0, 1.677618361255956E9, 0.0, 2023-02-28 16:06:01.255
181.0, 2626.5311391986775, 187500.0, 187500.0, 187500.0, -187500.02235174447, -187500.02235174447, -187500.02235174447, -187500.02235174447, 0.178, -0.022, 0.992, 192.0, 0.0, 0.0, 0.0, 0.0, 0.0, 0.0, 0.0, 0.0, 0.0, 1.677618361262994E9, 0.0, 2023-02-28 16:06:01.262
182.0, 2133.1163803477743, 187500.0, 187500.0, 187500.0, -187500.02235174447, -187500.02235174447, -187500.02235174447, -187500.02235174447, 0.178, -0.022, 0.992, 192.0, 0.0, 0.0, 0.0, 0.0, 0.0, 0.0, 0.0, 0.0, 0.0, 1.677618361263007E9, 0.0, 2023-02-28 16:06:01.263
183.0, 2431.1321891703833, 187500.0, 187500.0, 187500.0, -187500.02235174447, -187500.02235174447, -187500.02235174447, -187500.02235174447, 0.178, -0.022, 0.992, 192.0, 0.0, 0.0, 0.0, 0.0, 0.0, 0.0, 0.0, 0.0, 0.0, 1.677618361270574E9, 0.0, 2023-02-28 16:06:01.270
184.0, 2710.4395878839005, 187500.0, 187500.0, 187500.0, -187500.02235174447, -187500.02235174447, -187500.02235174447, -187500.02235174447, 0.178, -0.022, 0.992, 192.0, 0.0, 0.0, 0.0, 0.0, 0.0, 0.0, 0.0, 0.0, 0.0, 1.677618361270586E9, 0.0, 2023-02-28 16:06:01.270
185.0, 2880.893991100072, 187500.0, 187500.0, 187500.0, -187500.02235174447, -187500.02235174447, -187500.02235174447, -187500.02235174447, 0.176, -0.022, 0.996, 192.0, 5.0, 128.0, 255.0, 80.0, 31.0, 32.0, 0.0, 0.0, 0.0, 1.677618361278404E9, 0.0, 2023-02-28 16:06:01.278
186.0, 3318.809368468448, 187500.0, 187500.0, 187500.0, -187500.02235174447, -187500.02235174447, -187500.02235174447, -187500.02235174447, 0.176, -0.022, 0.996, 192.0, 0.0, 0.0, 0.0, 0.0, 0.0, 0.0, 0.0, 0.0, 0.0, 1.677618361278421E9, 0.0, 2023-02-28 16:06:01.278
187.0, 2251.2677015385275, 187500.0, 187500.0, 187500.0, -187500.02235174447, -187500.02235174447, -187500.02235174447, -187500.02235174447, 0.176, -0.022, 0.996, 192.0, 0.0, 0.0, 0.0, 0.0, 0.0, 0.0, 0.0, 0.0, 0.0, 1.677618361286484E9, 0.0, 2023-02-28 16:06:01.286
188.0, 2168.990930198542, 187500.0, 187500.0, 187500.0, -187500.02235174447, -187500.02235174447, -187500.02235174447, -187500.02235174447, 0.176, -0.022, 0.996, 192.0, 0.0, 0.0, 0.0, 0.0, 0.0, 0.0, 0.0, 0.0, 0.0, 1.677618361286505E9, 0.0, 2023-02-28 16:06:01.286
189.0, 2512.492538987701, 187500.0, 187500.0, 187500.0, -187500.02235174447, -187500.02235174447, -187500.02235174447, -187500.02235174447, 0.176, -0.022, 0.996, 192.0, 0.0, 0.0, 0.0, 0.0, 0.0, 0.0, 0.0, 0.0, 0.0, 1.677618361292905E9, 0.0, 2023-02-28 16:06:01.292
190.0, 2803.422844817978, 187500.0, 187500.0, 187500.0, -187500.02235174447, -187500.02235174447, -187500.02235174447, -187500.02235174447, 0.176, -0.022, 0.996, 192.0, 0.0, 0.0, 0.0, 0.0, 0.0, 0.0, 0.0, 0.0, 0.0, 1.677618361300234E9, 0.0, 2023-02-28 16:06:01.300
191.0, 2196.14829971174, 187500.0, 187500.0, 187500.0, -187500.02235174447, -187500.02235174447, -187500.02235174447, -187500.02235174447, 0.176, -0.022, 0.996, 192.0, 0.0, 0.0, 0.0, 0.0, 0.0, 0.0, 0.0, 0.0, 0.0, 1.677618361300256E9, 0.0, 2023-02-28 16:06:01.300
192.0, 2127.2602233004836, 187500.0, 187500.0, 187500.0, -187500.02235174447, -187500.02235174447, -187500.02235174447, -187500.02235174447, 0.176, -0.022, 0.996, 192.0, 0.0, 0.0, 0.0, 0.0, 0.0, 0.0, 0.0, 0.0, 0.0, 1.677618361308048E9, 0.0, 2023-02-28 16:06:01.308
193.0, 2896.76372966334, 187500.0, 187500.0, 187500.0, -187500.02235174447, -187500.02235174447, -187500.02235174447, -187500.02235174447, 0.176, -0.022, 0.996, 192.0, 0.0, 0.0, 0.0, 0.0, 0.0, 0.0, 0.0, 0.0, 0.0, 1.67761836130807E9, 0.0, 2023-02-28 16:06:01.308
194.0, 3379.2708372200536, 187500.0, 187500.0, 187500.0, -187500.02235174447, -187500.02235174447, -187500.02235174447, -187500.02235174447, 0.178, -0.018000000000000002, 0.992, 192.0, 5.0, 144.0, 255.0, 112.0, 31.0, 0.0, 0.0, 0.0, 0.0, 1.677618361315237E9, 0.0, 2023-02-28 16:06:01.315
195.0, 1825.6234318761149, 187500.0, 187500.0, 187500.0, -187500.02235174447, -187500.02235174447, -187500.02235174447, -187500.02235174447, 0.178, -0.018000000000000002, 0.992, 192.0, 0.0, 0.0, 0.0, 0.0, 0.0, 0.0, 0.0, 0.0, 0.0, 1.677618361315253E9, 0.0, 2023-02-28 16:06:01.315
196.0, 2105.89195560121, 187500.0, 187500.0, 187500.0, -187500.02235174447, -187500.02235174447, -187500.02235174447, -187500.02235174447, 0.178, -0.018000000000000002, 0.992, 192.0, 0.0, 0.0, 0.0, 0.0, 0.0, 0.0, 0.0, 0.0, 0.0, 1.677618361322959E9, 0.0, 2023-02-28 16:06:01.322
197.0, 3858.0675551971863, 187500.0, 187500.0, 187500.0, -187500.02235174447, -187500.02235174447, -187500.02235174447, -187500.02235174447, 0.178, -0.018000000000000002, 0.992, 192.0, 0.0, 0.0, 0.0, 0.0, 0.0, 0.0, 0.0, 0.0, 0.0, 1.677618361322982E9, 0.0, 2023-02-28 16:06:01.322
198.0, 2481.021282794629, 187500.0, 187500.0, 187500.0, -187500.02235174447, -187500.02235174447, -187500.02235174447, -187500.02235174447, 0.178, -0.018000000000000002, 0.992, 192.0, 0.0, 0.0, 0.0, 0.0, 0.0, 0.0, 0.0, 0.0, 0.0, 1.677618361330808E9, 0.0, 2023-02-28 16:06:01.330
199.0, 1388.9597521972362, 187500.0, 187500.0, 187500.0, -187500.02235174447, -187500.02235174447, -187500.02235174447, -187500.02235174447, 0.178, -0.018000000000000002, 0.992, 192.0, 0.0, 0.0, 0.0, 0.0, 0.0, 0.0, 0.0, 0.0, 0.0, 1.677618361330831E9, 0.0, 2023-02-28 16:06:01.330
200.0, 2043.865864737733, 187500.0, 187500.0, 187500.0, -187500.02235174447, -187500.02235174447, -187500.02235174447, -187500.02235174447, 0.178, -0.018000000000000002, 0.992, 192.0, 0.0, 0.0, 0.0, 0.0, 0.0, 0.0, 0.0, 0.0, 0.0, 1.677618361338961E9, 0.0, 2023-02-28 16:06:01.338
201.0, 2944.10472441968, 187500.0, 187500.0, 187500.0, -187500.02235174447, -187500.02235174447, -187500.02235174447, -187500.02235174447, 0.178, -0.018000000000000002, 0.992, 192.0, 0.0, 0.0, 0.0, 0.0, 0.0, 0.0, 0.0, 0.0, 0.0, 1.677618361338978E9, 0.0, 2023-02-28 16:06:01.338
202.0, 2842.225473192391, 187500.0, 187500.0, 187500.0, -187500.02235174447, -187500.02235174447, -187500.02235174447, -187500.02235174447, 0.178, -0.018000000000000002, 0.992, 192.0, 0.0, 0.0, 0.0, 0.0, 0.0, 0.0, 0.0, 0.0, 0.0, 1.677618361345551E9, 0.0, 2023-02-28 16:06:01.345
203.0, 2262.085945854896, 187500.0, 187500.0, 187500.0, -187500.02235174447, -187500.02235174447, -187500.02235174447, -187500.02235174447, 0.178, -0.018000000000000002, 0.992, 192.0, 0.0, 0.0, 0.0, 0.0, 0.0, 0.0, 0.0, 0.0, 0.0, 1.677618361345564E9, 0.0, 2023-02-28 16:06:01.345
204.0, 2092.4138536946602, 187500.0, 187500.0, 187500.0, -187500.02235174447, -187500.02235174447, -187500.02235174447, -187500.02235174447, 0.17400000000000002, -0.02, 0.994, 192.0, 5.0, 112.0, 255.0, 96.0, 31.0, 16.0, 0.0, 0.0, 0.0, 1.677618361352354E9, 0.0, 2023-02-28 16:06:01.352
205.0, 2330.4152286547696, 187500.0, 187500.0, 187500.0, -187500.02235174447, -187500.02235174447, -187500.02235174447, -187500.02235174447, 0.17400000000000002, -0.02, 0.994, 192.0, 0.0, 0.0, 0.0, 0.0, 0.0, 0.0, 0.0, 0.0, 0.0, 1.677618361352371E9, 0.0, 2023-02-28 16:06:01.352
206.0, 3056.444592052054, 187500.0, 187500.0, 187500.0, -187500.02235174447, -187500.02235174447, -187500.02235174447, -187500.02235174447, 0.17400000000000002, -0.02, 0.994, 192.0, 0.0, 0.0, 0.0, 0.0, 0.0, 0.0, 0.0, 0.0, 0.0, 1.677618361360305E9, 0.0, 2023-02-28 16:06:01.360
207.0, 3332.332173863909, 187500.0, 187500.0, 187500.0, -187500.02235174447, -187500.02235174447, -187500.02235174447, -187500.02235174447, 0.17400000000000002, -0.02, 0.994, 192.0, 0.0, 0.0, 0.0, 0.0, 0.0, 0.0, 0.0, 0.0, 0.0, 1.677618361368528E9, 0.0, 2023-02-28 16:06:01.368
208.0, 2114.095045816308, 187500.0, 187500.0, 187500.0, -187500.02235174447, -187500.02235174447, -187500.02235174447, -187500.02235174447, 0.17400000000000002, -0.02, 0.994, 192.0, 0.0, 0.0, 0.0, 0.0, 0.0, 0.0, 0.0, 0.0, 0.0, 1.677618361368555E9, 0.0, 2023-02-28 16:06:01.368
209.0, 2633.482531724278, 187500.0, 187500.0, 187500.0, -187500.02235174447, -187500.02235174447, -187500.02235174447, -187500.02235174447, 0.17400000000000002, -0.02, 0.994, 192.0, 0.0, 0.0, 0.0, 0.0, 0.0, 0.0, 0.0, 0.0, 0.0, 1.67761836137513E9, 0.0, 2023-02-28 16:06:01.375
210.0, 2960.175628683046, 187500.0, 187500.0, 187500.0, -187500.02235174447, -187500.02235174447, -187500.02235174447, -187500.02235174447, 0.17400000000000002, -0.02, 0.994, 192.0, 0.0, 0.0, 0.0, 0.0, 0.0, 0.0, 0.0, 0.0, 0.0, 1.677618361375143E9, 0.0, 2023-02-28 16:06:01.375
211.0, 2082.489679156504, 187500.0, 187500.0, 187500.0, -187500.02235174447, -187500.02235174447, -187500.02235174447, -187500.02235174447, 0.17400000000000002, -0.02, 0.994, 192.0, 0.0, 0.0, 0.0, 0.0, 0.0, 0.0, 0.0, 0.0, 0.0, 1.677618361383761E9, 0.0, 2023-02-28 16:06:01.383
212.0, 1206.748331397573, 187500.0, 187500.0, 187500.0, -187500.02235174447, -187500.02235174447, -187500.02235174447, -187500.02235174447, 0.17400000000000002, -0.02, 0.994, 192.0, 0.0, 0.0, 0.0, 0.0, 0.0, 0.0, 0.0, 0.0, 0.0, 1.677618361383775E9, 0.0, 2023-02-28 16:06:01.383
213.0, 2476.483878670201, 187500.0, 187500.0, 187500.0, -187500.02235174447, -187500.02235174447, -187500.02235174447, -187500.02235174447, 0.17400000000000002, -0.02, 0.994, 192.0, 0.0, 0.0, 0.0, 0.0, 0.0, 0.0, 0.0, 0.0, 0.0, 1.677618361391092E9, 0.0, 2023-02-28 16:06:01.391
214.0, 3402.4272444757516, 187500.0, 187500.0, 187500.0, -187500.02235174447, -187500.02235174447, -187500.02235174447, -187500.02235174447, 0.178, -0.02, 0.998, 192.0, 5.0, 144.0, 255.0, 96.0, 31.0, 48.0, 0.0, 0.0, 0.0, 1.67761836139111E9, 0.0, 2023-02-28 16:06:01.391
215.0, 2684.3998055934676, 187500.0, 187500.0, 187500.0, -187500.02235174447, -187500.02235174447, -187500.02235174447, -187500.02235174447, 0.178, -0.02, 0.998, 192.0, 0.0, 0.0, 0.0, 0.0, 0.0, 0.0, 0.0, 0.0, 0.0, 1.677618361398295E9, 0.0, 2023-02-28 16:06:01.398
216.0, 1449.8459040934927, 187500.0, 187500.0, 187500.0, -187500.02235174447, -187500.02235174447, -187500.02235174447, -187500.02235174447, 0.178, -0.02, 0.998, 192.0, 0.0, 0.0, 0.0, 0.0, 0.0, 0.0, 0.0, 0.0, 0.0, 1.677618361398317E9, 0.0, 2023-02-28 16:06:01.398
217.0, 2455.696756326766, 187500.0, 187500.0, 187500.0, -187500.02235174447, -187500.02235174447, -187500.02235174447, -187500.02235174447, 0.178, -0.02, 0.998, 192.0, 0.0, 0.0, 0.0, 0.0, 0.0, 0.0, 0.0, 0.0, 0.0, 1.677618361405749E9, 0.0, 2023-02-28 16:06:01.405
218.0, 3337.4060198552634, 187500.0, 187500.0, 187500.0, -187500.02235174447, -187500.02235174447, -187500.02235174447, -187500.02235174447, 0.178, -0.02, 0.998, 192.0, 0.0, 0.0, 0.0, 0.0, 0.0, 0.0, 0.0, 0.0, 0.0, 1.677618361405767E9, 0.0, 2023-02-28 16:06:01.405
219.0, 2872.6238456516085, 187500.0, 187500.0, 187500.0, -187500.02235174447, -187500.02235174447, -187500.02235174447, -187500.02235174447, 0.178, -0.02, 0.998, 192.0, 0.0, 0.0, 0.0, 0.0, 0.0, 0.0, 0.0, 0.0, 0.0, 1.677618361413675E9, 0.0, 2023-02-28 16:06:01.413
220.0, 1574.2557137317317, 187500.0, 187500.0, 187500.0, -187500.02235174447, -187500.02235174447, -187500.02235174447, -187500.02235174447, 0.178, -0.02, 0.998, 192.0, 0.0, 0.0, 0.0, 0.0, 0.0, 0.0, 0.0, 0.0, 0.0, 1.677618361413695E9, 0.0, 2023-02-28 16:06:01.413
221.0, 2022.5646522718255, 187500.0, 187500.0, 187500.0, -187500.02235174447, -187500.02235174447, -187500.02235174447, -187500.02235174447, 0.178, -0.02, 0.998, 192.0, 0.0, 0.0, 0.0, 0.0, 0.0, 0.0, 0.0, 0.0, 0.0, 1.677618361420931E9, 0.0, 2023-02-28 16:06:01.420
222.0, 3061.943121188059, 187500.0, 187500.0, 187500.0, -187500.02235174447, -187500.02235174447, -187500.02235174447, -187500.02235174447, 0.178, -0.02, 0.998, 192.0, 0.0, 0.0, 0.0, 0.0, 0.0, 0.0, 0.0, 0.0, 0.0, 1.677618361427854E9, 0.0, 2023-02-28 16:06:01.427
223.0, 3422.096779596422, 187500.0, 187500.0, 187500.0, -187500.02235174447, -187500.02235174447, -187500.02235174447, -187500.02235174447, 0.178, -0.02, 0.998, 192.0, 0.0, 0.0, 0.0, 0.0, 0.0, 0.0, 0.0, 0.0, 0.0, 1.677618361427875E9, 0.0, 2023-02-28 16:06:01.427
224.0, 1551.568693109595, 187500.0, 187500.0, 187500.0, -187500.02235174447, -187500.02235174447, -187500.02235174447, -187500.02235174447, 0.178, -0.024, 0.996, 192.0, 5.0, 144.0, 255.0, 64.0, 31.0, 32.0, 0.0, 0.0, 0.0, 1.677618361435301E9, 0.0, 2023-02-28 16:06:01.435
225.0, 2397.1798893427717, 187500.0, 187500.0, 187500.0, -187500.02235174447, -187500.02235174447, -187500.02235174447, -187500.02235174447, 0.178, -0.024, 0.996, 192.0, 0.0, 0.0, 0.0, 0.0, 0.0, 0.0, 0.0, 0.0, 0.0, 1.677618361435366E9, 0.0, 2023-02-28 16:06:01.435
226.0, 2738.4239719419447, 187500.0, 187500.0, 187500.0, -187500.02235174447, -187500.02235174447, -187500.02235174447, -187500.02235174447, 0.178, -0.024, 0.996, 192.0, 0.0, 0.0, 0.0, 0.0, 0.0, 0.0, 0.0, 0.0, 0.0, 1.677618361443228E9, 0.0, 2023-02-28 16:06:01.443
227.0, 2451.2934626690703, 187500.0, 187500.0, 187500.0, -187500.02235174447, -187500.02235174447, -187500.02235174447, -187500.02235174447, 0.178, -0.024, 0.996, 192.0, 0.0, 0.0, 0.0, 0.0, 0.0, 0.0, 0.0, 0.0, 0.0, 1.677618361443245E9, 0.0, 2023-02-28 16:06:01.443
228.0, 2079.0475105103865, 187500.0, 187500.0, 187500.0, -187500.02235174447, -187500.02235174447, -187500.02235174447, -187500.02235174447, 0.178, -0.024, 0.996, 192.0, 0.0, 0.0, 0.0, 0.0, 0.0, 0.0, 0.0, 0.0, 0.0, 1.677618361450449E9, 0.0, 2023-02-28 16:06:01.450
229.0, 2144.1581421086958, 187500.0, 187500.0, 187500.0, -187500.02235174447, -187500.02235174447, -187500.02235174447, -187500.02235174447, 0.178, -0.024, 0.996, 192.0, 0.0, 0.0, 0.0, 0.0, 0.0, 0.0, 0.0, 0.0, 0.0, 1.677618361450477E9, 0.0, 2023-02-28 16:06:01.450
230.0, 2801.5229465392767, 187500.0, 187500.0, 187500.0, -187500.02235174447, -187500.02235174447, -187500.02235174447, -187500.02235174447, 0.178, -0.024, 0.996, 192.0, 0.0, 0.0, 0.0, 0.0, 0.0, 0.0, 0.0, 0.0, 0.0, 1.677618361457908E9, 0.0, 2023-02-28 16:06:01.457
231.0, 3381.6624738767714, 187500.0, 187500.0, 187500.0, -187500.02235174447, -187500.02235174447, -187500.02235174447, -187500.02235174447, 0.178, -0.024, 0.996, 192.0, 0.0, 0.0, 0.0, 0.0, 0.0, 0.0, 0.0, 0.0, 0.0, 1.677618361457928E9, 0.0, 2023-02-28 16:06:01.457
232.0, 2232.313422240427, 187500.0, 187500.0, 187500.0, -187500.02235174447, -187500.02235174447, -187500.02235174447, -187500.02235174447, 0.178, -0.024, 0.996, 192.0, 0.0, 0.0, 0.0, 0.0, 0.0, 0.0, 0.0, 0.0, 0.0, 1.677618361466064E9, 0.0, 2023-02-28 16:06:01.466
233.0, 1518.7786839936596, 187500.0, 187500.0, 187500.0, -187500.02235174447, -187500.02235174447, -187500.02235174447, -187500.02235174447, 0.178, -0.024, 0.996, 192.0, 0.0, 0.0, 0.0, 0.0, 0.0, 0.0, 0.0, 0.0, 0.0, 1.677618361466085E9, 0.0, 2023-02-28 16:06:01.466
234.0, 2778.031263116749, 187500.0, 187500.0, 187500.0, -187500.02235174447, -187500.02235174447, -187500.02235174447, -187500.02235174447, 0.182, -0.024, 0.994, 192.0, 5.0, 176.0, 255.0, 64.0, 31.0, 16.0, 0.0, 0.0, 0.0, 1.677618361473965E9, 0.0, 2023-02-28 16:06:01.473
235.0, 3406.67407592226, 187500.0, 187500.0, 187500.0, -187500.02235174447, -187500.02235174447, -187500.02235174447, -187500.02235174447, 0.182, -0.024, 0.994, 192.0, 0.0, 0.0, 0.0, 0.0, 0.0, 0.0, 0.0, 0.0, 0.0, 1.67761836147398E9, 0.0, 2023-02-28 16:06:01.473
236.0, 2768.0847368341374, 187500.0, 187500.0, 187500.0, -187500.02235174447, -187500.02235174447, -187500.02235174447, -187500.02235174447, 0.182, -0.024, 0.994, 192.0, 0.0, 0.0, 0.0, 0.0, 0.0, 0.0, 0.0, 0.0, 0.0, 1.677618361480113E9, 0.0, 2023-02-28 16:06:01.480
237.0, 2232.9392710851757, 187500.0, 187500.0, 187500.0, -187500.02235174447, -187500.02235174447, -187500.02235174447, -187500.02235174447, 0.182, -0.024, 0.994, 192.0, 0.0, 0.0, 0.0, 0.0, 0.0, 0.0, 0.0, 0.0, 0.0, 1.677618361487494E9, 0.0, 2023-02-28 16:06:01.487
238.0, 1743.1231430915766, 187500.0, 187500.0, 187500.0, -187500.02235174447, -187500.02235174447, -187500.02235174447, -187500.02235174447, 0.182, -0.024, 0.994, 192.0, 0.0, 0.0, 0.0, 0.0, 0.0, 0.0, 0.0, 0.0, 0.0, 1.67761836148751E9, 0.0, 2023-02-28 16:06:01.487
239.0, 2984.539030139331, 187500.0, 187500.0, 187500.0, -187500.02235174447, -187500.02235174447, -187500.02235174447, -187500.02235174447, 0.182, -0.024, 0.994, 192.0, 0.0, 0.0, 0.0, 0.0, 0.0, 0.0, 0.0, 0.0, 0.0, 1.677618361495571E9, 0.0, 2023-02-28 16:06:01.495
240.0, 2951.570207067753, 187500.0, 187500.0, 187500.0, -187500.02235174447, -187500.02235174447, -187500.02235174447, -187500.02235174447, 0.182, -0.024, 0.994, 192.0, 0.0, 0.0, 0.0, 0.0, 0.0, 0.0, 0.0, 0.0, 0.0, 1.677618361495596E9, 0.0, 2023-02-28 16:06:01.495
241.0, 2057.098097455275, 187500.0, 187500.0, 187500.0, -187500.02235174447, -187500.02235174447, -187500.02235174447, -187500.02235174447, 0.182, -0.024, 0.994, 192.0, 0.0, 0.0, 0.0, 0.0, 0.0, 0.0, 0.0, 0.0, 0.0, 1.677618361503659E9, 0.0, 2023-02-28 16:06:01.503
242.0, 2355.985624311641, 187500.0, 187500.0, 187500.0, -187500.02235174447, -187500.02235174447, -187500.02235174447, -187500.02235174447, 0.182, -0.024, 0.994, 192.0, 0.0, 0.0, 0.0, 0.0, 0.0, 0.0, 0.0, 0.0, 0.0, 1.677618361503693E9, 0.0, 2023-02-28 16:06:01.503
243.0, 3362.7976015564923, 187500.0, 187500.0, 187500.0, -187500.02235174447, -187500.02235174447, -187500.02235174447, -187500.02235174447, 0.182, -0.024, 0.994, 192.0, 0.0, 0.0, 0.0, 0.0, 0.0, 0.0, 0.0, 0.0, 0.0, 1.677618361510226E9, 0.0, 2023-02-28 16:06:01.510
244.0, 2636.9247003703954, 187500.0, 187500.0, 187500.0, -187500.02235174447, -187500.02235174447, -187500.02235174447, -187500.02235174447, 0.182, -0.024, 0.992, 192.0, 5.0, 176.0, 255.0, 64.0, 31.0, 0.0, 0.0, 0.0, 0.0, 1.677618361510242E9, 0.0, 2023-02-28 16:06:01.510
245.0, 2033.5840622882918, 187500.0, 187500.0, 187500.0, -187500.02235174447, -187500.02235174447, -187500.02235174447, -187500.02235174447, 0.182, -0.024, 0.992, 192.0, 0.0, 0.0, 0.0, 0.0, 0.0, 0.0, 0.0, 0.0, 0.0, 1.677618361518186E9, 0.0, 2023-02-28 16:06:01.518
246.0, 2537.1241613774496, 187500.0, 187500.0, 187500.0, -187500.02235174447, -187500.02235174447, -187500.02235174447, -187500.02235174447, 0.182, -0.024, 0.992, 192.0, 0.0, 0.0, 0.0, 0.0, 0.0, 0.0, 0.0, 0.0, 0.0, 1.677618361518199E9, 0.0, 2023-02-28 16:06:01.518
247.0, 3079.243371396467, 187500.0, 187500.0, 187500.0, -187500.02235174447, -187500.02235174447, -187500.02235174447, -187500.02235174447, 0.182, -0.024, 0.992, 192.0, 0.0, 0.0, 0.0, 0.0, 0.0, 0.0, 0.0, 0.0, 0.0, 1.677618361526238E9, 0.0, 2023-02-28 16:06:01.526
248.0, 3253.296405469943, 187500.0, 187500.0, 187500.0, -187500.02235174447, -187500.02235174447, -187500.02235174447, -187500.02235174447, 0.182, -0.024, 0.992, 192.0, 0.0, 0.0, 0.0, 0.0, 0.0, 0.0, 0.0, 0.0, 0.0, 1.67761836152626E9, 0.0, 2023-02-28 16:06:01.526
249.0, 3132.6416889001953, 187500.0, 187500.0, 187500.0, -187500.02235174447, -187500.02235174447, -187500.02235174447, -187500.02235174447, 0.182, -0.024, 0.992, 192.0, 0.0, 0.0, 0.0, 0.0, 0.0, 0.0, 0.0, 0.0, 0.0, 1.677618361533325E9, 0.0, 2023-02-28 16:06:01.533
250.0, 1956.582302639759, 187500.0, 187500.0, 187500.0, -187500.02235174447, -187500.02235174447, -187500.02235174447, -187500.02235174447, 0.182, -0.024, 0.992, 192.0, 0.0, 0.0, 0.0, 0.0, 0.0, 0.0, 0.0, 0.0, 0.0, 1.677618361533351E9, 0.0, 2023-02-28 16:06:01.533
251.0, 1994.1108815802195, 187500.0, 187500.0, 187500.0, -187500.02235174447, -187500.02235174447, -187500.02235174447, -187500.02235174447, 0.182, -0.024, 0.992, 192.0, 0.0, 0.0, 0.0, 0.0, 0.0, 0.0, 0.0, 0.0, 0.0, 1.677618361539854E9, 0.0, 2023-02-28 16:06:01.539
252.0, 2816.409208346511, 187500.0, 187500.0, 187500.0, -187500.02235174447, -187500.02235174447, -187500.02235174447, -187500.02235174447, 0.182, -0.024, 0.992, 192.0, 0.0, 0.0, 0.0, 0.0, 0.0, 0.0, 0.0, 0.0, 0.0, 1.677618361548417E9, 0.0, 2023-02-28 16:06:01.548
253.0, 2298.9439724616973, 187500.0, 187500.0, 187500.0, -187500.02235174447, -187500.02235174447, -187500.02235174447, -187500.02235174447, 0.17400000000000002, -0.022, 1.0, 192.0, 5.0, 112.0, 255.0, 80.0, 31.0, 64.0, 0.0, 0.0, 0.0, 1.677618361548429E9, 0.0, 2023-02-28 16:06:01.548
254.0, 1911.163557906575, 187500.0, 187500.0, 187500.0, -187500.02235174447, -187500.02235174447, -187500.02235174447, -187500.02235174447, 0.17400000000000002, -0.022, 1.0, 192.0, 0.0, 0.0, 0.0, 0.0, 0.0, 0.0, 0.0, 0.0, 0.0, 1.677618361555861E9, 0.0, 2023-02-28 16:06:01.555
255.0, 2832.6142230766086, 187500.0, 187500.0, 187500.0, -187500.02235174447, -187500.02235174447, -187500.02235174447, -187500.02235174447, 0.17400000000000002, -0.022, 1.0, 192.0, 0.0, 0.0, 0.0, 0.0, 0.0, 0.0, 0.0, 0.0, 0.0, 1.677618361555873E9, 0.0, 2023-02-28 16:06:01.555
0.0, 3433.0491343795225, 187500.0, 187500.0, 187500.0, -187500.02235174447, -187500.02235174447, -187500.02235174447, -187500.02235174447, 0.17400000000000002, -0.022, 1.0, 192.0, 0.0, 0.0, 0.0, 0.0, 0.0, 0.0, 0.0, 0.0, 0.0, 1.677618361562975E9, 0.0, 2023-02-28 16:06:01.562
1.0, 3113.441540413087, 187500.0, 187500.0, 187500.0, -187500.02235174447, -187500.02235174447, -187500.02235174447, -187500.02235174447, 0.17400000000000002, -0.022, 1.0, 192.0, 0.0, 0.0, 0.0, 0.0, 0.0, 0.0, 0.0, 0.0, 0.0, 1.677618361562999E9, 0.0, 2023-02-28 16:06:01.562
2.0, 2565.9579117247954, 187500.0, 187500.0, 187500.0, -187500.02235174447, -187500.02235174447, -187500.02235174447, -187500.02235174447, 0.17400000000000002, -0.022, 1.0, 192.0, 0.0, 0.0, 0.0, 0.0, 0.0, 0.0, 0.0, 0.0, 0.0, 1.677618361570366E9, 0.0, 2023-02-28 16:06:01.570
3.0, 3133.5134069339524, 187500.0, 187500.0, 187500.0, -187500.02235174447, -187500.02235174447, -187500.02235174447, -187500.02235174447, 0.17400000000000002, -0.022, 1.0, 192.0, 0.0, 0.0, 0.0, 0.0, 0.0, 0.0, 0.0, 0.0, 0.0, 1.67761836157038E9, 0.0, 2023-02-28 16:06:01.570
4.0, 3298.5586879919397, 187500.0, 187500.0, 187500.0, -187500.02235174447, -187500.02235174447, -187500.02235174447, -187500.02235174447, 0.17400000000000002, -0.022, 1.0, 192.0, 0.0, 0.0, 0.0, 0.0, 0.0, 0.0, 0.0, 0.0, 0.0, 1.677618361578429E9, 0.0, 2023-02-28 16:06:01.578
5.0, 1918.003191709899, 187500.0, 187500.0, 187500.0, -187500.02235174447, -187500.02235174447, -187500.02235174447, -187500.02235174447, 0.17400000000000002, -0.022, 1.0, 192.0, 0.0, 0.0, 0.0, 0.0, 0.0, 0.0, 0.0, 0.0, 0.0, 1.677618361578453E9, 0.0, 2023-02-28 16:06:01.578
6.0, 1428.8129125610487, 187500.0, 187500.0, 187500.0, -187500.02235174447, -187500.02235174447, -187500.02235174447, -187500.02235174447, 0.17400000000000002, -0.022, 1.0, 192.0, 0.0, 0.0, 0.0, 0.0, 0.0, 0.0, 0.0, 0.0, 0.0, 1.677618361586575E9, 0.0, 2023-02-28 16:06:01.586
7.0, 2756.0594983171823, 187500.0, 187500.0, 187500.0, -187500.02235174447, -187500.02235174447, -187500.02235174447, -187500.02235174447, 0.17400000000000002, -0.02, 0.994, 192.0, 5.0, 112.0, 255.0, 96.0, 31.0, 16.0, 0.0, 0.0, 0.0, 1.677618361586602E9, 0.0, 2023-02-28 16:06:01.586
8.0, 3878.787622307256, 187500.0, 187500.0, 187500.0, -187500.02235174447, -187500.02235174447, -187500.02235174447, -187500.02235174447, 0.17400000000000002, -0.02, 0.994, 192.0, 0.0, 0.0, 0.0, 0.0, 0.0, 0.0, 0.0, 0.0, 0.0, 1.677618361593184E9, 0.0, 2023-02-28 16:06:01.593
9.0, 3328.711191262149, 187500.0, 187500.0, 187500.0, -187500.02235174447, -187500.02235174447, -187500.02235174447, -187500.02235174447, 0.17400000000000002, -0.02, 0.994, 192.0, 0.0, 0.0, 0.0, 0.0, 0.0, 0.0, 0.0, 0.0, 0.0, 1.677618361593203E9, 0.0, 2023-02-28 16:06:01.593
10.0, 1591.8688883625136, 187500.0, 187500.0, 187500.0, -187500.02235174447, -187500.02235174447, -187500.02235174447, -187500.02235174447, 0.17400000000000002, -0.02, 0.994, 192.0, 0.0, 0.0, 0.0, 0.0, 0.0, 0.0, 0.0, 0.0, 0.0, 1.67761836160006E9, 0.0, 2023-02-28 16:06:01.600
11.0, 2421.6103460324225, 187500.0, 187500.0, 187500.0, -187500.02235174447, -187500.02235174447, -187500.02235174447, -187500.02235174447, 0.17400000000000002, -0.02, 0.994, 192.0, 0.0, 0.0, 0.0, 0.0, 0.0, 0.0, 0.0, 0.0, 0.0, 1.677618361600123E9, 0.0, 2023-02-28 16:06:01.600
12.0, 3277.168068548211, 187500.0, 187500.0, 187500.0, -187500.02235174447, -187500.02235174447, -187500.02235174447, -187500.02235174447, 0.17400000000000002, -0.02, 0.994, 192.0, 0.0, 0.0, 0.0, 0.0, 0.0, 0.0, 0.0, 0.0, 0.0, 1.677618361608178E9, 0.0, 2023-02-28 16:06:01.608
13.0, 2612.874223336485, 187500.0, 187500.0, 187500.0, -187500.02235174447, -187500.02235174447, -187500.02235174447, -187500.02235174447, 0.17400000000000002, -0.02, 0.994, 192.0, 0.0, 0.0, 0.0, 0.0, 0.0, 0.0, 0.0, 0.0, 0.0, 1.677618361615228E9, 0.0, 2023-02-28 16:06:01.615
14.0, 2136.4691420160702, 187500.0, 187500.0, 187500.0, -187500.02235174447, -187500.02235174447, -187500.02235174447, -187500.02235174447, 0.17400000000000002, -0.02, 0.994, 192.0, 0.0, 0.0, 0.0, 0.0, 0.0, 0.0, 0.0, 0.0, 0.0, 1.677618361615255E9, 0.0, 2023-02-28 16:06:01.615
15.0, 2536.1183328769607, 187500.0, 187500.0, 187500.0, -187500.02235174447, -187500.02235174447, -187500.02235174447, -187500.02235174447, 0.17400000000000002, -0.02, 0.994, 192.0, 0.0, 0.0, 0.0, 0.0, 0.0, 0.0, 0.0, 0.0, 0.0, 1.677618361622711E9, 0.0, 2023-02-28 16:06:01.622
16.0, 3646.6200526499815, 187500.0, 187500.0, 187500.0, -187500.02235174447, -187500.02235174447, -187500.02235174447, -187500.02235174447, 0.17400000000000002, -0.02, 0.994, 192.0, 0.0, 0.0, 0.0, 0.0, 0.0, 0.0, 0.0, 0.0, 0.0, 1.677618361622726E9, 0.0, 2023-02-28 16:06:01.622
17.0, 3387.4739274351514, 187500.0, 187500.0, 187500.0, -187500.02235174447, -187500.02235174447, -187500.02235174447, -187500.02235174447, 0.17200000000000001, -0.018000000000000002, 0.994, 192.0, 5.0, 96.0, 255.0, 112.0, 31.0, 16.0, 0.0, 0.0, 0.0, 1.67761836163078E9, 0.0, 2023-02-28 16:06:01.630
18.0, 2028.2643471079289, 187500.0, 187500.0, 187500.0, -187500.02235174447, -187500.02235174447, -187500.02235174447, -187500.02235174447, 0.17200000000000001, -0.018000000000000002, 0.994, 192.0, 0.0, 0.0, 0.0, 0.0, 0.0, 0.0, 0.0, 0.0, 0.0, 1.677618361630803E9, 0.0, 2023-02-28 16:06:01.630
19.0, 2220.824625590399, 187500.0, 187500.0, 187500.0, -187500.02235174447, -187500.02235174447, -187500.02235174447, -187500.02235174447, 0.17200000000000001, -0.018000000000000002, 0.994, 192.0, 0.0, 0.0, 0.0, 0.0, 0.0, 0.0, 0.0, 0.0, 0.0, 1.677618361638832E9, 0.0, 2023-02-28 16:06:01.638
20.0, 3756.970615025832, 187500.0, 187500.0, 187500.0, -187500.02235174447, -187500.02235174447, -187500.02235174447, -187500.02235174447, 0.17200000000000001, -0.018000000000000002, 0.994, 192.0, 0.0, 0.0, 0.0, 0.0, 0.0, 0.0, 0.0, 0.0, 0.0, 1.677618361638851E9, 0.0, 2023-02-28 16:06:01.638
21.0, 3098.3764646502095, 187500.0, 187500.0, 187500.0, -187500.02235174447, -187500.02235174447, -187500.02235174447, -187500.02235174447, 0.17200000000000001, -0.018000000000000002, 0.994, 192.0, 0.0, 0.0, 0.0, 0.0, 0.0, 0.0, 0.0, 0.0, 0.0, 1.677618361645392E9, 0.0, 2023-02-28 16:06:01.645
22.0, 2029.8289692198002, 187500.0, 187500.0, 187500.0, -187500.02235174447, -187500.02235174447, -187500.02235174447, -187500.02235174447, 0.17200000000000001, -0.018000000000000002, 0.994, 192.0, 0.0, 0.0, 0.0, 0.0, 0.0, 0.0, 0.0, 0.0, 0.0, 1.677618361645404E9, 0.0, 2023-02-28 16:06:01.645
23.0, 2004.2138700740184, 187500.0, 187500.0, 187500.0, -187500.02235174447, -187500.02235174447, -187500.02235174447, -187500.02235174447, 0.17200000000000001, -0.018000000000000002, 0.994, 192.0, 0.0, 0.0, 0.0, 0.0, 0.0, 0.0, 0.0, 0.0, 0.0, 1.677618361653331E9, 0.0, 2023-02-28 16:06:01.653
24.0, 2970.055099732292, 187500.0, 187500.0, 187500.0, -187500.02235174447, -187500.02235174447, -187500.02235174447, -187500.02235174447, 0.17200000000000001, -0.018000000000000002, 0.994, 192.0, 0.0, 0.0, 0.0, 0.0, 0.0, 0.0, 0.0, 0.0, 0.0, 1.677618361653348E9, 0.0, 2023-02-28 16:06:01.653
25.0, 3218.1818149306555, 187500.0, 187500.0, 187500.0, -187500.02235174447, -187500.02235174447, -187500.02235174447, -187500.02235174447, 0.17200000000000001, -0.018000000000000002, 0.994, 192.0, 0.0, 0.0, 0.0, 0.0, 0.0, 0.0, 0.0, 0.0, 0.0, 1.67761836166145E9, 0.0, 2023-02-28 16:06:01.661
26.0, 2375.56575245449, 187500.0, 187500.0, 187500.0, -187500.02235174447, -187500.02235174447, -187500.02235174447, -187500.02235174447, 0.17200000000000001, -0.018000000000000002, 0.994, 192.0, 0.0, 0.0, 0.0, 0.0, 0.0, 0.0, 0.0, 0.0, 0.0, 1.677618361661463E9, 0.0, 2023-02-28 16:06:01.661
27.0, 2033.4723035660154, 187500.0, 187500.0, 187500.0, -187500.02235174447, -187500.02235174447, -187500.02235174447, -187500.02235174447, 0.178, -0.024, 0.996, 192.0, 5.0, 144.0, 255.0, 64.0, 31.0, 32.0, 0.0, 0.0, 0.0, 1.677618361668468E9, 0.0, 2023-02-28 16:06:01.668
28.0, 3007.561326928297, 187500.0, 187500.0, 187500.0, -187500.02235174447, -187500.02235174447, -187500.02235174447, -187500.02235174447, 0.178, -0.024, 0.996, 192.0, 0.0, 0.0, 0.0, 0.0, 0.0, 0.0, 0.0, 0.0, 0.0, 1.677618361675125E9, 0.0, 2023-02-28 16:06:01.675
29.0, 3611.57251734406, 187500.0, 187500.0, 187500.0, -187500.02235174447, -187500.02235174447, -187500.02235174447, -187500.02235174447, 0.178, -0.024, 0.996, 192.0, 0.0, 0.0, 0.0, 0.0, 0.0, 0.0, 0.0, 0.0, 0.0, 1.677618361675148E9, 0.0, 2023-02-28 16:06:01.675
30.0, 3317.356505078853, 187500.0, 187500.0, 187500.0, -187500.02235174447, -187500.02235174447, -187500.02235174447, -187500.02235174447, 0.178, -0.024, 0.996, 192.0, 0.0, 0.0, 0.0, 0.0, 0.0, 0.0, 0.0, 0.0, 0.0, 1.677618361683034E9, 0.0, 2023-02-28 16:06:01.683
31.0, 1962.1031835202198, 187500.0, 187500.0, 187500.0, -187500.02235174447, -187500.02235174447, -187500.02235174447, -187500.02235174447, 0.178, -0.024, 0.996, 192.0, 0.0, 0.0, 0.0, 0.0, 0.0, 0.0, 0.0, 0.0, 0.0, 1.677618361683052E9, 0.0, 2023-02-28 16:06:01.683
32.0, 2702.124738946526, 187500.0, 187500.0, 187500.0, -187500.02235174447, -187500.02235174447, -187500.02235174447, -187500.02235174447, 0.178, -0.024, 0.996, 192.0, 0.0, 0.0, 0.0, 0.0, 0.0, 0.0, 0.0, 0.0, 0.0, 1.677618361691267E9, 0.0, 2023-02-28 16:06:01.691
33.0, 2876.1330695310917, 187500.0, 187500.0, 187500.0, -187500.02235174447, -187500.02235174447, -187500.02235174447, -187500.02235174447, 0.178, -0.024, 0.996, 192.0, 0.0, 0.0, 0.0, 0.0, 0.0, 0.0, 0.0, 0.0, 0.0, 1.677618361691279E9, 0.0, 2023-02-28 16:06:01.691
34.0, 2653.4426395228675, 187500.0, 187500.0, 187500.0, -187500.02235174447, -187500.02235174447, -187500.02235174447, -187500.02235174447, 0.178, -0.024, 0.996, 192.0, 0.0, 0.0, 0.0, 0.0, 0.0, 0.0, 0.0, 0.0, 0.0, 1.677618361698222E9, 0.0, 2023-02-28 16:06:01.698
35.0, 2052.9853764754985, 187500.0, 187500.0, 187500.0, -187500.02235174447, -187500.02235174447, -187500.02235174447, -187500.02235174447, 0.178, -0.024, 0.996, 192.0, 0.0, 0.0, 0.0, 0.0, 0.0, 0.0, 0.0, 0.0, 0.0, 1.677618361698235E9, 0.0, 2023-02-28 16:06:01.698
36.0, 2341.009955526585, 187500.0, 187500.0, 187500.0, -187500.02235174447, -187500.02235174447, -187500.02235174447, -187500.02235174447, 0.178, -0.024, 0.996, 192.0, 0.0, 0.0, 0.0, 0.0, 0.0, 0.0, 0.0, 0.0, 0.0, 1.67761836170563E9, 0.0, 2023-02-28 16:06:01.705
37.0, 3728.1368646784863, 187500.0, 187500.0, 187500.0, -187500.02235174447, -187500.02235174447, -187500.02235174447, -187500.02235174447, 0.178, -0.024, 0.996, 192.0, 5.0, 144.0, 255.0, 64.0, 31.0, 32.0, 0.0, 0.0, 0.0, 1.677618361705646E9, 0.0, 2023-02-28 16:06:01.705
38.0, 3321.0892464028893, 187500.0, 187500.0, 187500.0, -187500.02235174447, -187500.02235174447, -187500.02235174447, -187500.02235174447, 0.178, -0.024, 0.996, 192.0, 0.0, 0.0, 0.0, 0.0, 0.0, 0.0, 0.0, 0.0, 0.0, 1.677618361713745E9, 0.0, 2023-02-28 16:06:01.713
39.0, 1823.947051041967, 187500.0, 187500.0, 187500.0, -187500.02235174447, -187500.02235174447, -187500.02235174447, -187500.02235174447, 0.178, -0.024, 0.996, 192.0, 0.0, 0.0, 0.0, 0.0, 0.0, 0.0, 0.0, 0.0, 0.0, 1.677618361713765E9, 0.0, 2023-02-28 16:06:01.713
40.0, 2170.1085174213076, 187500.0, 187500.0, 187500.0, -187500.02235174447, -187500.02235174447, -187500.02235174447, -187500.02235174447, 0.178, -0.024, 0.996, 192.0, 0.0, 0.0, 0.0, 0.0, 0.0, 0.0, 0.0, 0.0, 0.0, 1.677618361721737E9, 0.0, 2023-02-28 16:06:01.721
41.0, 3400.259125263587, 187500.0, 187500.0, 187500.0, -187500.02235174447, -187500.02235174447, -187500.02235174447, -187500.02235174447, 0.178, -0.024, 0.996, 192.0, 0.0, 0.0, 0.0, 0.0, 0.0, 0.0, 0.0, 0.0, 0.0, 1.677618361721749E9, 0.0, 2023-02-28 16:06:01.721
42.0, 3281.616065694817, 187500.0, 187500.0, 187500.0, -187500.02235174447, -187500.02235174447, -187500.02235174447, -187500.02235174447, 0.178, -0.024, 0.996, 192.0, 0.0, 0.0, 0.0, 0.0, 0.0, 0.0, 0.0, 0.0, 0.0, 1.677618361727822E9, 0.0, 2023-02-28 16:06:01.727
43.0, 1821.6001178741597, 187500.0, 187500.0, 187500.0, -187500.02235174447, -187500.02235174447, -187500.02235174447, -187500.02235174447, 0.178, -0.024, 0.996, 192.0, 0.0, 0.0, 0.0, 0.0, 0.0, 0.0, 0.0, 0.0, 0.0, 1.67761836173543E9, 0.0, 2023-02-28 16:06:01.735
44.0, 1973.1896487700521, 187500.0, 187500.0, 187500.0, -187500.02235174447, -187500.02235174447, -187500.02235174447, -187500.02235174447, 0.178, -0.024, 0.996, 192.0, 0.0, 0.0, 0.0, 0.0, 0.0, 0.0, 0.0, 0.0, 0.0, 1.677618361735446E9, 0.0, 2023-02-28 16:06:01.735
45.0, 3044.8440366797495, 187500.0, 187500.0, 187500.0, -187500.02235174447, -187500.02235174447, -187500.02235174447, -187500.02235174447, 0.178, -0.024, 0.996, 192.0, 0.0, 0.0, 0.0, 0.0, 0.0, 0.0, 0.0, 0.0, 0.0, 1.677618361743408E9, 0.0, 2023-02-28 16:06:01.743
46.0, 3697.760843963724, 187500.0, 187500.0, 187500.0, -187500.02235174447, -187500.02235174447, -187500.02235174447, -187500.02235174447, 0.178, -0.024, 0.996, 192.0, 0.0, 0.0, 0.0, 0.0, 0.0, 0.0, 0.0, 0.0, 0.0, 1.677618361743421E9, 0.0, 2023-02-28 16:06:01.743
47.0, 3383.76353785557, 187500.0, 187500.0, 187500.0, -187500.02235174447, -187500.02235174447, -187500.02235174447, -187500.02235174447, 0.176, -0.024, 0.994, 192.0, 5.0, 128.0, 255.0, 64.0, 31.0, 16.0, 0.0, 0.0, 0.0, 1.677618361751494E9, 0.0, 2023-02-28 16:06:01.751
48.0, 1700.140738504021, 187500.0, 187500.0, 187500.0, -187500.02235174447, -187500.02235174447, -187500.02235174447, -187500.02235174447, 0.176, -0.024, 0.994, 192.0, 0.0, 0.0, 0.0, 0.0, 0.0, 0.0, 0.0, 0.0, 0.0, 1.677618361751522E9, 0.0, 2023-02-28 16:06:01.751
49.0, 2388.865040405398, 187500.0, 187500.0, 187500.0, -187500.02235174447, -187500.02235174447, -187500.02235174447, -187500.02235174447, 0.176, -0.024, 0.994, 192.0, 0.0, 0.0, 0.0, 0.0, 0.0, 0.0, 0.0, 0.0, 0.0, 1.67761836175794E9, 0.0, 2023-02-28 16:06:01.757
50.0, 3286.131118074789, 187500.0, 187500.0, 187500.0, -187500.02235174447, -187500.02235174447, -187500.02235174447, -187500.02235174447, 0.176, -0.024, 0.994, 192.0, 0.0, 0.0, 0.0, 0.0, 0.0, 0.0, 0.0, 0.0, 0.0, 1.677618361757965E9, 0.0, 2023-02-28 16:06:01.757
51.0, 2221.5845849018797, 187500.0, 187500.0, 187500.0, -187500.02235174447, -187500.02235174447, -187500.02235174447, -187500.02235174447, 0.176, -0.024, 0.994, 192.0, 0.0, 0.0, 0.0, 0.0, 0.0, 0.0, 0.0, 0.0, 0.0, 1.677618361765923E9, 0.0, 2023-02-28 16:06:01.765
52.0, 2030.1418936421746, 187500.0, 187500.0, 187500.0, -187500.02235174447, -187500.02235174447, -187500.02235174447, -187500.02235174447, 0.176, -0.024, 0.994, 192.0, 0.0, 0.0, 0.0, 0.0, 0.0, 0.0, 0.0, 0.0, 0.0, 1.677618361765942E9, 0.0, 2023-02-28 16:06:01.765
53.0, 3013.663353164596, 187500.0, 187500.0, 187500.0, -187500.02235174447, -187500.02235174447, -187500.02235174447, -187500.02235174447, 0.176, -0.024, 0.994, 192.0, 0.0, 0.0, 0.0, 0.0, 0.0, 0.0, 0.0, 0.0, 0.0, 1.677618361774112E9, 0.0, 2023-02-28 16:06:01.774
54.0, 3410.6079829463943, 187500.0, 187500.0, 187500.0, -187500.02235174447, -187500.02235174447, -187500.02235174447, -187500.02235174447, 0.176, -0.024, 0.994, 192.0, 0.0, 0.0, 0.0, 0.0, 0.0, 0.0, 0.0, 0.0, 0.0, 1.677618361774124E9, 0.0, 2023-02-28 16:06:01.774
55.0, 2489.0679107985393, 187500.0, 187500.0, 187500.0, -187500.02235174447, -187500.02235174447, -187500.02235174447, -187500.02235174447, 0.176, -0.024, 0.994, 192.0, 0.0, 0.0, 0.0, 0.0, 0.0, 0.0, 0.0, 0.0, 0.0, 1.677618361781172E9, 0.0, 2023-02-28 16:06:01.781
56.0, 1830.6972778674697, 187500.0, 187500.0, 187500.0, -187500.02235174447, -187500.02235174447, -187500.02235174447, -187500.02235174447, 0.178, -0.028, 0.994, 192.0, 5.0, 144.0, 255.0, 32.0, 31.0, 16.0, 0.0, 0.0, 0.0, 1.677618361781188E9, 0.0, 2023-02-28 16:06:01.781
57.0, 2576.2397141742367, 187500.0, 187500.0, 187500.0, -187500.02235174447, -187500.02235174447, -187500.02235174447, -187500.02235174447, 0.178, -0.028, 0.994, 192.0, 0.0, 0.0, 0.0, 0.0, 0.0, 0.0, 0.0, 0.0, 0.0, 1.677618361787603E9, 0.0, 2023-02-28 16:06:01.787
58.0, 3585.7786042426355, 187500.0, 187500.0, 187500.0, -187500.02235174447, -187500.02235174447, -187500.02235174447, -187500.02235174447, 0.178, -0.028, 0.994, 192.0, 0.0, 0.0, 0.0, 0.0, 0.0, 0.0, 0.0, 0.0, 0.0, 1.677618361795505E9, 0.0, 2023-02-28 16:06:01.795
59.0, 3290.869687899314, 187500.0, 187500.0, 187500.0, -187500.02235174447, -187500.02235174447, -187500.02235174447, -187500.02235174447, 0.178, -0.028, 0.994, 192.0, 0.0, 0.0, 0.0, 0.0, 0.0, 0.0, 0.0, 0.0, 0.0, 1.677618361795528E9, 0.0, 2023-02-28 16:06:01.795
60.0, 1668.088336955111, 187500.0, 187500.0, 187500.0, -187500.02235174447, -187500.02235174447, -187500.02235174447, -187500.02235174447, 0.178, -0.028, 0.994, 192.0, 0.0, 0.0, 0.0, 0.0, 0.0, 0.0, 0.0, 0.0, 0.0, 1.677618361803621E9, 0.0, 2023-02-28 16:06:01.803
61.0, 2224.53501516998, 187500.0, 187500.0, 187500.0, -187500.02235174447, -187500.02235174447, -187500.02235174447, -187500.02235174447, 0.178, -0.028, 0.994, 192.0, 0.0, 0.0, 0.0, 0.0, 0.0, 0.0, 0.0, 0.0, 0.0, 1.677618361803642E9, 0.0, 2023-02-28 16:06:01.803
62.0, 3369.5254766375397, 187500.0, 187500.0, 187500.0, -187500.02235174447, -187500.02235174447, -187500.02235174447, -187500.02235174447, 0.178, -0.028, 0.994, 192.0, 0.0, 0.0, 0.0, 0.0, 0.0, 0.0, 0.0, 0.0, 0.0, 1.677618361810219E9, 0.0, 2023-02-28 16:06:01.810
63.0, 2759.9710535968607, 187500.0, 187500.0, 187500.0, -187500.02235174447, -187500.02235174447, -187500.02235174447, -187500.02235174447, 0.178, -0.028, 0.994, 192.0, 0.0, 0.0, 0.0, 0.0, 0.0, 0.0, 0.0, 0.0, 0.0, 1.677618361810231E9, 0.0, 2023-02-28 16:06:01.810
64.0, 2727.15869273647, 187500.0, 187500.0, 187500.0, -187500.02235174447, -187500.02235174447, -187500.02235174447, -187500.02235174447, 0.178, -0.028, 0.994, 192.0, 0.0, 0.0, 0.0, 0.0, 0.0, 0.0, 0.0, 0.0, 0.0, 1.677618361818259E9, 0.0, 2023-02-28 16:06:01.818
65.0, 2117.7830836514336, 187500.0, 187500.0, 187500.0, -187500.02235174447, -187500.02235174447, -187500.02235174447, -187500.02235174447, 0.178, -0.028, 0.994, 192.0, 0.0, 0.0, 0.0, 0.0, 0.0, 0.0, 0.0, 0.0, 0.0, 1.677618361818272E9, 0.0, 2023-02-28 16:06:01.818
66.0, 2641.1715318169036, 187500.0, 187500.0, 187500.0, -187500.02235174447, -187500.02235174447, -187500.02235174447, -187500.02235174447, 0.17400000000000002, -0.026000000000000002, 0.994, 192.0, 5.0, 112.0, 255.0, 48.0, 31.0, 16.0, 0.0, 0.0, 0.0, 1.67761836182629E9, 0.0, 2023-02-28 16:06:01.826
67.0, 2984.8072510727943, 187500.0, 187500.0, 187500.0, -187500.02235174447, -187500.02235174447, -187500.02235174447, -187500.02235174447, 0.17400000000000002, -0.026000000000000002, 0.994, 192.0, 0.0, 0.0, 0.0, 0.0, 0.0, 0.0, 0.0, 0.0, 0.0, 1.677618361826307E9, 0.0, 2023-02-28 16:06:01.826
68.0, 1992.8144804018118, 187500.0, 187500.0, 187500.0, -187500.02235174447, -187500.02235174447, -187500.02235174447, -187500.02235174447, 0.17400000000000002, -0.026000000000000002, 0.994, 192.0, 0.0, 0.0, 0.0, 0.0, 0.0, 0.0, 0.0, 0.0, 0.0, 1.677618361833214E9, 0.0, 2023-02-28 16:06:01.833
69.0, 1988.3664832552056, 187500.0, 187500.0, 187500.0, -187500.02235174447, -187500.02235174447, -187500.02235174447, -187500.02235174447, 0.17400000000000002, -0.026000000000000002, 0.994, 192.0, 0.0, 0.0, 0.0, 0.0, 0.0, 0.0, 0.0, 0.0, 0.0, 1.67761836183323E9, 0.0, 2023-02-28 16:06:01.833
70.0, 2790.5929435006315, 187500.0, 187500.0, 187500.0, -187500.02235174447, -187500.02235174447, -187500.02235174447, -187500.02235174447, 0.17400000000000002, -0.026000000000000002, 0.994, 192.0, 0.0, 0.0, 0.0, 0.0, 0.0, 0.0, 0.0, 0.0, 0.0, 1.67761836184084E9, 0.0, 2023-02-28 16:06:01.840
71.0, 3199.518108310474, 187500.0, 187500.0, 187500.0, -187500.02235174447, -187500.02235174447, -187500.02235174447, -187500.02235174447, 0.17400000000000002, -0.026000000000000002, 0.994, 192.0, 0.0, 0.0, 0.0, 0.0, 0.0, 0.0, 0.0, 0.0, 0.0, 1.677618361840865E9, 0.0, 2023-02-28 16:06:01.840
72.0, 2663.769145461219, 187500.0, 187500.0, 187500.0, -187500.02235174447, -187500.02235174447, -187500.02235174447, -187500.02235174447, 0.17400000000000002, -0.026000000000000002, 0.994, 192.0, 0.0, 0.0, 0.0, 0.0, 0.0, 0.0, 0.0, 0.0, 0.0, 1.677618361847849E9, 0.0, 2023-02-28 16:06:01.847
73.0, 2589.9189817808847, 187500.0, 187500.0, 187500.0, -187500.02235174447, -187500.02235174447, -187500.02235174447, -187500.02235174447, 0.17400000000000002, -0.026000000000000002, 0.994, 192.0, 0.0, 0.0, 0.0, 0.0, 0.0, 0.0, 0.0, 0.0, 0.0, 1.677618361847872E9, 0.0, 2023-02-28 16:06:01.847
74.0, 2821.03601944876, 187500.0, 187500.0, 187500.0, -187500.02235174447, -187500.02235174447, -187500.02235174447, -187500.02235174447, 0.17400000000000002, -0.026000000000000002, 0.994, 192.0, 0.0, 0.0, 0.0, 0.0, 0.0, 0.0, 0.0, 0.0, 0.0, 1.677618361855919E9, 0.0, 2023-02-28 16:06:01.855
75.0, 2791.285847578746, 187500.0, 187500.0, 187500.0, -187500.02235174447, -187500.02235174447, -187500.02235174447, -187500.02235174447, 0.17400000000000002, -0.026000000000000002, 0.994, 192.0, 0.0, 0.0, 0.0, 0.0, 0.0, 0.0, 0.0, 0.0, 0.0, 1.677618361862886E9, 0.0, 2023-02-28 16:06:01.862
76.0, 1981.9515325965326, 187500.0, 187500.0, 187500.0, -187500.02235174447, -187500.02235174447, -187500.02235174447, -187500.02235174447, 0.176, -0.024, 0.996, 192.0, 5.0, 128.0, 255.0, 64.0, 31.0, 32.0, 0.0, 0.0, 0.0, 1.677618361862903E9, 0.0, 2023-02-28 16:06:01.862
77.0, 1836.6875453814919, 187500.0, 187500.0, 187500.0, -187500.02235174447, -187500.02235174447, -187500.02235174447, -187500.02235174447, 0.176, -0.024, 0.996, 192.0, 0.0, 0.0, 0.0, 0.0, 0.0, 0.0, 0.0, 0.0, 0.0, 1.67761836187044E9, 0.0, 2023-02-28 16:06:01.870
78.0, 2644.479589996289, 187500.0, 187500.0, 187500.0, -187500.02235174447, -187500.02235174447, -187500.02235174447, -187500.02235174447, 0.176, -0.024, 0.996, 192.0, 0.0, 0.0, 0.0, 0.0, 0.0, 0.0, 0.0, 0.0, 0.0, 1.677618361870455E9, 0.0, 2023-02-28 16:06:01.870
79.0, 2976.335939924233, 187500.0, 187500.0, 187500.0, -187500.02235174447, -187500.02235174447, -187500.02235174447, -187500.02235174447, 0.176, -0.024, 0.996, 192.0, 0.0, 0.0, 0.0, 0.0, 0.0, 0.0, 0.0, 0.0, 0.0, 1.677618361878746E9, 0.0, 2023-02-28 16:06:01.878
80.0, 2807.580269286665, 187500.0, 187500.0, 187500.0, -187500.02235174447, -187500.02235174447, -187500.02235174447, -187500.02235174447, 0.176, -0.024, 0.996, 192.0, 0.0, 0.0, 0.0, 0.0, 0.0, 0.0, 0.0, 0.0, 0.0, 1.677618361878763E9, 0.0, 2023-02-28 16:06:01.878
81.0, 2215.996648788053, 187500.0, 187500.0, 187500.0, -187500.02235174447, -187500.02235174447, -187500.02235174447, -187500.02235174447, 0.176, -0.024, 0.996, 192.0, 0.0, 0.0, 0.0, 0.0, 0.0, 0.0, 0.0, 0.0, 0.0, 1.677618361886533E9, 0.0, 2023-02-28 16:06:01.886
82.0, 3022.2240712909784, 187500.0, 187500.0, 187500.0, -187500.02235174447, -187500.02235174447, -187500.02235174447, -187500.02235174447, 0.176, -0.024, 0.996, 192.0, 0.0, 0.0, 0.0, 0.0, 0.0, 0.0, 0.0, 0.0, 0.0, 1.677618361886568E9, 0.0, 2023-02-28 16:06:01.886
83.0, 2592.712949837798, 187500.0, 187500.0, 187500.0, -187500.02235174447, -187500.02235174447, -187500.02235174447, -187500.02235174447, 0.176, -0.024, 0.996, 192.0, 0.0, 0.0, 0.0, 0.0, 0.0, 0.0, 0.0, 0.0, 0.0, 1.677618361893093E9, 0.0, 2023-02-28 16:06:01.893
84.0, 2540.722792234754, 187500.0, 187500.0, 187500.0, -187500.02235174447, -187500.02235174447, -187500.02235174447, -187500.02235174447, 0.176, -0.024, 0.996, 192.0, 0.0, 0.0, 0.0, 0.0, 0.0, 0.0, 0.0, 0.0, 0.0, 1.677618361893104E9, 0.0, 2023-02-28 16:06:01.893
85.0, 1750.141590850543, 187500.0, 187500.0, 187500.0, -187500.02235174447, -187500.02235174447, -187500.02235174447, -187500.02235174447, 0.176, -0.024, 0.996, 192.0, 0.0, 0.0, 0.0, 0.0, 0.0, 0.0, 0.0, 0.0, 0.0, 1.677618361901172E9, 0.0, 2023-02-28 16:06:01.901
86.0, 1948.0886397467423, 187500.0, 187500.0, 187500.0, -187500.02235174447, -187500.02235174447, -187500.02235174447, -187500.02235174447, 0.17400000000000002, -0.024, 0.994, 192.0, 5.0, 112.0, 255.0, 64.0, 31.0, 16.0, 0.0, 0.0, 0.0, 1.677618361901187E9, 0.0, 2023-02-28 16:06:01.901
87.0, 3042.3629930452103, 187500.0, 187500.0, 187500.0, -187500.02235174447, -187500.02235174447, -187500.02235174447, -187500.02235174447, 0.17400000000000002, -0.024, 0.994, 192.0, 0.0, 0.0, 0.0, 0.0, 0.0, 0.0, 0.0, 0.0, 0.0, 1.677618361909057E9, 0.0, 2023-02-28 16:06:01.909
88.0, 3077.0305486953916, 187500.0, 187500.0, 187500.0, -187500.02235174447, -187500.02235174447, -187500.02235174447, -187500.02235174447, 0.17400000000000002, -0.024, 0.994, 192.0, 0.0, 0.0, 0.0, 0.0, 0.0, 0.0, 0.0, 0.0, 0.0, 1.677618361909073E9, 0.0, 2023-02-28 16:06:01.909
89.0, 2171.673139533179, 187500.0, 187500.0, 187500.0, -187500.02235174447, -187500.02235174447, -187500.02235174447, -187500.02235174447, 0.17400000000000002, -0.024, 0.994, 192.0, 0.0, 0.0, 0.0, 0.0, 0.0, 0.0, 0.0, 0.0, 0.0, 1.67761836191616E9, 0.0, 2023-02-28 16:06:01.916
90.0, 2207.7041515951337, 187500.0, 187500.0, 187500.0, -187500.02235174447, -187500.02235174447, -187500.02235174447, -187500.02235174447, 0.17400000000000002, -0.024, 0.994, 192.0, 0.0, 0.0, 0.0, 0.0, 0.0, 0.0, 0.0, 0.0, 0.0, 1.677618361922733E9, 0.0, 2023-02-28 16:06:01.922
91.0, 2841.241996436357, 187500.0, 187500.0, 187500.0, -187500.02235174447, -187500.02235174447, -187500.02235174447, -187500.02235174447, 0.17400000000000002, -0.024, 0.994, 192.0, 0.0, 0.0, 0.0, 0.0, 0.0, 0.0, 0.0, 0.0, 0.0, 1.67761836192275E9, 0.0, 2023-02-28 16:06:01.922
92.0, 3448.181265375765, 187500.0, 187500.0, 187500.0, -187500.02235174447, -187500.02235174447, -187500.02235174447, -187500.02235174447, 0.17400000000000002, -0.024, 0.994, 192.0, 0.0, 0.0, 0.0, 0.0, 0.0, 0.0, 0.0, 0.0, 0.0, 1.677618361930608E9, 0.0, 2023-02-28 16:06:01.930
93.0, 1796.7673297843135, 187500.0, 187500.0, 187500.0, -187500.02235174447, -187500.02235174447, -187500.02235174447, -187500.02235174447, 0.17400000000000002, -0.024, 0.994, 192.0, 0.0, 0.0, 0.0, 0.0, 0.0, 0.0, 0.0, 0.0, 0.0, 1.67761836193063E9, 0.0, 2023-02-28 16:06:01.930
94.0, 1535.766009779693, 187500.0, 187500.0, 187500.0, -187500.02235174447, -187500.02235174447, -187500.02235174447, -187500.02235174447, 0.17400000000000002, -0.024, 0.994, 192.0, 0.0, 0.0, 0.0, 0.0, 0.0, 0.0, 0.0, 0.0, 0.0, 1.677618361938824E9, 0.0, 2023-02-28 16:06:01.938
95.0, 2686.9926079502834, 187500.0, 187500.0, 187500.0, -187500.02235174447, -187500.02235174447, -187500.02235174447, -187500.02235174447, 0.17400000000000002, -0.024, 0.994, 192.0, 0.0, 0.0, 0.0, 0.0, 0.0, 0.0, 0.0, 0.0, 0.0, 1.677618361938835E9, 0.0, 2023-02-28 16:06:01.938
96.0, 3034.651641208129, 187500.0, 187500.0, 187500.0, -187500.02235174447, -187500.02235174447, -187500.02235174447, -187500.02235174447, 0.17200000000000001, -0.02, 0.994, 192.0, 5.0, 96.0, 255.0, 96.0, 31.0, 16.0, 0.0, 0.0, 0.0, 1.677618361945782E9, 0.0, 2023-02-28 16:06:01.945
97.0, 2190.7838810424664, 187500.0, 187500.0, 187500.0, -187500.02235174447, -187500.02235174447, -187500.02235174447, -187500.02235174447, 0.17200000000000001, -0.02, 0.994, 192.0, 0.0, 0.0, 0.0, 0.0, 0.0, 0.0, 0.0, 0.0, 0.0, 1.6776183619458E9, 0.0, 2023-02-28 16:06:01.945
98.0, 1644.149618643477, 187500.0, 187500.0, 187500.0, -187500.02235174447, -187500.02235174447, -187500.02235174447, -187500.02235174447, 0.17200000000000001, -0.02, 0.994, 192.0, 0.0, 0.0, 0.0, 0.0, 0.0, 0.0, 0.0, 0.0, 0.0, 1.677618361953437E9, 0.0, 2023-02-28 16:06:01.953
99.0, 2775.6619782044863, 187500.0, 187500.0, 187500.0, -187500.02235174447, -187500.02235174447, -187500.02235174447, -187500.02235174447, 0.17200000000000001, -0.02, 0.994, 192.0, 0.0, 0.0, 0.0, 0.0, 0.0, 0.0, 0.0, 0.0, 0.0, 1.677618361953455E9, 0.0, 2023-02-28 16:06:01.953
100.0, 2927.3409160782003, 187500.0, 187500.0, 187500.0, -187500.02235174447, -187500.02235174447, -187500.02235174447, -187500.02235174447, 0.17200000000000001, -0.02, 0.994, 192.0, 0.0, 0.0, 0.0, 0.0, 0.0, 0.0, 0.0, 0.0, 0.0, 1.677618361961445E9, 0.0, 2023-02-28 16:06:01.961
101.0, 2149.768429966978, 187500.0, 187500.0, 187500.0, -187500.02235174447, -187500.02235174447, -187500.02235174447, -187500.02235174447, 0.17200000000000001, -0.02, 0.994, 192.0, 0.0, 0.0, 0.0, 0.0, 0.0, 0.0, 0.0, 0.0, 0.0, 1.677618361961458E9, 0.0, 2023-02-28 16:06:01.961
102.0, 1883.0003598928881, 187500.0, 187500.0, 187500.0, -187500.02235174447, -187500.02235174447, -187500.02235174447, -187500.02235174447, 0.17200000000000001, -0.02, 0.994, 192.0, 0.0, 0.0, 0.0, 0.0, 0.0, 0.0, 0.0, 0.0, 0.0, 1.677618361969454E9, 0.0, 2023-02-28 16:06:01.969
103.0, 2509.1844808083156, 187500.0, 187500.0, 187500.0, -187500.02235174447, -187500.02235174447, -187500.02235174447, -187500.02235174447, 0.17200000000000001, -0.02, 0.994, 192.0, 0.0, 0.0, 0.0, 0.0, 0.0, 0.0, 0.0, 0.0, 0.0, 1.677618361969479E9, 0.0, 2023-02-28 16:06:01.969
104.0, 3301.0844351153896, 187500.0, 187500.0, 187500.0, -187500.02235174447, -187500.02235174447, -187500.02235174447, -187500.02235174447, 0.17200000000000001, -0.02, 0.994, 192.0, 0.0, 0.0, 0.0, 0.0, 0.0, 0.0, 0.0, 0.0, 0.0, 1.677618361975429E9, 0.0, 2023-02-28 16:06:01.975
105.0, 2404.1312818683723, 187500.0, 187500.0, 187500.0, -187500.02235174447, -187500.02235174447, -187500.02235174447, -187500.02235174447, 0.176, -0.018000000000000002, 0.994, 192.0, 5.0, 128.0, 255.0, 112.0, 31.0, 16.0, 0.0, 0.0, 0.0, 1.677618361983023E9, 0.0, 2023-02-28 16:06:01.983
106.0, 1830.4067051895506, 187500.0, 187500.0, 187500.0, -187500.02235174447, -187500.02235174447, -187500.02235174447, -187500.02235174447, 0.176, -0.018000000000000002, 0.994, 192.0, 0.0, 0.0, 0.0, 0.0, 0.0, 0.0, 0.0, 0.0, 0.0, 1.677618361983039E9, 0.0, 2023-02-28 16:06:01.983
107.0, 2178.0657384473966, 187500.0, 187500.0, 187500.0, -187500.02235174447, -187500.02235174447, -187500.02235174447, -187500.02235174447, 0.176, -0.018000000000000002, 0.994, 192.0, 0.0, 0.0, 0.0, 0.0, 0.0, 0.0, 0.0, 0.0, 0.0, 1.677618361991075E9, 0.0, 2023-02-28 16:06:01.991
108.0, 3001.9957425589255, 187500.0, 187500.0, 187500.0, -187500.02235174447, -187500.02235174447, -187500.02235174447, -187500.02235174447, 0.176, -0.018000000000000002, 0.994, 192.0, 0.0, 0.0, 0.0, 0.0, 0.0, 0.0, 0.0, 0.0, 0.0, 1.677618361991091E9, 0.0, 2023-02-28 16:06:01.991
109.0, 2622.396066474446, 187500.0, 187500.0, 187500.0, -187500.02235174447, -187500.02235174447, -187500.02235174447, -187500.02235174447, 0.176, -0.018000000000000002, 0.994, 192.0, 0.0, 0.0, 0.0, 0.0, 0.0, 0.0, 0.0, 0.0, 0.0, 1.67761836199822E9, 0.0, 2023-02-28 16:06:01.998
110.0, 1910.4035985950945, 187500.0, 187500.0, 187500.0, -187500.02235174447, -187500.02235174447, -187500.02235174447, -187500.02235174447, 0.176, -0.018000000000000002, 0.994, 192.0, 0.0, 0.0, 0.0, 0.0, 0.0, 0.0, 0.0, 0.0, 0.0, 1.677618361998233E9, 0.0, 2023-02-28 16:06:01.998
111.0, 2289.958571190664, 187500.0, 187500.0, 187500.0, -187500.02235174447, -187500.02235174447, -187500.02235174447, -187500.02235174447, 0.176, -0.018000000000000002, 0.994, 192.0, 0.0, 0.0, 0.0, 0.0, 0.0, 0.0, 0.0, 0.0, 0.0, 1.677618362005609E9, 0.0, 2023-02-28 16:06:02.005
112.0, 2872.6461973960636, 187500.0, 187500.0, 187500.0, -187500.02235174447, -187500.02235174447, -187500.02235174447, -187500.02235174447, 0.176, -0.018000000000000002, 0.994, 192.0, 0.0, 0.0, 0.0, 0.0, 0.0, 0.0, 0.0, 0.0, 0.0, 1.677618362005624E9, 0.0, 2023-02-28 16:06:02.005
113.0, 2682.9245904594172, 187500.0, 187500.0, 187500.0, -187500.02235174447, -187500.02235174447, -187500.02235174447, -187500.02235174447, 0.176, -0.018000000000000002, 0.994, 192.0, 0.0, 0.0, 0.0, 0.0, 0.0, 0.0, 0.0, 0.0, 0.0, 1.677618362013813E9, 0.0, 2023-02-28 16:06:02.013
114.0, 2490.2749049991257, 187500.0, 187500.0, 187500.0, -187500.02235174447, -187500.02235174447, -187500.02235174447, -187500.02235174447, 0.176, -0.018000000000000002, 0.994, 192.0, 0.0, 0.0, 0.0, 0.0, 0.0, 0.0, 0.0, 0.0, 0.0, 1.677618362013835E9, 0.0, 2023-02-28 16:06:02.013
115.0, 1734.0930383316324, 187500.0, 187500.0, 187500.0, -187500.02235174447, -187500.02235174447, -187500.02235174447, -187500.02235174447, 0.184, -0.016, 0.996, 192.0, 5.0, 192.0, 255.0, 128.0, 31.0, 32.0, 0.0, 0.0, 0.0, 1.67761836202183E9, 0.0, 2023-02-28 16:06:02.021
116.0, 2377.555057711012, 187500.0, 187500.0, 187500.0, -187500.02235174447, -187500.02235174447, -187500.02235174447, -187500.02235174447, 0.184, -0.016, 0.996, 192.0, 0.0, 0.0, 0.0, 0.0, 0.0, 0.0, 0.0, 0.0, 0.0, 1.67761836202185E9, 0.0, 2023-02-28 16:06:02.021
117.0, 2726.845768314096, 187500.0, 187500.0, 187500.0, -187500.02235174447, -187500.02235174447, -187500.02235174447, -187500.02235174447, 0.184, -0.016, 0.996, 192.0, 0.0, 0.0, 0.0, 0.0, 0.0, 0.0, 0.0, 0.0, 0.0, 1.677618362028427E9, 0.0, 2023-02-28 16:06:02.028
118.0, 2156.4963050480255, 187500.0, 187500.0, 187500.0, -187500.02235174447, -187500.02235174447, -187500.02235174447, -187500.02235174447, 0.184, -0.016, 0.996, 192.0, 0.0, 0.0, 0.0, 0.0, 0.0, 0.0, 0.0, 0.0, 0.0, 1.677618362028447E9, 0.0, 2023-02-28 16:06:02.028
119.0, 1971.2003435135298, 187500.0, 187500.0, 187500.0, -187500.02235174447, -187500.02235174447, -187500.02235174447, -187500.02235174447, 0.184, -0.016, 0.996, 192.0, 0.0, 0.0, 0.0, 0.0, 0.0, 0.0, 0.0, 0.0, 0.0, 1.677618362035379E9, 0.0, 2023-02-28 16:06:02.035
120.0, 3021.4864637239534, 187500.0, 187500.0, 187500.0, -187500.02235174447, -187500.02235174447, -187500.02235174447, -187500.02235174447, 0.184, -0.016, 0.996, 192.0, 0.0, 0.0, 0.0, 0.0, 0.0, 0.0, 0.0, 0.0, 0.0, 1.677618362043342E9, 0.0, 2023-02-28 16:06:02.043
121.0, 3991.038082961808, 187500.0, 187500.0, 187500.0, -187500.02235174447, -187500.02235174447, -187500.02235174447, -187500.02235174447, 0.184, -0.016, 0.996, 192.0, 0.0, 0.0, 0.0, 0.0, 0.0, 0.0, 0.0, 0.0, 0.0, 1.677618362043359E9, 0.0, 2023-02-28 16:06:02.043
122.0, 1576.1779637548882, 187500.0, 187500.0, 187500.0, -187500.02235174447, -187500.02235174447, -187500.02235174447, -187500.02235174447, 0.184, -0.016, 0.996, 192.0, 0.0, 0.0, 0.0, 0.0, 0.0, 0.0, 0.0, 0.0, 0.0, 1.677618362051434E9, 0.0, 2023-02-28 16:06:02.051
123.0, 1135.1556939072245, 187500.0, 187500.0, 187500.0, -187500.02235174447, -187500.02235174447, -187500.02235174447, -187500.02235174447, 0.184, -0.016, 0.996, 192.0, 0.0, 0.0, 0.0, 0.0, 0.0, 0.0, 0.0, 0.0, 0.0, 1.677618362051451E9, 0.0, 2023-02-28 16:06:02.051
124.0, 2340.3170514484705, 187500.0, 187500.0, 187500.0, -187500.02235174447, -187500.02235174447, -187500.02235174447, -187500.02235174447, 0.184, -0.016, 0.996, 192.0, 0.0, 0.0, 0.0, 0.0, 0.0, 0.0, 0.0, 0.0, 0.0, 1.67761836205795E9, 0.0, 2023-02-28 16:06:02.057
125.0, 2881.899819600561, 187500.0, 187500.0, 187500.0, -187500.02235174447, -187500.02235174447, -187500.02235174447, -187500.02235174447, 0.178, -0.02, 0.994, 192.0, 5.0, 144.0, 255.0, 96.0, 31.0, 16.0, 0.0, 0.0, 0.0, 1.67761836205797E9, 0.0, 2023-02-28 16:06:02.057
126.0, 2015.1885766015741, 187500.0, 187500.0, 187500.0, -187500.02235174447, -187500.02235174447, -187500.02235174447, -187500.02235174447, 0.178, -0.02, 0.994, 192.0, 0.0, 0.0, 0.0, 0.0, 0.0, 0.0, 0.0, 0.0, 0.0, 1.677618362066013E9, 0.0, 2023-02-28 16:06:02.066
127.0, 1735.791770910236, 187500.0, 187500.0, 187500.0, -187500.02235174447, -187500.02235174447, -187500.02235174447, -187500.02235174447, 0.178, -0.02, 0.994, 192.0, 0.0, 0.0, 0.0, 0.0, 0.0, 0.0, 0.0, 0.0, 0.0, 1.677618362066031E9, 0.0, 2023-02-28 16:06:02.066
128.0, 2344.1168480058727, 187500.0, 187500.0, 187500.0, -187500.02235174447, -187500.02235174447, -187500.02235174447, -187500.02235174447, 0.178, -0.02, 0.994, 192.0, 0.0, 0.0, 0.0, 0.0, 0.0, 0.0, 0.0, 0.0, 0.0, 1.677618362074156E9, 0.0, 2023-02-28 16:06:02.074
129.0, 3049.0685163818025, 187500.0, 187500.0, 187500.0, -187500.02235174447, -187500.02235174447, -187500.02235174447, -187500.02235174447, 0.178, -0.02, 0.994, 192.0, 0.0, 0.0, 0.0, 0.0, 0.0, 0.0, 0.0, 0.0, 0.0, 1.677618362074168E9, 0.0, 2023-02-28 16:06:02.074
130.0, 2998.1288907681574, 187500.0, 187500.0, 187500.0, -187500.02235174447, -187500.02235174447, -187500.02235174447, -187500.02235174447, 0.178, -0.02, 0.994, 192.0, 0.0, 0.0, 0.0, 0.0, 0.0, 0.0, 0.0, 0.0, 0.0, 1.677618362081346E9, 0.0, 2023-02-28 16:06:02.081
131.0, 1926.0498197138095, 187500.0, 187500.0, 187500.0, -187500.02235174447, -187500.02235174447, -187500.02235174447, -187500.02235174447, 0.178, -0.02, 0.994, 192.0, 0.0, 0.0, 0.0, 0.0, 0.0, 0.0, 0.0, 0.0, 0.0, 1.677618362081359E9, 0.0, 2023-02-28 16:06:02.081
132.0, 1962.0137765423985, 187500.0, 187500.0, 187500.0, -187500.02235174447, -187500.02235174447, -187500.02235174447, -187500.02235174447, 0.178, -0.02, 0.994, 192.0, 0.0, 0.0, 0.0, 0.0, 0.0, 0.0, 0.0, 0.0, 0.0, 1.677618362088657E9, 0.0, 2023-02-28 16:06:02.088
133.0, 2660.706956470842, 187500.0, 187500.0, 187500.0, -187500.02235174447, -187500.02235174447, -187500.02235174447, -187500.02235174447, 0.178, -0.02, 0.994, 192.0, 0.0, 0.0, 0.0, 0.0, 0.0, 0.0, 0.0, 0.0, 0.0, 1.67761836208867E9, 0.0, 2023-02-28 16:06:02.088
134.0, 2409.0933691374507, 187500.0, 187500.0, 187500.0, -187500.02235174447, -187500.02235174447, -187500.02235174447, -187500.02235174447, 0.178, -0.02, 0.994, 192.0, 0.0, 0.0, 0.0, 0.0, 0.0, 0.0, 0.0, 0.0, 0.0, 1.677618362095693E9, 0.0, 2023-02-28 16:06:02.095
135.0, 1982.3985674856388, 187500.0, 187500.0, 187500.0, -187500.02235174447, -187500.02235174447, -187500.02235174447, -187500.02235174447, 0.178, -0.018000000000000002, 0.994, 192.0, 5.0, 144.0, 255.0, 112.0, 31.0, 16.0, 0.0, 0.0, 0.0, 1.677618362095705E9, 0.0, 2023-02-28 16:06:02.095
136.0, 2313.986696480119, 187500.0, 187500.0, 187500.0, -187500.02235174447, -187500.02235174447, -187500.02235174447, -187500.02235174447, 0.178, -0.018000000000000002, 0.994, 192.0, 0.0, 0.0, 0.0, 0.0, 0.0, 0.0, 0.0, 0.0, 0.0, 1.677618362103937E9, 0.0, 2023-02-28 16:06:02.103
137.0, 2509.340943019503, 187500.0, 187500.0, 187500.0, -187500.02235174447, -187500.02235174447, -187500.02235174447, -187500.02235174447, 0.178, -0.018000000000000002, 0.994, 192.0, 0.0, 0.0, 0.0, 0.0, 0.0, 0.0, 0.0, 0.0, 0.0, 1.677618362110865E9, 0.0, 2023-02-28 16:06:02.110
138.0, 2482.988236306696, 187500.0, 187500.0, 187500.0, -187500.02235174447, -187500.02235174447, -187500.02235174447, -187500.02235174447, 0.178, -0.018000000000000002, 0.994, 192.0, 0.0, 0.0, 0.0, 0.0, 0.0, 0.0, 0.0, 0.0, 0.0, 1.677618362110887E9, 0.0, 2023-02-28 16:06:02.110
139.0, 1767.5535997812271, 187500.0, 187500.0, 187500.0, -187500.02235174447, -187500.02235174447, -187500.02235174447, -187500.02235174447, 0.178, -0.018000000000000002, 0.994, 192.0, 0.0, 0.0, 0.0, 0.0, 0.0, 0.0, 0.0, 0.0, 0.0, 1.677618362118391E9, 0.0, 2023-02-28 16:06:02.118
140.0, 1833.8041703467572, 187500.0, 187500.0, 187500.0, -187500.02235174447, -187500.02235174447, -187500.02235174447, -187500.02235174447, 0.178, -0.018000000000000002, 0.994, 192.0, 0.0, 0.0, 0.0, 0.0, 0.0, 0.0, 0.0, 0.0, 0.0, 1.67761836211841E9, 0.0, 2023-02-28 16:06:02.118
141.0, 2840.7279063138853, 187500.0, 187500.0, 187500.0, -187500.02235174447, -187500.02235174447, -187500.02235174447, -187500.02235174447, 0.178, -0.018000000000000002, 0.994, 192.0, 0.0, 0.0, 0.0, 0.0, 0.0, 0.0, 0.0, 0.0, 0.0, 1.677618362126335E9, 0.0, 2023-02-28 16:06:02.126
142.0, 3177.9263231666478, 187500.0, 187500.0, 187500.0, -187500.02235174447, -187500.02235174447, -187500.02235174447, -187500.02235174447, 0.178, -0.018000000000000002, 0.994, 192.0, 0.0, 0.0, 0.0, 0.0, 0.0, 0.0, 0.0, 0.0, 0.0, 1.677618362126353E9, 0.0, 2023-02-28 16:06:02.126
143.0, 1979.8951721066444, 187500.0, 187500.0, 187500.0, -187500.02235174447, -187500.02235174447, -187500.02235174447, -187500.02235174447, 0.178, -0.018000000000000002, 0.994, 192.0, 0.0, 0.0, 0.0, 0.0, 0.0, 0.0, 0.0, 0.0, 0.0, 1.677618362134536E9, 0.0, 2023-02-28 16:06:02.134
144.0, 1826.6963156099696, 187500.0, 187500.0, 187500.0, -187500.02235174447, -187500.02235174447, -187500.02235174447, -187500.02235174447, 0.178, -0.018000000000000002, 0.994, 192.0, 0.0, 0.0, 0.0, 0.0, 0.0, 0.0, 0.0, 0.0, 0.0, 1.67761836213455E9, 0.0, 2023-02-28 16:06:02.134
145.0, 2394.6094387304115, 187500.0, 187500.0, 187500.0, -187500.02235174447, -187500.02235174447, -187500.02235174447, -187500.02235174447, 0.178, -0.018000000000000002, 0.996, 192.0, 5.0, 144.0, 255.0, 112.0, 31.0, 32.0, 0.0, 0.0, 0.0, 1.677618362140871E9, 0.0, 2023-02-28 16:06:02.140
146.0, 2963.059003717781, 187500.0, 187500.0, 187500.0, -187500.02235174447, -187500.02235174447, -187500.02235174447, -187500.02235174447, 0.178, -0.018000000000000002, 0.996, 192.0, 0.0, 0.0, 0.0, 0.0, 0.0, 0.0, 0.0, 0.0, 0.0, 1.677618362140888E9, 0.0, 2023-02-28 16:06:02.140
147.0, 2287.5445827894905, 187500.0, 187500.0, 187500.0, -187500.02235174447, -187500.02235174447, -187500.02235174447, -187500.02235174447, 0.178, -0.018000000000000002, 0.996, 192.0, 0.0, 0.0, 0.0, 0.0, 0.0, 0.0, 0.0, 0.0, 0.0, 1.677618362148965E9, 0.0, 2023-02-28 16:06:02.148
148.0, 1784.652684289537, 187500.0, 187500.0, 187500.0, -187500.02235174447, -187500.02235174447, -187500.02235174447, -187500.02235174447, 0.178, -0.018000000000000002, 0.996, 192.0, 0.0, 0.0, 0.0, 0.0, 0.0, 0.0, 0.0, 0.0, 0.0, 1.677618362148986E9, 0.0, 2023-02-28 16:06:02.148
149.0, 2461.977596518707, 187500.0, 187500.0, 187500.0, -187500.02235174447, -187500.02235174447, -187500.02235174447, -187500.02235174447, 0.178, -0.018000000000000002, 0.996, 192.0, 0.0, 0.0, 0.0, 0.0, 0.0, 0.0, 0.0, 0.0, 0.0, 1.677618362156983E9, 0.0, 2023-02-28 16:06:02.156
150.0, 2923.183491609513, 187500.0, 187500.0, 187500.0, -187500.02235174447, -187500.02235174447, -187500.02235174447, -187500.02235174447, 0.178, -0.018000000000000002, 0.996, 192.0, 0.0, 0.0, 0.0, 0.0, 0.0, 0.0, 0.0, 0.0, 0.0, 1.677618362156999E9, 0.0, 2023-02-28 16:06:02.156
151.0, 2246.4173729917256, 187500.0, 187500.0, 187500.0, -187500.02235174447, -187500.02235174447, -187500.02235174447, -187500.02235174447, 0.178, -0.018000000000000002, 0.996, 192.0, 0.0, 0.0, 0.0, 0.0, 0.0, 0.0, 0.0, 0.0, 0.0, 1.677618362163153E9, 0.0, 2023-02-28 16:06:02.163
152.0, 1729.6003376961157, 187500.0, 187500.0, 187500.0, -187500.02235174447, -187500.02235174447, -187500.02235174447, -187500.02235174447, 0.178, -0.018000000000000002, 0.996, 192.0, 0.0, 0.0, 0.0, 0.0, 0.0, 0.0, 0.0, 0.0, 0.0, 1.677618362170602E9, 0.0, 2023-02-28 16:06:02.170
153.0, 2038.4120390906382, 187500.0, 187500.0, 187500.0, -187500.02235174447, -187500.02235174447, -187500.02235174447, -187500.02235174447, 0.178, -0.018000000000000002, 0.996, 192.0, 0.0, 0.0, 0.0, 0.0, 0.0, 0.0, 0.0, 0.0, 0.0, 1.677618362170618E9, 0.0, 2023-02-28 16:06:02.170
154.0, 2997.3912832011324, 187500.0, 187500.0, 187500.0, -187500.02235174447, -187500.02235174447, -187500.02235174447, -187500.02235174447, 0.178, -0.018000000000000002, 0.996, 192.0, 0.0, 0.0, 0.0, 0.0, 0.0, 0.0, 0.0, 0.0, 0.0, 1.677618362178522E9, 0.0, 2023-02-28 16:06:02.178
155.0, 2453.461581881235, 187500.0, 187500.0, 187500.0, -187500.02235174447, -187500.02235174447, -187500.02235174447, -187500.02235174447, 0.178, -0.02, 0.992, 192.0, 5.0, 144.0, 255.0, 96.0, 31.0, 0.0, 0.0, 0.0, 0.0, 1.677618362178535E9, 0.0, 2023-02-28 16:06:02.178
156.0, 2043.9552717155543, 187500.0, 187500.0, 187500.0, -187500.02235174447, -187500.02235174447, -187500.02235174447, -187500.02235174447, 0.178, -0.02, 0.992, 192.0, 0.0, 0.0, 0.0, 0.0, 0.0, 0.0, 0.0, 0.0, 0.0, 1.677618362186553E9, 0.0, 2023-02-28 16:06:02.186
157.0, 2070.5314958729145, 187500.0, 187500.0, 187500.0, -187500.02235174447, -187500.02235174447, -187500.02235174447, -187500.02235174447, 0.178, -0.02, 0.992, 192.0, 0.0, 0.0, 0.0, 0.0, 0.0, 0.0, 0.0, 0.0, 0.0, 1.677618362186573E9, 0.0, 2023-02-28 16:06:02.186
158.0, 2664.037366394683, 187500.0, 187500.0, 187500.0, -187500.02235174447, -187500.02235174447, -187500.02235174447, -187500.02235174447, 0.178, -0.02, 0.992, 192.0, 0.0, 0.0, 0.0, 0.0, 0.0, 0.0, 0.0, 0.0, 0.0, 1.677618362193145E9, 0.0, 2023-02-28 16:06:02.193
159.0, 2435.8037037615422, 187500.0, 187500.0, 187500.0, -187500.02235174447, -187500.02235174447, -187500.02235174447, -187500.02235174447, 0.178, -0.02, 0.992, 192.0, 0.0, 0.0, 0.0, 0.0, 0.0, 0.0, 0.0, 0.0, 0.0, 1.677618362193166E9, 0.0, 2023-02-28 16:06:02.193
160.0, 1782.2610476328193, 187500.0, 187500.0, 187500.0, -187500.02235174447, -187500.02235174447, -187500.02235174447, -187500.02235174447, 0.178, -0.02, 0.992, 192.0, 0.0, 0.0, 0.0, 0.0, 0.0, 0.0, 0.0, 0.0, 0.0, 1.67761836220124E9, 0.0, 2023-02-28 16:06:02.201
161.0, 2320.625164583345, 187500.0, 187500.0, 187500.0, -187500.02235174447, -187500.02235174447, -187500.02235174447, -187500.02235174447, 0.178, -0.02, 0.992, 192.0, 0.0, 0.0, 0.0, 0.0, 0.0, 0.0, 0.0, 0.0, 0.0, 1.677618362201255E9, 0.0, 2023-02-28 16:06:02.201
162.0, 2662.6292064939985, 187500.0, 187500.0, 187500.0, -187500.02235174447, -187500.02235174447, -187500.02235174447, -187500.02235174447, 0.178, -0.02, 0.992, 192.0, 0.0, 0.0, 0.0, 0.0, 0.0, 0.0, 0.0, 0.0, 0.0, 1.677618362209544E9, 0.0, 2023-02-28 16:06:02.209
163.0, 2527.0882281170166, 187500.0, 187500.0, 187500.0, -187500.02235174447, -187500.02235174447, -187500.02235174447, -187500.02235174447, 0.178, -0.02, 0.992, 192.0, 0.0, 0.0, 0.0, 0.0, 0.0, 0.0, 0.0, 0.0, 0.0, 1.67761836220956E9, 0.0, 2023-02-28 16:06:02.209
164.0, 1776.7625184968138, 187500.0, 187500.0, 187500.0, -187500.02235174447, -187500.02235174447, -187500.02235174447, -187500.02235174447, 0.17400000000000002, -0.02, 0.992, 192.0, 5.0, 112.0, 255.0, 96.0, 31.0, 0.0, 0.0, 0.0, 0.0, 1.677618362216314E9, 0.0, 2023-02-28 16:06:02.216
165.0, 1912.3034968737957, 187500.0, 187500.0, 187500.0, -187500.02235174447, -187500.02235174447, -187500.02235174447, -187500.02235174447, 0.17400000000000002, -0.02, 0.992, 192.0, 0.0, 0.0, 0.0, 0.0, 0.0, 0.0, 0.0, 0.0, 0.0, 1.677618362216327E9, 0.0, 2023-02-28 16:06:02.216
166.0, 2685.0927096715823, 187500.0, 187500.0, 187500.0, -187500.02235174447, -187500.02235174447, -187500.02235174447, -187500.02235174447, 0.17400000000000002, -0.02, 0.992, 192.0, 0.0, 0.0, 0.0, 0.0, 0.0, 0.0, 0.0, 0.0, 0.0, 1.677618362222815E9, 0.0, 2023-02-28 16:06:02.222
167.0, 2705.2763349147244, 187500.0, 187500.0, 187500.0, -187500.02235174447, -187500.02235174447, -187500.02235174447, -187500.02235174447, 0.17400000000000002, -0.02, 0.992, 192.0, 0.0, 0.0, 0.0, 0.0, 0.0, 0.0, 0.0, 0.0, 0.0, 1.677618362231057E9, 0.0, 2023-02-28 16:06:02.231
168.0, 2100.929868332132, 187500.0, 187500.0, 187500.0, -187500.02235174447, -187500.02235174447, -187500.02235174447, -187500.02235174447, 0.17400000000000002, -0.02, 0.992, 192.0, 0.0, 0.0, 0.0, 0.0, 0.0, 0.0, 0.0, 0.0, 0.0, 1.677618362231082E9, 0.0, 2023-02-28 16:06:02.231
169.0, 2036.73565825649, 187500.0, 187500.0, 187500.0, -187500.02235174447, -187500.02235174447, -187500.02235174447, -187500.02235174447, 0.17400000000000002, -0.02, 0.992, 192.0, 0.0, 0.0, 0.0, 0.0, 0.0, 0.0, 0.0, 0.0, 0.0, 1.677618362238865E9, 0.0, 2023-02-28 16:06:02.238
170.0, 2284.080062398918, 187500.0, 187500.0, 187500.0, -187500.02235174447, -187500.02235174447, -187500.02235174447, -187500.02235174447, 0.17400000000000002, -0.02, 0.992, 192.0, 0.0, 0.0, 0.0, 0.0, 0.0, 0.0, 0.0, 0.0, 0.0, 1.677618362238882E9, 0.0, 2023-02-28 16:06:02.238
171.0, 2823.5170630832986, 187500.0, 187500.0, 187500.0, -187500.02235174447, -187500.02235174447, -187500.02235174447, -187500.02235174447, 0.17400000000000002, -0.02, 0.992, 192.0, 0.0, 0.0, 0.0, 0.0, 0.0, 0.0, 0.0, 0.0, 0.0, 1.677618362245863E9, 0.0, 2023-02-28 16:06:02.245
172.0, 2475.656864125355, 187500.0, 187500.0, 187500.0, -187500.02235174447, -187500.02235174447, -187500.02235174447, -187500.02235174447, 0.17400000000000002, -0.02, 0.992, 192.0, 0.0, 0.0, 0.0, 0.0, 0.0, 0.0, 0.0, 0.0, 0.0, 1.677618362245876E9, 0.0, 2023-02-28 16:06:02.245
173.0, 1395.5535168115518, 187500.0, 187500.0, 187500.0, -187500.02235174447, -187500.02235174447, -187500.02235174447, -187500.02235174447, 0.17400000000000002, -0.02, 0.992, 192.0, 0.0, 0.0, 0.0, 0.0, 0.0, 0.0, 0.0, 0.0, 0.0, 1.67761836225344E9, 0.0, 2023-02-28 16:06:02.253
174.0, 2136.290328060428, 187500.0, 187500.0, 187500.0, -187500.02235174447, -187500.02235174447, -187500.02235174447, -187500.02235174447, 0.178, -0.022, 0.99, 192.0, 5.0, 144.0, 255.0, 80.0, 30.0, 240.0, 0.0, 0.0, 0.0, 1.677618362253452E9, 0.0, 2023-02-28 16:06:02.253
175.0, 2925.016334654848, 187500.0, 187500.0, 187500.0, -187500.02235174447, -187500.02235174447, -187500.02235174447, -187500.02235174447, 0.178, -0.022, 0.99, 192.0, 0.0, 0.0, 0.0, 0.0, 0.0, 0.0, 0.0, 0.0, 0.0, 1.677618362261411E9, 0.0, 2023-02-28 16:06:02.261
176.0, 2345.0556212729957, 187500.0, 187500.0, 187500.0, -187500.02235174447, -187500.02235174447, -187500.02235174447, -187500.02235174447, 0.178, -0.022, 0.99, 192.0, 0.0, 0.0, 0.0, 0.0, 0.0, 0.0, 0.0, 0.0, 0.0, 1.677618362261423E9, 0.0, 2023-02-28 16:06:02.261
