%OpenBCI Raw EEG Data
%Number of channels = 8
%Sample Rate = 250 Hz
%Board = OpenBCI_GUI$BoardCytonSerial
Sample Index, EXG Channel 0, EXG Channel 1, EXG Channel 2, EXG Channel 3, EXG Channel 4, EXG Channel 5, EXG Channel 6, EXG Channel 7, Accel Channel 0, Accel Channel 1, Accel Channel 2, Other, Other, Other, Other, Other, Other, Other, Analog Channel 0, Analog Channel 1, Analog Channel 2, Timestamp, Other, Timestamp (Formatted)
225.0, 7460.073525914375, 187500.0, 187500.0, -187500.02235174447, -187500.02235174447, -187500.02235174447, -187500.02235174447, -187500.02235174447, 0.0, 0.0, 0.0, 192.0, 0.0, 0.0, 0.0, 0.0, 0.0, 0.0, 0.0, 0.0, 0.0, 1.67597555800252E9, 0.0, 2023-02-09 15:45:58.002
226.0, 7471.338805119849, 187500.0, 187500.0, -187500.02235174447, -187500.02235174447, -187500.02235174447, -187500.02235174447, -187500.02235174447, 0.0, 0.0, 0.0, 192.0, 0.0, 0.0, 0.0, 0.0, 0.0, 0.0, 0.0, 0.0, 0.0, 1.675975558002539E9, 0.0, 2023-02-09 15:45:58.002
227.0, 7461.168761392684, 187500.0, 187500.0, -187500.02235174447, -187500.02235174447, -187500.02235174447, -187500.02235174447, -187500.02235174447, 0.0, 0.0, 0.0, 192.0, 0.0, 0.0, 0.0, 0.0, 0.0, 0.0, 0.0, 0.0, 0.0, 1.675975558002549E9, 0.0, 2023-02-09 15:45:58.002
228.0, 7421.539118473425, 187500.0, 187500.0, -187500.02235174447, -187500.02235174447, -187500.02235174447, -187500.02235174447, -187500.02235174447, 0.0, 0.0, 0.0, 192.0, 0.0, 0.0, 0.0, 0.0, 0.0, 0.0, 0.0, 0.0, 0.0, 1.675975558002558E9, 0.0, 2023-02-09 15:45:58.002
229.0, 7491.477726874081, 187500.0, 187500.0, -187500.02235174447, -187500.02235174447, -187500.02235174447, -187500.02235174447, -187500.02235174447, 0.0, 0.0, 0.0, 192.0, 0.0, 0.0, 0.0, 0.0, 0.0, 0.0, 0.0, 0.0, 0.0, 1.675975558002567E9, 0.0, 2023-02-09 15:45:58.002
0.0, 0.0, 0.0, 0.0, 0.0, 0.0, 0.0, 0.0, 0.0, 0.0, 0.0, 0.0, 192.0, 0.0, 0.0, 0.0, 0.0, 0.0, 0.0, 0.0, 0.0, 0.0, 1.675975558076879E9, 0.0, 2023-02-09 15:45:58.076
1.0, 6022.878709182586, 187500.0, 187500.0, -187500.02235174447, -187500.02235174447, -187500.02235174447, -187500.02235174447, -187500.02235174447, 0.014, 0.056, 0.994, 192.0, 0.0, 112.0, 1.0, 192.0, 31.0, 16.0, 0.0, 0.0, 0.0, 1.675975558093004E9, 0.0, 2023-02-09 15:45:58.093
2.0, 6216.042484765349, 187500.0, 187500.0, -187500.02235174447, -187500.02235174447, -187500.02235174447, -187500.02235174447, -187500.02235174447, 0.014, 0.056, 0.994, 192.0, 0.0, 0.0, 0.0, 0.0, 0.0, 0.0, 0.0, 0.0, 0.0, 1.675975558099018E9, 0.0, 2023-02-09 15:45:58.099
3.0, 5884.007320881763, 187500.0, 187500.0, -187500.02235174447, -187500.02235174447, -187500.02235174447, -187500.02235174447, -187500.02235174447, 0.014, 0.056, 0.994, 192.0, 0.0, 0.0, 0.0, 0.0, 0.0, 0.0, 0.0, 0.0, 0.0, 1.675975558099048E9, 0.0, 2023-02-09 15:45:58.099
4.0, 5628.772750946611, 187500.0, 187500.0, -187500.02235174447, -187500.02235174447, -187500.02235174447, -187500.02235174447, -187500.02235174447, 0.014, 0.056, 0.994, 192.0, 0.0, 0.0, 0.0, 0.0, 0.0, 0.0, 0.0, 0.0, 0.0, 1.675975558106949E9, 0.0, 2023-02-09 15:45:58.106
5.0, 6487.794993852973, 187500.0, 187500.0, -187500.02235174447, -187500.02235174447, -187500.02235174447, -187500.02235174447, -187500.02235174447, 0.014, 0.056, 0.994, 192.0, 0.0, 0.0, 0.0, 0.0, 0.0, 0.0, 0.0, 0.0, 0.0, 1.675975558106968E9, 0.0, 2023-02-09 15:45:58.106
6.0, 6956.2875576362085, 187500.0, 187500.0, -187500.02235174447, -187500.02235174447, -187500.02235174447, -187500.02235174447, -187500.02235174447, 0.014, 0.056, 0.994, 192.0, 0.0, 0.0, 0.0, 0.0, 0.0, 0.0, 0.0, 0.0, 0.0, 1.675975558114977E9, 0.0, 2023-02-09 15:45:58.114
7.0, 5399.466204579617, 187500.0, 187500.0, -187500.02235174447, -187500.02235174447, -187500.02235174447, -187500.02235174447, -187500.02235174447, 0.014, 0.056, 0.994, 192.0, 0.0, 0.0, 0.0, 0.0, 0.0, 0.0, 0.0, 0.0, 0.0, 1.675975558114997E9, 0.0, 2023-02-09 15:45:58.114
8.0, 5284.913514246168, 187500.0, 187500.0, -187500.02235174447, -187500.02235174447, -187500.02235174447, -187500.02235174447, -187500.02235174447, 0.018000000000000002, 0.054, 0.992, 192.0, 0.0, 144.0, 1.0, 176.0, 31.0, 0.0, 0.0, 0.0, 0.0, 1.67597555812116E9, 0.0, 2023-02-09 15:45:58.121
9.0, 5724.7511416377, 187500.0, 187500.0, -187500.02235174447, -187500.02235174447, -187500.02235174447, -187500.02235174447, -187500.02235174447, 0.018000000000000002, 0.054, 0.992, 192.0, 0.0, 0.0, 0.0, 0.0, 0.0, 0.0, 0.0, 0.0, 0.0, 1.675975558128458E9, 0.0, 2023-02-09 15:45:58.128
10.0, 5859.800381636665, 187500.0, 187500.0, -187500.02235174447, -187500.02235174447, -187500.02235174447, -187500.02235174447, -187500.02235174447, 0.018000000000000002, 0.054, 0.992, 192.0, 0.0, 0.0, 0.0, 0.0, 0.0, 0.0, 0.0, 0.0, 0.0, 1.675975558128476E9, 0.0, 2023-02-09 15:45:58.128
11.0, 5969.569798656678, 187500.0, 187500.0, -187500.02235174447, -187500.02235174447, -187500.02235174447, -187500.02235174447, -187500.02235174447, 0.018000000000000002, 0.054, 0.992, 192.0, 0.0, 0.0, 0.0, 0.0, 0.0, 0.0, 0.0, 0.0, 0.0, 1.675975558136642E9, 0.0, 2023-02-09 15:45:58.136
12.0, 6067.626901582111, 187500.0, 187500.0, -187500.02235174447, -187500.02235174447, -187500.02235174447, -187500.02235174447, -187500.02235174447, 0.018000000000000002, 0.054, 0.992, 192.0, 0.0, 0.0, 0.0, 0.0, 0.0, 0.0, 0.0, 0.0, 0.0, 1.675975558136675E9, 0.0, 2023-02-09 15:45:58.136
13.0, 6250.531226459888, 187500.0, 187500.0, -187500.02235174447, -187500.02235174447, -187500.02235174447, -187500.02235174447, -187500.02235174447, 0.018000000000000002, 0.054, 0.992, 192.0, 0.0, 0.0, 0.0, 0.0, 0.0, 0.0, 0.0, 0.0, 0.0, 1.67597555814386E9, 0.0, 2023-02-09 15:45:58.143
14.0, 6632.567242689996, 187500.0, 187500.0, -187500.02235174447, -187500.02235174447, -187500.02235174447, -187500.02235174447, -187500.02235174447, 0.018000000000000002, 0.054, 0.992, 192.0, 0.0, 0.0, 0.0, 0.0, 0.0, 0.0, 0.0, 0.0, 0.0, 1.675975558143883E9, 0.0, 2023-02-09 15:45:58.143
15.0, 6956.801647758681, 187500.0, 187500.0, -187500.02235174447, -187500.02235174447, -187500.02235174447, -187500.02235174447, -187500.02235174447, 0.018000000000000002, 0.054, 0.992, 192.0, 0.0, 0.0, 0.0, 0.0, 0.0, 0.0, 0.0, 0.0, 0.0, 1.675975558151268E9, 0.0, 2023-02-09 15:45:58.151
16.0, 6203.391397403646, 187500.0, 187500.0, -187500.02235174447, -187500.02235174447, -187500.02235174447, -187500.02235174447, -187500.02235174447, 0.018000000000000002, 0.054, 0.992, 192.0, 0.0, 0.0, 0.0, 0.0, 0.0, 0.0, 0.0, 0.0, 0.0, 1.675975558151283E9, 0.0, 2023-02-09 15:45:58.151
17.0, 5475.998577594588, 187500.0, 187500.0, -187500.02235174447, -187500.02235174447, -187500.02235174447, -187500.02235174447, -187500.02235174447, 0.024, 0.05, 0.992, 192.0, 0.0, 192.0, 1.0, 144.0, 31.0, 0.0, 0.0, 0.0, 0.0, 1.675975558159169E9, 0.0, 2023-02-09 15:45:58.159
18.0, 5870.551570719668, 187500.0, 187500.0, -187500.02235174447, -187500.02235174447, -187500.02235174447, -187500.02235174447, -187500.02235174447, 0.024, 0.05, 0.992, 192.0, 0.0, 0.0, 0.0, 0.0, 0.0, 0.0, 0.0, 0.0, 0.0, 1.675975558159263E9, 0.0, 2023-02-09 15:45:58.159
19.0, 5943.08298147714, 187500.0, 187500.0, -187500.02235174447, -187500.02235174447, -187500.02235174447, -187500.02235174447, -187500.02235174447, 0.024, 0.05, 0.992, 192.0, 0.0, 0.0, 0.0, 0.0, 0.0, 0.0, 0.0, 0.0, 0.0, 1.675975558167306E9, 0.0, 2023-02-09 15:45:58.167
20.0, 6409.563888259398, 187500.0, 187500.0, -187500.02235174447, -187500.02235174447, -187500.02235174447, -187500.02235174447, -187500.02235174447, 0.024, 0.05, 0.992, 192.0, 0.0, 0.0, 0.0, 0.0, 0.0, 0.0, 0.0, 0.0, 0.0, 1.675975558167324E9, 0.0, 2023-02-09 15:45:58.167
21.0, 6770.76807865716, 187500.0, 187500.0, -187500.02235174447, -187500.02235174447, -187500.02235174447, -187500.02235174447, -187500.02235174447, 0.024, 0.05, 0.992, 192.0, 0.0, 0.0, 0.0, 0.0, 0.0, 0.0, 0.0, 0.0, 0.0, 1.675975558173927E9, 0.0, 2023-02-09 15:45:58.173
22.0, 6436.117760672303, 187500.0, 187500.0, -187500.02235174447, -187500.02235174447, -187500.02235174447, -187500.02235174447, -187500.02235174447, 0.024, 0.05, 0.992, 192.0, 0.0, 0.0, 0.0, 0.0, 0.0, 0.0, 0.0, 0.0, 0.0, 1.675975558173938E9, 0.0, 2023-02-09 15:45:58.173
23.0, 6408.334542314356, 187500.0, 187500.0, -187500.02235174447, -187500.02235174447, -187500.02235174447, -187500.02235174447, -187500.02235174447, 0.024, 0.05, 0.992, 192.0, 0.0, 0.0, 0.0, 0.0, 0.0, 0.0, 0.0, 0.0, 0.0, 1.675975558180963E9, 0.0, 2023-02-09 15:45:58.180
24.0, 5339.451770717117, 187500.0, 187500.0, -187500.02235174447, -187500.02235174447, -187500.02235174447, -187500.02235174447, -187500.02235174447, 0.024, 0.05, 0.992, 192.0, 0.0, 0.0, 0.0, 0.0, 0.0, 0.0, 0.0, 0.0, 0.0, 1.675975558189021E9, 0.0, 2023-02-09 15:45:58.189
25.0, 5590.752433628134, 187500.0, 187500.0, -187500.02235174447, -187500.02235174447, -187500.02235174447, -187500.02235174447, -187500.02235174447, 0.024, 0.05, 0.992, 192.0, 0.0, 0.0, 0.0, 0.0, 0.0, 0.0, 0.0, 0.0, 0.0, 1.675975558189043E9, 0.0, 2023-02-09 15:45:58.189
26.0, 6488.577304908908, 187500.0, 187500.0, -187500.02235174447, -187500.02235174447, -187500.02235174447, -187500.02235174447, -187500.02235174447, 0.024, 0.05, 0.992, 192.0, 0.0, 0.0, 0.0, 0.0, 0.0, 0.0, 0.0, 0.0, 0.0, 1.675975558197025E9, 0.0, 2023-02-09 15:45:58.197
27.0, 6864.064260013612, 187500.0, 187500.0, -187500.02235174447, -187500.02235174447, -187500.02235174447, -187500.02235174447, -187500.02235174447, 0.02, 0.054, 0.994, 192.0, 0.0, 160.0, 1.0, 176.0, 31.0, 16.0, 0.0, 0.0, 0.0, 1.675975558197037E9, 0.0, 2023-02-09 15:45:58.197
28.0, 6511.711360420151, 187500.0, 187500.0, -187500.02235174447, -187500.02235174447, -187500.02235174447, -187500.02235174447, -187500.02235174447, 0.02, 0.054, 0.994, 192.0, 0.0, 0.0, 0.0, 0.0, 0.0, 0.0, 0.0, 0.0, 0.0, 1.675975558203697E9, 0.0, 2023-02-09 15:45:58.203
29.0, 6774.031433347635, 187500.0, 187500.0, -187500.02235174447, -187500.02235174447, -187500.02235174447, -187500.02235174447, -187500.02235174447, 0.02, 0.054, 0.994, 192.0, 0.0, 0.0, 0.0, 0.0, 0.0, 0.0, 0.0, 0.0, 0.0, 1.675975558203713E9, 0.0, 2023-02-09 15:45:58.203
30.0, 5450.785809849001, 187500.0, 187500.0, -187500.02235174447, -187500.02235174447, -187500.02235174447, -187500.02235174447, -187500.02235174447, 0.02, 0.054, 0.994, 192.0, 0.0, 0.0, 0.0, 0.0, 0.0, 0.0, 0.0, 0.0, 0.0, 1.675975558211578E9, 0.0, 2023-02-09 15:45:58.211
31.0, 5158.424992373585, 187500.0, 187500.0, -187500.02235174447, -187500.02235174447, -187500.02235174447, -187500.02235174447, -187500.02235174447, 0.02, 0.054, 0.994, 192.0, 0.0, 0.0, 0.0, 0.0, 0.0, 0.0, 0.0, 0.0, 0.0, 1.675975558211597E9, 0.0, 2023-02-09 15:45:58.211
32.0, 5692.676388344335, 187500.0, 187500.0, -187500.02235174447, -187500.02235174447, -187500.02235174447, -187500.02235174447, -187500.02235174447, 0.02, 0.054, 0.994, 192.0, 0.0, 0.0, 0.0, 0.0, 0.0, 0.0, 0.0, 0.0, 0.0, 1.675975558219593E9, 0.0, 2023-02-09 15:45:58.219
33.0, 6250.084191570782, 187500.0, 187500.0, -187500.02235174447, -187500.02235174447, -187500.02235174447, -187500.02235174447, -187500.02235174447, 0.02, 0.054, 0.994, 192.0, 0.0, 0.0, 0.0, 0.0, 0.0, 0.0, 0.0, 0.0, 0.0, 1.675975558219621E9, 0.0, 2023-02-09 15:45:58.219
34.0, 6123.014524342361, 187500.0, 187500.0, -187500.02235174447, -187500.02235174447, -187500.02235174447, -187500.02235174447, -187500.02235174447, 0.02, 0.054, 0.994, 192.0, 0.0, 0.0, 0.0, 0.0, 0.0, 0.0, 0.0, 0.0, 0.0, 1.675975558226601E9, 0.0, 2023-02-09 15:45:58.226
35.0, 5917.5572893091785, 187500.0, 187500.0, -187500.02235174447, -187500.02235174447, -187500.02235174447, -187500.02235174447, -187500.02235174447, 0.02, 0.054, 0.994, 192.0, 0.0, 0.0, 0.0, 0.0, 0.0, 0.0, 0.0, 0.0, 0.0, 1.675975558226622E9, 0.0, 2023-02-09 15:45:58.226
36.0, 6199.904525268617, 187500.0, 187500.0, -187500.02235174447, -187500.02235174447, -187500.02235174447, -187500.02235174447, -187500.02235174447, 0.02, 0.054, 0.994, 192.0, 0.0, 0.0, 0.0, 0.0, 0.0, 0.0, 0.0, 0.0, 0.0, 1.675975558234052E9, 0.0, 2023-02-09 15:45:58.234
37.0, 6080.747375577375, 187500.0, 187500.0, -187500.02235174447, -187500.02235174447, -187500.02235174447, -187500.02235174447, -187500.02235174447, 0.014, 0.052000000000000005, 0.996, 192.0, 0.0, 112.0, 1.0, 160.0, 31.0, 32.0, 0.0, 0.0, 0.0, 1.675975558234072E9, 0.0, 2023-02-09 15:45:58.234
38.0, 5779.043528919641, 187500.0, 187500.0, -187500.02235174447, -187500.02235174447, -187500.02235174447, -187500.02235174447, -187500.02235174447, 0.014, 0.052000000000000005, 0.996, 192.0, 0.0, 0.0, 0.0, 0.0, 0.0, 0.0, 0.0, 0.0, 0.0, 1.675975558241116E9, 0.0, 2023-02-09 15:45:58.241
39.0, 6015.793206190254, 187500.0, 187500.0, -187500.02235174447, -187500.02235174447, -187500.02235174447, -187500.02235174447, -187500.02235174447, 0.014, 0.052000000000000005, 0.996, 192.0, 0.0, 0.0, 0.0, 0.0, 0.0, 0.0, 0.0, 0.0, 0.0, 1.675975558249225E9, 0.0, 2023-02-09 15:45:58.249
40.0, 6312.19968941208, 187500.0, 187500.0, -187500.02235174447, -187500.02235174447, -187500.02235174447, -187500.02235174447, -187500.02235174447, 0.014, 0.052000000000000005, 0.996, 192.0, 0.0, 0.0, 0.0, 0.0, 0.0, 0.0, 0.0, 0.0, 0.0, 1.675975558249249E9, 0.0, 2023-02-09 15:45:58.249
41.0, 6189.533315841355, 187500.0, 187500.0, -187500.02235174447, -187500.02235174447, -187500.02235174447, -187500.02235174447, -187500.02235174447, 0.014, 0.052000000000000005, 0.996, 192.0, 0.0, 0.0, 0.0, 0.0, 0.0, 0.0, 0.0, 0.0, 0.0, 1.675975558256215E9, 0.0, 2023-02-09 15:45:58.256
42.0, 6988.295255696208, 187500.0, 187500.0, -187500.02235174447, -187500.02235174447, -187500.02235174447, -187500.02235174447, -187500.02235174447, 0.014, 0.052000000000000005, 0.996, 192.0, 0.0, 0.0, 0.0, 0.0, 0.0, 0.0, 0.0, 0.0, 0.0, 1.675975558256241E9, 0.0, 2023-02-09 15:45:58.256
43.0, 6283.634159998198, 187500.0, 187500.0, -187500.02235174447, -187500.02235174447, -187500.02235174447, -187500.02235174447, -187500.02235174447, 0.014, 0.052000000000000005, 0.996, 192.0, 0.0, 0.0, 0.0, 0.0, 0.0, 0.0, 0.0, 0.0, 0.0, 1.675975558263825E9, 0.0, 2023-02-09 15:45:58.263
44.0, 5616.434588007282, 187500.0, 187500.0, -187500.02235174447, -187500.02235174447, -187500.02235174447, -187500.02235174447, -187500.02235174447, 0.014, 0.052000000000000005, 0.996, 192.0, 0.0, 0.0, 0.0, 0.0, 0.0, 0.0, 0.0, 0.0, 0.0, 1.675975558263844E9, 0.0, 2023-02-09 15:45:58.263
45.0, 5694.084548245019, 187500.0, 187500.0, -187500.02235174447, -187500.02235174447, -187500.02235174447, -187500.02235174447, -187500.02235174447, 0.014, 0.052000000000000005, 0.996, 192.0, 0.0, 0.0, 0.0, 0.0, 0.0, 0.0, 0.0, 0.0, 0.0, 1.675975558271936E9, 0.0, 2023-02-09 15:45:58.271
46.0, 6152.608234001188, 187500.0, 187500.0, -187500.02235174447, -187500.02235174447, -187500.02235174447, -187500.02235174447, -187500.02235174447, 0.014, 0.052000000000000005, 0.996, 192.0, 0.0, 0.0, 0.0, 0.0, 0.0, 0.0, 0.0, 0.0, 0.0, 1.675975558271964E9, 0.0, 2023-02-09 15:45:58.271
47.0, 6497.450947457665, 187500.0, 187500.0, -187500.02235174447, -187500.02235174447, -187500.02235174447, -187500.02235174447, -187500.02235174447, 0.01, 0.05, 0.996, 192.0, 0.0, 80.0, 1.0, 144.0, 31.0, 32.0, 0.0, 0.0, 0.0, 1.675975558279856E9, 0.0, 2023-02-09 15:45:58.279
48.0, 6141.9017484070955, 187500.0, 187500.0, -187500.02235174447, -187500.02235174447, -187500.02235174447, -187500.02235174447, -187500.02235174447, 0.01, 0.05, 0.996, 192.0, 0.0, 0.0, 0.0, 0.0, 0.0, 0.0, 0.0, 0.0, 0.0, 1.675975558279876E9, 0.0, 2023-02-09 15:45:58.279
49.0, 5877.6370737120005, 187500.0, 187500.0, -187500.02235174447, -187500.02235174447, -187500.02235174447, -187500.02235174447, -187500.02235174447, 0.01, 0.05, 0.996, 192.0, 0.0, 0.0, 0.0, 0.0, 0.0, 0.0, 0.0, 0.0, 0.0, 1.6759755582873E9, 0.0, 2023-02-09 15:45:58.287
50.0, 5863.555474705157, 187500.0, 187500.0, -187500.02235174447, -187500.02235174447, -187500.02235174447, -187500.02235174447, -187500.02235174447, 0.01, 0.05, 0.996, 192.0, 0.0, 0.0, 0.0, 0.0, 0.0, 0.0, 0.0, 0.0, 0.0, 1.675975558287326E9, 0.0, 2023-02-09 15:45:58.287
51.0, 6414.816548206395, 187500.0, 187500.0, -187500.02235174447, -187500.02235174447, -187500.02235174447, -187500.02235174447, -187500.02235174447, 0.01, 0.05, 0.996, 192.0, 0.0, 0.0, 0.0, 0.0, 0.0, 0.0, 0.0, 0.0, 0.0, 1.675975558294434E9, 0.0, 2023-02-09 15:45:58.294
52.0, 6562.718041267162, 187500.0, 187500.0, -187500.02235174447, -187500.02235174447, -187500.02235174447, -187500.02235174447, -187500.02235174447, 0.01, 0.05, 0.996, 192.0, 0.0, 0.0, 0.0, 0.0, 0.0, 0.0, 0.0, 0.0, 0.0, 1.675975558294451E9, 0.0, 2023-02-09 15:45:58.294
53.0, 5935.148112195506, 187500.0, 187500.0, -187500.02235174447, -187500.02235174447, -187500.02235174447, -187500.02235174447, -187500.02235174447, 0.01, 0.05, 0.996, 192.0, 0.0, 0.0, 0.0, 0.0, 0.0, 0.0, 0.0, 0.0, 0.0, 1.675975558301528E9, 0.0, 2023-02-09 15:45:58.301
54.0, 6633.461312468209, 187500.0, 187500.0, -187500.02235174447, -187500.02235174447, -187500.02235174447, -187500.02235174447, -187500.02235174447, 0.01, 0.05, 0.996, 192.0, 0.0, 0.0, 0.0, 0.0, 0.0, 0.0, 0.0, 0.0, 0.0, 1.675975558301556E9, 0.0, 2023-02-09 15:45:58.301
55.0, 5864.002509594263, 187500.0, 187500.0, -187500.02235174447, -187500.02235174447, -187500.02235174447, -187500.02235174447, -187500.02235174447, 0.01, 0.05, 0.996, 192.0, 0.0, 0.0, 0.0, 0.0, 0.0, 0.0, 0.0, 0.0, 0.0, 1.675975558308564E9, 0.0, 2023-02-09 15:45:58.308
56.0, 5378.477916536083, 187500.0, 187500.0, -187500.02235174447, -187500.02235174447, -187500.02235174447, -187500.02235174447, -187500.02235174447, 0.01, 0.05, 0.996, 192.0, 0.0, 0.0, 0.0, 0.0, 0.0, 0.0, 0.0, 0.0, 0.0, 1.675975558316037E9, 0.0, 2023-02-09 15:45:58.316
57.0, 6425.70184775613, 187500.0, 187500.0, -187500.02235174447, -187500.02235174447, -187500.02235174447, -187500.02235174447, -187500.02235174447, 0.014, 0.052000000000000005, 0.994, 192.0, 0.0, 112.0, 1.0, 160.0, 31.0, 16.0, 0.0, 0.0, 0.0, 1.675975558316063E9, 0.0, 2023-02-09 15:45:58.316
58.0, 7218.250002652408, 187500.0, 187500.0, -187500.02235174447, -187500.02235174447, -187500.02235174447, -187500.02235174447, -187500.02235174447, 0.014, 0.052000000000000005, 0.994, 192.0, 0.0, 0.0, 0.0, 0.0, 0.0, 0.0, 0.0, 0.0, 0.0, 1.675975558323945E9, 0.0, 2023-02-09 15:45:58.323
59.0, 5879.939303390897, 187500.0, 187500.0, -187500.02235174447, -187500.02235174447, -187500.02235174447, -187500.02235174447, -187500.02235174447, 0.014, 0.052000000000000005, 0.994, 192.0, 0.0, 0.0, 0.0, 0.0, 0.0, 0.0, 0.0, 0.0, 0.0, 1.67597555832397E9, 0.0, 2023-02-09 15:45:58.323
60.0, 5546.451276117716, 187500.0, 187500.0, -187500.02235174447, -187500.02235174447, -187500.02235174447, -187500.02235174447, -187500.02235174447, 0.014, 0.052000000000000005, 0.994, 192.0, 0.0, 0.0, 0.0, 0.0, 0.0, 0.0, 0.0, 0.0, 0.0, 1.675975558332128E9, 0.0, 2023-02-09 15:45:58.332
61.0, 5694.17395522284, 187500.0, 187500.0, -187500.02235174447, -187500.02235174447, -187500.02235174447, -187500.02235174447, -187500.02235174447, 0.014, 0.052000000000000005, 0.994, 192.0, 0.0, 0.0, 0.0, 0.0, 0.0, 0.0, 0.0, 0.0, 0.0, 1.675975558332146E9, 0.0, 2023-02-09 15:45:58.332
62.0, 6084.68128260151, 187500.0, 187500.0, -187500.02235174447, -187500.02235174447, -187500.02235174447, -187500.02235174447, -187500.02235174447, 0.014, 0.052000000000000005, 0.994, 192.0, 0.0, 0.0, 0.0, 0.0, 0.0, 0.0, 0.0, 0.0, 0.0, 1.675975558338636E9, 0.0, 2023-02-09 15:45:58.338
63.0, 6214.8578423092185, 187500.0, 187500.0, -187500.02235174447, -187500.02235174447, -187500.02235174447, -187500.02235174447, -187500.02235174447, 0.014, 0.052000000000000005, 0.994, 192.0, 0.0, 0.0, 0.0, 0.0, 0.0, 0.0, 0.0, 0.0, 0.0, 1.675975558338657E9, 0.0, 2023-02-09 15:45:58.338
64.0, 5693.436347655815, 187500.0, 187500.0, -187500.02235174447, -187500.02235174447, -187500.02235174447, -187500.02235174447, -187500.02235174447, 0.014, 0.052000000000000005, 0.994, 192.0, 0.0, 0.0, 0.0, 0.0, 0.0, 0.0, 0.0, 0.0, 0.0, 1.675975558346779E9, 0.0, 2023-02-09 15:45:58.346
65.0, 5920.1947951549055, 187500.0, 187500.0, -187500.02235174447, -187500.02235174447, -187500.02235174447, -187500.02235174447, -187500.02235174447, 0.014, 0.052000000000000005, 0.994, 192.0, 0.0, 0.0, 0.0, 0.0, 0.0, 0.0, 0.0, 0.0, 0.0, 1.675975558346797E9, 0.0, 2023-02-09 15:45:58.346
66.0, 6389.000283360516, 187500.0, 187500.0, -187500.02235174447, -187500.02235174447, -187500.02235174447, -187500.02235174447, -187500.02235174447, 0.014, 0.052000000000000005, 0.994, 192.0, 0.0, 0.0, 0.0, 0.0, 0.0, 0.0, 0.0, 0.0, 0.0, 1.675975558354746E9, 0.0, 2023-02-09 15:45:58.354
67.0, 6436.0954089278475, 187500.0, 187500.0, -187500.02235174447, -187500.02235174447, -187500.02235174447, -187500.02235174447, -187500.02235174447, 0.014, 0.048, 1.0, 192.0, 0.0, 112.0, 1.0, 128.0, 31.0, 64.0, 0.0, 0.0, 0.0, 1.675975558354769E9, 0.0, 2023-02-09 15:45:58.354
68.0, 5712.614144398469, 187500.0, 187500.0, -187500.02235174447, -187500.02235174447, -187500.02235174447, -187500.02235174447, -187500.02235174447, 0.014, 0.048, 1.0, 192.0, 0.0, 0.0, 0.0, 0.0, 0.0, 0.0, 0.0, 0.0, 0.0, 1.675975558362422E9, 0.0, 2023-02-09 15:45:58.362
69.0, 5677.767774792645, 187500.0, 187500.0, -187500.02235174447, -187500.02235174447, -187500.02235174447, -187500.02235174447, -187500.02235174447, 0.014, 0.048, 1.0, 192.0, 0.0, 0.0, 0.0, 0.0, 0.0, 0.0, 0.0, 0.0, 0.0, 1.675975558362444E9, 0.0, 2023-02-09 15:45:58.362
70.0, 6048.739677517376, 187500.0, 187500.0, -187500.02235174447, -187500.02235174447, -187500.02235174447, -187500.02235174447, -187500.02235174447, 0.014, 0.048, 1.0, 192.0, 0.0, 0.0, 0.0, 0.0, 0.0, 0.0, 0.0, 0.0, 0.0, 1.675975558368383E9, 0.0, 2023-02-09 15:45:58.368
71.0, 6351.650518375697, 187500.0, 187500.0, -187500.02235174447, -187500.02235174447, -187500.02235174447, -187500.02235174447, -187500.02235174447, 0.014, 0.048, 1.0, 192.0, 0.0, 0.0, 0.0, 0.0, 0.0, 0.0, 0.0, 0.0, 0.0, 1.675975558376382E9, 0.0, 2023-02-09 15:45:58.376
72.0, 6393.850611907317, 187500.0, 187500.0, -187500.02235174447, -187500.02235174447, -187500.02235174447, -187500.02235174447, -187500.02235174447, 0.014, 0.048, 1.0, 192.0, 0.0, 0.0, 0.0, 0.0, 0.0, 0.0, 0.0, 0.0, 0.0, 1.675975558376394E9, 0.0, 2023-02-09 15:45:58.376
73.0, 6283.589456509288, 187500.0, 187500.0, -187500.02235174447, -187500.02235174447, -187500.02235174447, -187500.02235174447, -187500.02235174447, 0.014, 0.048, 1.0, 192.0, 0.0, 0.0, 0.0, 0.0, 0.0, 0.0, 0.0, 0.0, 0.0, 1.675975558384466E9, 0.0, 2023-02-09 15:45:58.384
74.0, 6561.533398811031, 187500.0, 187500.0, -187500.02235174447, -187500.02235174447, -187500.02235174447, -187500.02235174447, -187500.02235174447, 0.014, 0.048, 1.0, 192.0, 0.0, 0.0, 0.0, 0.0, 0.0, 0.0, 0.0, 0.0, 0.0, 1.675975558384483E9, 0.0, 2023-02-09 15:45:58.384
75.0, 5104.780805680848, 187500.0, 187500.0, -187500.02235174447, -187500.02235174447, -187500.02235174447, -187500.02235174447, -187500.02235174447, 0.014, 0.048, 1.0, 192.0, 0.0, 0.0, 0.0, 0.0, 0.0, 0.0, 0.0, 0.0, 0.0, 1.675975558391523E9, 0.0, 2023-02-09 15:45:58.391
76.0, 5397.9239342122, 187500.0, 187500.0, -187500.02235174447, -187500.02235174447, -187500.02235174447, -187500.02235174447, -187500.02235174447, 0.014, 0.048, 0.998, 192.0, 0.0, 112.0, 1.0, 128.0, 31.0, 48.0, 0.0, 0.0, 0.0, 1.675975558391543E9, 0.0, 2023-02-09 15:45:58.391
77.0, 5883.672044714934, 187500.0, 187500.0, -187500.02235174447, -187500.02235174447, -187500.02235174447, -187500.02235174447, -187500.02235174447, 0.014, 0.048, 0.998, 192.0, 0.0, 0.0, 0.0, 0.0, 0.0, 0.0, 0.0, 0.0, 0.0, 1.675975558399053E9, 0.0, 2023-02-09 15:45:58.399
78.0, 5858.928663602908, 187500.0, 187500.0, -187500.02235174447, -187500.02235174447, -187500.02235174447, -187500.02235174447, -187500.02235174447, 0.014, 0.048, 0.998, 192.0, 0.0, 0.0, 0.0, 0.0, 0.0, 0.0, 0.0, 0.0, 0.0, 1.675975558399073E9, 0.0, 2023-02-09 15:45:58.399
79.0, 6835.588137577551, 187500.0, 187500.0, -187500.02235174447, -187500.02235174447, -187500.02235174447, -187500.02235174447, -187500.02235174447, 0.014, 0.048, 0.998, 192.0, 0.0, 0.0, 0.0, 0.0, 0.0, 0.0, 0.0, 0.0, 0.0, 1.67597555840698E9, 0.0, 2023-02-09 15:45:58.406
80.0, 6685.496173560164, 187500.0, 187500.0, -187500.02235174447, -187500.02235174447, -187500.02235174447, -187500.02235174447, -187500.02235174447, 0.014, 0.048, 0.998, 192.0, 0.0, 0.0, 0.0, 0.0, 0.0, 0.0, 0.0, 0.0, 0.0, 1.675975558407E9, 0.0, 2023-02-09 15:45:58.407
81.0, 6230.258194238925, 187500.0, 187500.0, -187500.02235174447, -187500.02235174447, -187500.02235174447, -187500.02235174447, -187500.02235174447, 0.014, 0.048, 0.998, 192.0, 0.0, 0.0, 0.0, 0.0, 0.0, 0.0, 0.0, 0.0, 0.0, 1.675975558414974E9, 0.0, 2023-02-09 15:45:58.414
82.0, 6304.510689319455, 187500.0, 187500.0, -187500.02235174447, -187500.02235174447, -187500.02235174447, -187500.02235174447, -187500.02235174447, 0.014, 0.048, 0.998, 192.0, 0.0, 0.0, 0.0, 0.0, 0.0, 0.0, 0.0, 0.0, 0.0, 1.675975558414997E9, 0.0, 2023-02-09 15:45:58.414
83.0, 5959.623272374067, 187500.0, 187500.0, -187500.02235174447, -187500.02235174447, -187500.02235174447, -187500.02235174447, -187500.02235174447, 0.014, 0.048, 0.998, 192.0, 0.0, 0.0, 0.0, 0.0, 0.0, 0.0, 0.0, 0.0, 0.0, 1.675975558421688E9, 0.0, 2023-02-09 15:45:58.421
84.0, 5151.8312277592695, 187500.0, 187500.0, -187500.02235174447, -187500.02235174447, -187500.02235174447, -187500.02235174447, -187500.02235174447, 0.014, 0.048, 0.998, 192.0, 0.0, 0.0, 0.0, 0.0, 0.0, 0.0, 0.0, 0.0, 0.0, 1.675975558421714E9, 0.0, 2023-02-09 15:45:58.421
85.0, 5293.697749817104, 187500.0, 187500.0, -187500.02235174447, -187500.02235174447, -187500.02235174447, -187500.02235174447, -187500.02235174447, 0.014, 0.048, 0.998, 192.0, 0.0, 0.0, 0.0, 0.0, 0.0, 0.0, 0.0, 0.0, 0.0, 1.67597555842865E9, 0.0, 2023-02-09 15:45:58.428
86.0, 5869.165762563439, 187500.0, 187500.0, -187500.02235174447, -187500.02235174447, -187500.02235174447, -187500.02235174447, -187500.02235174447, 0.016, 0.052000000000000005, 1.0, 192.0, 0.0, 128.0, 1.0, 160.0, 31.0, 64.0, 0.0, 0.0, 0.0, 1.675975558436583E9, 0.0, 2023-02-09 15:45:58.436
87.0, 6439.314060129412, 187500.0, 187500.0, -187500.02235174447, -187500.02235174447, -187500.02235174447, -187500.02235174447, -187500.02235174447, 0.016, 0.052000000000000005, 1.0, 192.0, 0.0, 0.0, 0.0, 0.0, 0.0, 0.0, 0.0, 0.0, 0.0, 1.675975558436602E9, 0.0, 2023-02-09 15:45:58.436
88.0, 6779.0158723611685, 187500.0, 187500.0, -187500.02235174447, -187500.02235174447, -187500.02235174447, -187500.02235174447, -187500.02235174447, 0.016, 0.052000000000000005, 1.0, 192.0, 0.0, 0.0, 0.0, 0.0, 0.0, 0.0, 0.0, 0.0, 0.0, 1.675975558443489E9, 0.0, 2023-02-09 15:45:58.443
89.0, 5510.979057667143, 187500.0, 187500.0, -187500.02235174447, -187500.02235174447, -187500.02235174447, -187500.02235174447, -187500.02235174447, 0.016, 0.052000000000000005, 1.0, 192.0, 0.0, 0.0, 0.0, 0.0, 0.0, 0.0, 0.0, 0.0, 0.0, 1.675975558443509E9, 0.0, 2023-02-09 15:45:58.443
90.0, 5207.688237153082, 187500.0, 187500.0, -187500.02235174447, -187500.02235174447, -187500.02235174447, -187500.02235174447, -187500.02235174447, 0.016, 0.052000000000000005, 1.0, 192.0, 0.0, 0.0, 0.0, 0.0, 0.0, 0.0, 0.0, 0.0, 0.0, 1.675975558451308E9, 0.0, 2023-02-09 15:45:58.451
91.0, 5944.17821695545, 187500.0, 187500.0, -187500.02235174447, -187500.02235174447, -187500.02235174447, -187500.02235174447, -187500.02235174447, 0.016, 0.052000000000000005, 1.0, 192.0, 0.0, 0.0, 0.0, 0.0, 0.0, 0.0, 0.0, 0.0, 0.0, 1.675975558451332E9, 0.0, 2023-02-09 15:45:58.451
92.0, 6816.5220995571735, 187500.0, 187500.0, -187500.02235174447, -187500.02235174447, -187500.02235174447, -187500.02235174447, -187500.02235174447, 0.016, 0.052000000000000005, 1.0, 192.0, 0.0, 0.0, 0.0, 0.0, 0.0, 0.0, 0.0, 0.0, 0.0, 1.675975558459237E9, 0.0, 2023-02-09 15:45:58.459
93.0, 6990.083395252633, 187500.0, 187500.0, -187500.02235174447, -187500.02235174447, -187500.02235174447, -187500.02235174447, -187500.02235174447, 0.016, 0.052000000000000005, 1.0, 192.0, 0.0, 0.0, 0.0, 0.0, 0.0, 0.0, 0.0, 0.0, 0.0, 1.675975558459257E9, 0.0, 2023-02-09 15:45:58.459
94.0, 5299.732720820037, 187500.0, 187500.0, -187500.02235174447, -187500.02235174447, -187500.02235174447, -187500.02235174447, -187500.02235174447, 0.016, 0.052000000000000005, 1.0, 192.0, 0.0, 0.0, 0.0, 0.0, 0.0, 0.0, 0.0, 0.0, 0.0, 1.675975558467184E9, 0.0, 2023-02-09 15:45:58.467
95.0, 5363.569302984393, 187500.0, 187500.0, -187500.02235174447, -187500.02235174447, -187500.02235174447, -187500.02235174447, -187500.02235174447, 0.016, 0.052000000000000005, 1.0, 192.0, 0.0, 0.0, 0.0, 0.0, 0.0, 0.0, 0.0, 0.0, 0.0, 1.675975558467204E9, 0.0, 2023-02-09 15:45:58.467
96.0, 5648.062306411542, 187500.0, 187500.0, -187500.02235174447, -187500.02235174447, -187500.02235174447, -187500.02235174447, -187500.02235174447, 0.016, 0.046, 0.998, 192.0, 0.0, 128.0, 1.0, 112.0, 31.0, 48.0, 0.0, 0.0, 0.0, 1.675975558473857E9, 0.0, 2023-02-09 15:45:58.473
97.0, 6189.041577463338, 187500.0, 187500.0, -187500.02235174447, -187500.02235174447, -187500.02235174447, -187500.02235174447, -187500.02235174447, 0.016, 0.046, 0.998, 192.0, 0.0, 0.0, 0.0, 0.0, 0.0, 0.0, 0.0, 0.0, 0.0, 1.675975558473873E9, 0.0, 2023-02-09 15:45:58.473
98.0, 6088.592837881189, 187500.0, 187500.0, -187500.02235174447, -187500.02235174447, -187500.02235174447, -187500.02235174447, -187500.02235174447, 0.016, 0.046, 0.998, 192.0, 0.0, 0.0, 0.0, 0.0, 0.0, 0.0, 0.0, 0.0, 0.0, 1.675975558481989E9, 0.0, 2023-02-09 15:45:58.481
99.0, 5661.898036229377, 187500.0, 187500.0, -187500.02235174447, -187500.02235174447, -187500.02235174447, -187500.02235174447, -187500.02235174447, 0.016, 0.046, 0.998, 192.0, 0.0, 0.0, 0.0, 0.0, 0.0, 0.0, 0.0, 0.0, 0.0, 1.675975558482003E9, 0.0, 2023-02-09 15:45:58.482
100.0, 6073.930093518507, 187500.0, 187500.0, -187500.02235174447, -187500.02235174447, -187500.02235174447, -187500.02235174447, -187500.02235174447, 0.016, 0.046, 0.998, 192.0, 0.0, 0.0, 0.0, 0.0, 0.0, 0.0, 0.0, 0.0, 0.0, 1.675975558488991E9, 0.0, 2023-02-09 15:45:58.488
101.0, 7243.149845975619, 187500.0, 187500.0, -187500.02235174447, -187500.02235174447, -187500.02235174447, -187500.02235174447, -187500.02235174447, 0.016, 0.046, 0.998, 192.0, 0.0, 0.0, 0.0, 0.0, 0.0, 0.0, 0.0, 0.0, 0.0, 1.675975558496953E9, 0.0, 2023-02-09 15:45:58.496
102.0, 6139.331297794735, 187500.0, 187500.0, -187500.02235174447, -187500.02235174447, -187500.02235174447, -187500.02235174447, -187500.02235174447, 0.016, 0.046, 0.998, 192.0, 0.0, 0.0, 0.0, 0.0, 0.0, 0.0, 0.0, 0.0, 0.0, 1.675975558496977E9, 0.0, 2023-02-09 15:45:58.496
103.0, 5376.667425235203, 187500.0, 187500.0, -187500.02235174447, -187500.02235174447, -187500.02235174447, -187500.02235174447, -187500.02235174447, 0.016, 0.046, 0.998, 192.0, 0.0, 0.0, 0.0, 0.0, 0.0, 0.0, 0.0, 0.0, 0.0, 1.675975558503532E9, 0.0, 2023-02-09 15:45:58.503
104.0, 5107.127738848655, 187500.0, 187500.0, -187500.02235174447, -187500.02235174447, -187500.02235174447, -187500.02235174447, -187500.02235174447, 0.016, 0.046, 0.998, 192.0, 0.0, 0.0, 0.0, 0.0, 0.0, 0.0, 0.0, 0.0, 0.0, 1.675975558503553E9, 0.0, 2023-02-09 15:45:58.503
105.0, 5624.570622989014, 187500.0, 187500.0, -187500.02235174447, -187500.02235174447, -187500.02235174447, -187500.02235174447, -187500.02235174447, 0.016, 0.046, 0.998, 192.0, 0.0, 0.0, 0.0, 0.0, 0.0, 0.0, 0.0, 0.0, 0.0, 1.675975558511672E9, 0.0, 2023-02-09 15:45:58.511
106.0, 5934.388152884025, 187500.0, 187500.0, -187500.02235174447, -187500.02235174447, -187500.02235174447, -187500.02235174447, -187500.02235174447, 0.018000000000000002, 0.052000000000000005, 1.0, 192.0, 0.0, 144.0, 1.0, 160.0, 31.0, 64.0, 0.0, 0.0, 0.0, 1.675975558511696E9, 0.0, 2023-02-09 15:45:58.511
107.0, 5990.2228105333825, 187500.0, 187500.0, -187500.02235174447, -187500.02235174447, -187500.02235174447, -187500.02235174447, -187500.02235174447, 0.018000000000000002, 0.052000000000000005, 1.0, 192.0, 0.0, 0.0, 0.0, 0.0, 0.0, 0.0, 0.0, 0.0, 0.0, 1.675975558519536E9, 0.0, 2023-02-09 15:45:58.519
108.0, 5917.60199279809, 187500.0, 187500.0, -187500.02235174447, -187500.02235174447, -187500.02235174447, -187500.02235174447, -187500.02235174447, 0.018000000000000002, 0.052000000000000005, 1.0, 192.0, 0.0, 0.0, 0.0, 0.0, 0.0, 0.0, 0.0, 0.0, 0.0, 1.675975558519552E9, 0.0, 2023-02-09 15:45:58.519
109.0, 5668.022414210131, 187500.0, 187500.0, -187500.02235174447, -187500.02235174447, -187500.02235174447, -187500.02235174447, -187500.02235174447, 0.018000000000000002, 0.052000000000000005, 1.0, 192.0, 0.0, 0.0, 0.0, 0.0, 0.0, 0.0, 0.0, 0.0, 0.0, 1.67597555852646E9, 0.0, 2023-02-09 15:45:58.526
110.0, 6375.678643665153, 187500.0, 187500.0, -187500.02235174447, -187500.02235174447, -187500.02235174447, -187500.02235174447, -187500.02235174447, 0.018000000000000002, 0.052000000000000005, 1.0, 192.0, 0.0, 0.0, 0.0, 0.0, 0.0, 0.0, 0.0, 0.0, 0.0, 1.675975558526516E9, 0.0, 2023-02-09 15:45:58.526
111.0, 7206.940019958022, 187500.0, 187500.0, -187500.02235174447, -187500.02235174447, -187500.02235174447, -187500.02235174447, -187500.02235174447, 0.018000000000000002, 0.052000000000000005, 1.0, 192.0, 0.0, 0.0, 0.0, 0.0, 0.0, 0.0, 0.0, 0.0, 0.0, 1.67597555853424E9, 0.0, 2023-02-09 15:45:58.534
112.0, 6086.380015180113, 187500.0, 187500.0, -187500.02235174447, -187500.02235174447, -187500.02235174447, -187500.02235174447, -187500.02235174447, 0.018000000000000002, 0.052000000000000005, 1.0, 192.0, 0.0, 0.0, 0.0, 0.0, 0.0, 0.0, 0.0, 0.0, 0.0, 1.675975558534267E9, 0.0, 2023-02-09 15:45:58.534
113.0, 5111.508680761895, 187500.0, 187500.0, -187500.02235174447, -187500.02235174447, -187500.02235174447, -187500.02235174447, -187500.02235174447, 0.018000000000000002, 0.052000000000000005, 1.0, 192.0, 0.0, 0.0, 0.0, 0.0, 0.0, 0.0, 0.0, 0.0, 0.0, 1.675975558542228E9, 0.0, 2023-02-09 15:45:58.542
114.0, 5152.837056259758, 187500.0, 187500.0, -187500.02235174447, -187500.02235174447, -187500.02235174447, -187500.02235174447, -187500.02235174447, 0.018000000000000002, 0.052000000000000005, 1.0, 192.0, 0.0, 0.0, 0.0, 0.0, 0.0, 0.0, 0.0, 0.0, 0.0, 1.675975558542255E9, 0.0, 2023-02-09 15:45:58.542
115.0, 5587.109099281919, 187500.0, 187500.0, -187500.02235174447, -187500.02235174447, -187500.02235174447, -187500.02235174447, -187500.02235174447, 0.018000000000000002, 0.052000000000000005, 1.0, 192.0, 0.0, 0.0, 0.0, 0.0, 0.0, 0.0, 0.0, 0.0, 0.0, 1.675975558549158E9, 0.0, 2023-02-09 15:45:58.549
116.0, 6117.06896031725, 187500.0, 187500.0, -187500.02235174447, -187500.02235174447, -187500.02235174447, -187500.02235174447, -187500.02235174447, 0.014, 0.05, 0.996, 192.0, 0.0, 112.0, 1.0, 144.0, 31.0, 32.0, 0.0, 0.0, 0.0, 1.675975558549208E9, 0.0, 2023-02-09 15:45:58.549
117.0, 6483.481107173098, 187500.0, 187500.0, -187500.02235174447, -187500.02235174447, -187500.02235174447, -187500.02235174447, -187500.02235174447, 0.014, 0.05, 0.996, 192.0, 0.0, 0.0, 0.0, 0.0, 0.0, 0.0, 0.0, 0.0, 0.0, 1.675975558556309E9, 0.0, 2023-02-09 15:45:58.556
118.0, 5623.274221810606, 187500.0, 187500.0, -187500.02235174447, -187500.02235174447, -187500.02235174447, -187500.02235174447, -187500.02235174447, 0.014, 0.05, 0.996, 192.0, 0.0, 0.0, 0.0, 0.0, 0.0, 0.0, 0.0, 0.0, 0.0, 1.675975558564349E9, 0.0, 2023-02-09 15:45:58.564
119.0, 5466.521437945537, 187500.0, 187500.0, -187500.02235174447, -187500.02235174447, -187500.02235174447, -187500.02235174447, -187500.02235174447, 0.014, 0.05, 0.996, 192.0, 0.0, 0.0, 0.0, 0.0, 0.0, 0.0, 0.0, 0.0, 0.0, 1.675975558564363E9, 0.0, 2023-02-09 15:45:58.564
120.0, 5964.786525343243, 187500.0, 187500.0, -187500.02235174447, -187500.02235174447, -187500.02235174447, -187500.02235174447, -187500.02235174447, 0.014, 0.05, 0.996, 192.0, 0.0, 0.0, 0.0, 0.0, 0.0, 0.0, 0.0, 0.0, 0.0, 1.675975558571795E9, 0.0, 2023-02-09 15:45:58.571
121.0, 6188.6839495520535, 187500.0, 187500.0, -187500.02235174447, -187500.02235174447, -187500.02235174447, -187500.02235174447, -187500.02235174447, 0.014, 0.05, 0.996, 192.0, 0.0, 0.0, 0.0, 0.0, 0.0, 0.0, 0.0, 0.0, 0.0, 1.675975558571844E9, 0.0, 2023-02-09 15:45:58.571
122.0, 5834.162930746428, 187500.0, 187500.0, -187500.02235174447, -187500.02235174447, -187500.02235174447, -187500.02235174447, -187500.02235174447, 0.014, 0.05, 0.996, 192.0, 0.0, 0.0, 0.0, 0.0, 0.0, 0.0, 0.0, 0.0, 0.0, 1.675975558579884E9, 0.0, 2023-02-09 15:45:58.579
123.0, 6340.541701381409, 187500.0, 187500.0, -187500.02235174447, -187500.02235174447, -187500.02235174447, -187500.02235174447, -187500.02235174447, 0.014, 0.05, 0.996, 192.0, 0.0, 0.0, 0.0, 0.0, 0.0, 0.0, 0.0, 0.0, 0.0, 1.675975558579959E9, 0.0, 2023-02-09 15:45:58.579
124.0, 5865.92475961742, 187500.0, 187500.0, -187500.02235174447, -187500.02235174447, -187500.02235174447, -187500.02235174447, -187500.02235174447, 0.014, 0.05, 0.996, 192.0, 0.0, 0.0, 0.0, 0.0, 0.0, 0.0, 0.0, 0.0, 0.0, 1.675975558586562E9, 0.0, 2023-02-09 15:45:58.586
125.0, 5245.149760860177, 187500.0, 187500.0, -187500.02235174447, -187500.02235174447, -187500.02235174447, -187500.02235174447, -187500.02235174447, 0.016, 0.05, 0.994, 192.0, 0.0, 128.0, 1.0, 144.0, 31.0, 16.0, 0.0, 0.0, 0.0, 1.675975558586586E9, 0.0, 2023-02-09 15:45:58.586
126.0, 5661.205132151263, 187500.0, 187500.0, -187500.02235174447, -187500.02235174447, -187500.02235174447, -187500.02235174447, -187500.02235174447, 0.016, 0.05, 0.994, 192.0, 0.0, 0.0, 0.0, 0.0, 0.0, 0.0, 0.0, 0.0, 0.0, 1.675975558594469E9, 0.0, 2023-02-09 15:45:58.594
127.0, 6151.222425844959, 187500.0, 187500.0, -187500.02235174447, -187500.02235174447, -187500.02235174447, -187500.02235174447, -187500.02235174447, 0.016, 0.05, 0.994, 192.0, 0.0, 0.0, 0.0, 0.0, 0.0, 0.0, 0.0, 0.0, 0.0, 1.675975558594491E9, 0.0, 2023-02-09 15:45:58.594
128.0, 5646.944719188777, 187500.0, 187500.0, -187500.02235174447, -187500.02235174447, -187500.02235174447, -187500.02235174447, -187500.02235174447, 0.016, 0.05, 0.994, 192.0, 0.0, 0.0, 0.0, 0.0, 0.0, 0.0, 0.0, 0.0, 0.0, 1.675975558602543E9, 0.0, 2023-02-09 15:45:58.602
129.0, 5578.034291033065, 187500.0, 187500.0, -187500.02235174447, -187500.02235174447, -187500.02235174447, -187500.02235174447, -187500.02235174447, 0.016, 0.05, 0.994, 192.0, 0.0, 0.0, 0.0, 0.0, 0.0, 0.0, 0.0, 0.0, 0.0, 1.675975558602563E9, 0.0, 2023-02-09 15:45:58.602
130.0, 5785.279665622672, 187500.0, 187500.0, -187500.02235174447, -187500.02235174447, -187500.02235174447, -187500.02235174447, -187500.02235174447, 0.016, 0.05, 0.994, 192.0, 0.0, 0.0, 0.0, 0.0, 0.0, 0.0, 0.0, 0.0, 0.0, 1.675975558608991E9, 0.0, 2023-02-09 15:45:58.608
131.0, 6459.251816183546, 187500.0, 187500.0, -187500.02235174447, -187500.02235174447, -187500.02235174447, -187500.02235174447, -187500.02235174447, 0.016, 0.05, 0.994, 192.0, 0.0, 0.0, 0.0, 0.0, 0.0, 0.0, 0.0, 0.0, 0.0, 1.675975558609058E9, 0.0, 2023-02-09 15:45:58.609
132.0, 6678.32126359001, 187500.0, 187500.0, -187500.02235174447, -187500.02235174447, -187500.02235174447, -187500.02235174447, -187500.02235174447, 0.016, 0.05, 0.994, 192.0, 0.0, 0.0, 0.0, 0.0, 0.0, 0.0, 0.0, 0.0, 0.0, 1.67597555861591E9, 0.0, 2023-02-09 15:45:58.615
133.0, 6009.802938676231, 187500.0, 187500.0, -187500.02235174447, -187500.02235174447, -187500.02235174447, -187500.02235174447, -187500.02235174447, 0.016, 0.05, 0.994, 192.0, 0.0, 0.0, 0.0, 0.0, 0.0, 0.0, 0.0, 0.0, 0.0, 1.675975558624155E9, 0.0, 2023-02-09 15:45:58.624
134.0, 5290.076767215343, 187500.0, 187500.0, -187500.02235174447, -187500.02235174447, -187500.02235174447, -187500.02235174447, -187500.02235174447, 0.016, 0.05, 0.994, 192.0, 0.0, 0.0, 0.0, 0.0, 0.0, 0.0, 0.0, 0.0, 0.0, 1.675975558624177E9, 0.0, 2023-02-09 15:45:58.624
135.0, 5544.8195987724785, 187500.0, 187500.0, -187500.02235174447, -187500.02235174447, -187500.02235174447, -187500.02235174447, -187500.02235174447, 0.018000000000000002, 0.056, 0.998, 192.0, 0.0, 144.0, 1.0, 192.0, 31.0, 48.0, 0.0, 0.0, 0.0, 1.675975558632096E9, 0.0, 2023-02-09 15:45:58.632
136.0, 5861.387355492992, 187500.0, 187500.0, -187500.02235174447, -187500.02235174447, -187500.02235174447, -187500.02235174447, -187500.02235174447, 0.018000000000000002, 0.056, 0.998, 192.0, 0.0, 0.0, 0.0, 0.0, 0.0, 0.0, 0.0, 0.0, 0.0, 1.67597555863213E9, 0.0, 2023-02-09 15:45:58.632
137.0, 6481.737671105585, 187500.0, 187500.0, -187500.02235174447, -187500.02235174447, -187500.02235174447, -187500.02235174447, -187500.02235174447, 0.018000000000000002, 0.056, 0.998, 192.0, 0.0, 0.0, 0.0, 0.0, 0.0, 0.0, 0.0, 0.0, 0.0, 1.675975558638689E9, 0.0, 2023-02-09 15:45:58.638
138.0, 5513.750673979602, 187500.0, 187500.0, -187500.02235174447, -187500.02235174447, -187500.02235174447, -187500.02235174447, -187500.02235174447, 0.018000000000000002, 0.056, 0.998, 192.0, 0.0, 0.0, 0.0, 0.0, 0.0, 0.0, 0.0, 0.0, 0.0, 1.675975558638711E9, 0.0, 2023-02-09 15:45:58.638
139.0, 5249.508351028961, 187500.0, 187500.0, -187500.02235174447, -187500.02235174447, -187500.02235174447, -187500.02235174447, -187500.02235174447, 0.018000000000000002, 0.056, 0.998, 192.0, 0.0, 0.0, 0.0, 0.0, 0.0, 0.0, 0.0, 0.0, 0.0, 1.675975558646711E9, 0.0, 2023-02-09 15:45:58.646
140.0, 5979.002234816818, 187500.0, 187500.0, -187500.02235174447, -187500.02235174447, -187500.02235174447, -187500.02235174447, -187500.02235174447, 0.018000000000000002, 0.056, 0.998, 192.0, 0.0, 0.0, 0.0, 0.0, 0.0, 0.0, 0.0, 0.0, 0.0, 1.675975558646755E9, 0.0, 2023-02-09 15:45:58.646
141.0, 6391.034292105948, 187500.0, 187500.0, -187500.02235174447, -187500.02235174447, -187500.02235174447, -187500.02235174447, -187500.02235174447, 0.018000000000000002, 0.056, 0.998, 192.0, 0.0, 0.0, 0.0, 0.0, 0.0, 0.0, 0.0, 0.0, 0.0, 1.675975558655004E9, 0.0, 2023-02-09 15:45:58.655
142.0, 5640.239195852184, 187500.0, 187500.0, -187500.02235174447, -187500.02235174447, -187500.02235174447, -187500.02235174447, -187500.02235174447, 0.018000000000000002, 0.056, 0.998, 192.0, 0.0, 0.0, 0.0, 0.0, 0.0, 0.0, 0.0, 0.0, 0.0, 1.675975558655049E9, 0.0, 2023-02-09 15:45:58.655
143.0, 5365.536256496461, 187500.0, 187500.0, -187500.02235174447, -187500.02235174447, -187500.02235174447, -187500.02235174447, -187500.02235174447, 0.018000000000000002, 0.056, 0.998, 192.0, 0.0, 0.0, 0.0, 0.0, 0.0, 0.0, 0.0, 0.0, 0.0, 1.675975558661838E9, 0.0, 2023-02-09 15:45:58.661
144.0, 5751.126200094963, 187500.0, 187500.0, -187500.02235174447, -187500.02235174447, -187500.02235174447, -187500.02235174447, -187500.02235174447, 0.018000000000000002, 0.056, 0.998, 192.0, 0.0, 0.0, 0.0, 0.0, 0.0, 0.0, 0.0, 0.0, 0.0, 1.675975558661863E9, 0.0, 2023-02-09 15:45:58.661
145.0, 5615.093483339963, 187500.0, 187500.0, -187500.02235174447, -187500.02235174447, -187500.02235174447, -187500.02235174447, -187500.02235174447, 0.022, 0.046, 0.998, 192.0, 0.0, 176.0, 1.0, 112.0, 31.0, 48.0, 0.0, 0.0, 0.0, 1.675975558669751E9, 0.0, 2023-02-09 15:45:58.669
146.0, 5935.259870917782, 187500.0, 187500.0, -187500.02235174447, -187500.02235174447, -187500.02235174447, -187500.02235174447, -187500.02235174447, 0.022, 0.046, 0.998, 192.0, 0.0, 0.0, 0.0, 0.0, 0.0, 0.0, 0.0, 0.0, 0.0, 1.675975558669996E9, 0.0, 2023-02-09 15:45:58.669
147.0, 5785.927866211876, 187500.0, 187500.0, -187500.02235174447, -187500.02235174447, -187500.02235174447, -187500.02235174447, -187500.02235174447, 0.022, 0.046, 0.998, 192.0, 0.0, 0.0, 0.0, 0.0, 0.0, 0.0, 0.0, 0.0, 0.0, 1.675975558676381E9, 0.0, 2023-02-09 15:45:58.676
148.0, 6177.932760469051, 187500.0, 187500.0, -187500.02235174447, -187500.02235174447, -187500.02235174447, -187500.02235174447, -187500.02235174447, 0.022, 0.046, 0.998, 192.0, 0.0, 0.0, 0.0, 0.0, 0.0, 0.0, 0.0, 0.0, 0.0, 1.675975558684387E9, 0.0, 2023-02-09 15:45:58.684
149.0, 6463.297481929956, 187500.0, 187500.0, -187500.02235174447, -187500.02235174447, -187500.02235174447, -187500.02235174447, -187500.02235174447, 0.022, 0.046, 0.998, 192.0, 0.0, 0.0, 0.0, 0.0, 0.0, 0.0, 0.0, 0.0, 0.0, 1.675975558684431E9, 0.0, 2023-02-09 15:45:58.684
150.0, 6340.87697754824, 187500.0, 187500.0, -187500.02235174447, -187500.02235174447, -187500.02235174447, -187500.02235174447, -187500.02235174447, 0.022, 0.046, 0.998, 192.0, 0.0, 0.0, 0.0, 0.0, 0.0, 0.0, 0.0, 0.0, 0.0, 1.675975558691525E9, 0.0, 2023-02-09 15:45:58.691
151.0, 5025.298002397776, 187500.0, 187500.0, -187500.02235174447, -187500.02235174447, -187500.02235174447, -187500.02235174447, -187500.02235174447, 0.022, 0.046, 0.998, 192.0, 0.0, 0.0, 0.0, 0.0, 0.0, 0.0, 0.0, 0.0, 0.0, 1.675975558691569E9, 0.0, 2023-02-09 15:45:58.691
152.0, 5428.635231093792, 187500.0, 187500.0, -187500.02235174447, -187500.02235174447, -187500.02235174447, -187500.02235174447, -187500.02235174447, 0.022, 0.046, 0.998, 192.0, 0.0, 0.0, 0.0, 0.0, 0.0, 0.0, 0.0, 0.0, 0.0, 1.67597555869888E9, 0.0, 2023-02-09 15:45:58.698
153.0, 5446.740144102591, 187500.0, 187500.0, -187500.02235174447, -187500.02235174447, -187500.02235174447, -187500.02235174447, -187500.02235174447, 0.022, 0.046, 0.998, 192.0, 0.0, 0.0, 0.0, 0.0, 0.0, 0.0, 0.0, 0.0, 0.0, 1.675975558698954E9, 0.0, 2023-02-09 15:45:58.698
154.0, 5277.828011253835, 187500.0, 187500.0, -187500.02235174447, -187500.02235174447, -187500.02235174447, -187500.02235174447, -187500.02235174447, 0.022, 0.046, 0.998, 192.0, 0.0, 0.0, 0.0, 0.0, 0.0, 0.0, 0.0, 0.0, 0.0, 1.675975558706977E9, 0.0, 2023-02-09 15:45:58.706
155.0, 5992.100357067628, 187500.0, 187500.0, -187500.02235174447, -187500.02235174447, -187500.02235174447, -187500.02235174447, -187500.02235174447, 0.02, 0.044, 1.004, 192.0, 0.0, 160.0, 1.0, 96.0, 31.0, 96.0, 0.0, 0.0, 0.0, 1.675975558706997E9, 0.0, 2023-02-09 15:45:58.706
156.0, 6353.595120143309, 187500.0, 187500.0, -187500.02235174447, -187500.02235174447, -187500.02235174447, -187500.02235174447, -187500.02235174447, 0.02, 0.044, 1.004, 192.0, 0.0, 0.0, 0.0, 0.0, 0.0, 0.0, 0.0, 0.0, 0.0, 1.675975558714943E9, 0.0, 2023-02-09 15:45:58.714
157.0, 6258.019060852416, 187500.0, 187500.0, -187500.02235174447, -187500.02235174447, -187500.02235174447, -187500.02235174447, -187500.02235174447, 0.02, 0.044, 1.004, 192.0, 0.0, 0.0, 0.0, 0.0, 0.0, 0.0, 0.0, 0.0, 0.0, 1.675975558714962E9, 0.0, 2023-02-09 15:45:58.714
158.0, 5718.090321790019, 187500.0, 187500.0, -187500.02235174447, -187500.02235174447, -187500.02235174447, -187500.02235174447, -187500.02235174447, 0.02, 0.044, 1.004, 192.0, 0.0, 0.0, 0.0, 0.0, 0.0, 0.0, 0.0, 0.0, 0.0, 1.675975558721581E9, 0.0, 2023-02-09 15:45:58.721
159.0, 5421.7285420571025, 187500.0, 187500.0, -187500.02235174447, -187500.02235174447, -187500.02235174447, -187500.02235174447, -187500.02235174447, 0.02, 0.044, 1.004, 192.0, 0.0, 0.0, 0.0, 0.0, 0.0, 0.0, 0.0, 0.0, 0.0, 1.675975558721599E9, 0.0, 2023-02-09 15:45:58.721
160.0, 5538.717572536179, 187500.0, 187500.0, -187500.02235174447, -187500.02235174447, -187500.02235174447, -187500.02235174447, -187500.02235174447, 0.02, 0.044, 1.004, 192.0, 0.0, 0.0, 0.0, 0.0, 0.0, 0.0, 0.0, 0.0, 0.0, 1.675975558729539E9, 0.0, 2023-02-09 15:45:58.729
161.0, 6125.473216232445, 187500.0, 187500.0, -187500.02235174447, -187500.02235174447, -187500.02235174447, -187500.02235174447, -187500.02235174447, 0.02, 0.044, 1.004, 192.0, 0.0, 0.0, 0.0, 0.0, 0.0, 0.0, 0.0, 0.0, 0.0, 1.6759755587296E9, 0.0, 2023-02-09 15:45:58.729
162.0, 5736.597566199013, 187500.0, 187500.0, -187500.02235174447, -187500.02235174447, -187500.02235174447, -187500.02235174447, -187500.02235174447, 0.02, 0.044, 1.004, 192.0, 0.0, 0.0, 0.0, 0.0, 0.0, 0.0, 0.0, 0.0, 0.0, 1.675975558736547E9, 0.0, 2023-02-09 15:45:58.736
163.0, 6049.142008917572, 187500.0, 187500.0, -187500.02235174447, -187500.02235174447, -187500.02235174447, -187500.02235174447, -187500.02235174447, 0.02, 0.044, 1.004, 192.0, 0.0, 0.0, 0.0, 0.0, 0.0, 0.0, 0.0, 0.0, 0.0, 1.675975558744886E9, 0.0, 2023-02-09 15:45:58.744
164.0, 5675.845524769488, 187500.0, 187500.0, -187500.02235174447, -187500.02235174447, -187500.02235174447, -187500.02235174447, -187500.02235174447, 0.02, 0.044, 1.004, 192.0, 0.0, 0.0, 0.0, 0.0, 0.0, 0.0, 0.0, 0.0, 0.0, 1.675975558744909E9, 0.0, 2023-02-09 15:45:58.744
165.0, 5563.326843181472, 187500.0, 187500.0, -187500.02235174447, -187500.02235174447, -187500.02235174447, -187500.02235174447, -187500.02235174447, 0.018000000000000002, 0.048, 0.998, 192.0, 0.0, 144.0, 1.0, 128.0, 31.0, 48.0, 0.0, 0.0, 0.0, 1.675975558751331E9, 0.0, 2023-02-09 15:45:58.751
166.0, 5402.796614503457, 187500.0, 187500.0, -187500.02235174447, -187500.02235174447, -187500.02235174447, -187500.02235174447, -187500.02235174447, 0.018000000000000002, 0.048, 0.998, 192.0, 0.0, 0.0, 0.0, 0.0, 0.0, 0.0, 0.0, 0.0, 0.0, 1.675975558751357E9, 0.0, 2023-02-09 15:45:58.751
167.0, 5388.558553285427, 187500.0, 187500.0, -187500.02235174447, -187500.02235174447, -187500.02235174447, -187500.02235174447, -187500.02235174447, 0.018000000000000002, 0.048, 0.998, 192.0, 0.0, 0.0, 0.0, 0.0, 0.0, 0.0, 0.0, 0.0, 0.0, 1.67597555875925E9, 0.0, 2023-02-09 15:45:58.759
168.0, 6139.197187328004, 187500.0, 187500.0, -187500.02235174447, -187500.02235174447, -187500.02235174447, -187500.02235174447, -187500.02235174447, 0.018000000000000002, 0.048, 0.998, 192.0, 0.0, 0.0, 0.0, 0.0, 0.0, 0.0, 0.0, 0.0, 0.0, 1.675975558759277E9, 0.0, 2023-02-09 15:45:58.759
169.0, 5875.670120199933, 187500.0, 187500.0, -187500.02235174447, -187500.02235174447, -187500.02235174447, -187500.02235174447, -187500.02235174447, 0.018000000000000002, 0.048, 0.998, 192.0, 0.0, 0.0, 0.0, 0.0, 0.0, 0.0, 0.0, 0.0, 0.0, 1.675975558767305E9, 0.0, 2023-02-09 15:45:58.767
170.0, 5525.574746796459, 187500.0, 187500.0, -187500.02235174447, -187500.02235174447, -187500.02235174447, -187500.02235174447, -187500.02235174447, 0.018000000000000002, 0.048, 0.998, 192.0, 0.0, 0.0, 0.0, 0.0, 0.0, 0.0, 0.0, 0.0, 0.0, 1.675975558767329E9, 0.0, 2023-02-09 15:45:58.767
171.0, 6053.545302575267, 187500.0, 187500.0, -187500.02235174447, -187500.02235174447, -187500.02235174447, -187500.02235174447, -187500.02235174447, 0.018000000000000002, 0.048, 0.998, 192.0, 0.0, 0.0, 0.0, 0.0, 0.0, 0.0, 0.0, 0.0, 0.0, 1.675975558773901E9, 0.0, 2023-02-09 15:45:58.773
172.0, 5656.243044882184, 187500.0, 187500.0, -187500.02235174447, -187500.02235174447, -187500.02235174447, -187500.02235174447, -187500.02235174447, 0.018000000000000002, 0.048, 0.998, 192.0, 0.0, 0.0, 0.0, 0.0, 0.0, 0.0, 0.0, 0.0, 0.0, 1.675975558773926E9, 0.0, 2023-02-09 15:45:58.773
173.0, 5126.685515247049, 187500.0, 187500.0, -187500.02235174447, -187500.02235174447, -187500.02235174447, -187500.02235174447, -187500.02235174447, 0.018000000000000002, 0.048, 0.998, 192.0, 0.0, 0.0, 0.0, 0.0, 0.0, 0.0, 0.0, 0.0, 0.0, 1.675975558781746E9, 0.0, 2023-02-09 15:45:58.781
174.0, 5641.6697074973235, 187500.0, 187500.0, -187500.02235174447, -187500.02235174447, -187500.02235174447, -187500.02235174447, -187500.02235174447, 0.018000000000000002, 0.048, 0.998, 192.0, 0.0, 0.0, 0.0, 0.0, 0.0, 0.0, 0.0, 0.0, 0.0, 1.675975558781765E9, 0.0, 2023-02-09 15:45:58.781
175.0, 6291.926657191117, 187500.0, 187500.0, -187500.02235174447, -187500.02235174447, -187500.02235174447, -187500.02235174447, -187500.02235174447, 0.01, 0.048, 1.0, 192.0, 0.0, 80.0, 1.0, 128.0, 31.0, 64.0, 0.0, 0.0, 0.0, 1.675975558789853E9, 0.0, 2023-02-09 15:45:58.789
176.0, 6351.82933233134, 187500.0, 187500.0, -187500.02235174447, -187500.02235174447, -187500.02235174447, -187500.02235174447, -187500.02235174447, 0.01, 0.048, 1.0, 192.0, 0.0, 0.0, 0.0, 0.0, 0.0, 0.0, 0.0, 0.0, 0.0, 1.675975558789926E9, 0.0, 2023-02-09 15:45:58.789
177.0, 6290.742014734986, 187500.0, 187500.0, -187500.02235174447, -187500.02235174447, -187500.02235174447, -187500.02235174447, -187500.02235174447, 0.01, 0.048, 1.0, 192.0, 0.0, 0.0, 0.0, 0.0, 0.0, 0.0, 0.0, 0.0, 0.0, 1.675975558796839E9, 0.0, 2023-02-09 15:45:58.796
178.0, 5293.653046328192, 187500.0, 187500.0, -187500.02235174447, -187500.02235174447, -187500.02235174447, -187500.02235174447, -187500.02235174447, 0.01, 0.048, 1.0, 192.0, 0.0, 0.0, 0.0, 0.0, 0.0, 0.0, 0.0, 0.0, 0.0, 1.675975558796858E9, 0.0, 2023-02-09 15:45:58.796
179.0, 4744.738905994762, 187500.0, 187500.0, -187500.02235174447, -187500.02235174447, -187500.02235174447, -187500.02235174447, -187500.02235174447, 0.01, 0.048, 1.0, 192.0, 0.0, 0.0, 0.0, 0.0, 0.0, 0.0, 0.0, 0.0, 0.0, 1.675975558803634E9, 0.0, 2023-02-09 15:45:58.803
180.0, 5429.015210749532, 187500.0, 187500.0, -187500.02235174447, -187500.02235174447, -187500.02235174447, -187500.02235174447, -187500.02235174447, 0.01, 0.048, 1.0, 192.0, 0.0, 0.0, 0.0, 0.0, 0.0, 0.0, 0.0, 0.0, 0.0, 1.675975558811629E9, 0.0, 2023-02-09 15:45:58.811
181.0, 6072.097250473172, 187500.0, 187500.0, -187500.02235174447, -187500.02235174447, -187500.02235174447, -187500.02235174447, -187500.02235174447, 0.01, 0.048, 1.0, 192.0, 0.0, 0.0, 0.0, 0.0, 0.0, 0.0, 0.0, 0.0, 0.0, 1.675975558811653E9, 0.0, 2023-02-09 15:45:58.811
182.0, 6673.247417598655, 187500.0, 187500.0, -187500.02235174447, -187500.02235174447, -187500.02235174447, -187500.02235174447, -187500.02235174447, 0.01, 0.048, 1.0, 192.0, 0.0, 0.0, 0.0, 0.0, 0.0, 0.0, 0.0, 0.0, 0.0, 1.675975558819472E9, 0.0, 2023-02-09 15:45:58.819
183.0, 5606.622172191403, 187500.0, 187500.0, -187500.02235174447, -187500.02235174447, -187500.02235174447, -187500.02235174447, -187500.02235174447, 0.01, 0.048, 1.0, 192.0, 0.0, 0.0, 0.0, 0.0, 0.0, 0.0, 0.0, 0.0, 0.0, 1.675975558819487E9, 0.0, 2023-02-09 15:45:58.819
184.0, 5387.955056185134, 187500.0, 187500.0, -187500.02235174447, -187500.02235174447, -187500.02235174447, -187500.02235174447, -187500.02235174447, 0.014, 0.052000000000000005, 0.996, 192.0, 0.0, 112.0, 1.0, 160.0, 31.0, 32.0, 0.0, 0.0, 0.0, 1.67597555882665E9, 0.0, 2023-02-09 15:45:58.826
185.0, 5494.952856892688, 187500.0, 187500.0, -187500.02235174447, -187500.02235174447, -187500.02235174447, -187500.02235174447, -187500.02235174447, 0.014, 0.052000000000000005, 0.996, 192.0, 0.0, 0.0, 0.0, 0.0, 0.0, 0.0, 0.0, 0.0, 0.0, 1.675975558826707E9, 0.0, 2023-02-09 15:45:58.826
186.0, 5567.953654283721, 187500.0, 187500.0, -187500.02235174447, -187500.02235174447, -187500.02235174447, -187500.02235174447, -187500.02235174447, 0.014, 0.052000000000000005, 0.996, 192.0, 0.0, 0.0, 0.0, 0.0, 0.0, 0.0, 0.0, 0.0, 0.0, 1.67597555883424E9, 0.0, 2023-02-09 15:45:58.834
187.0, 5604.610515190425, 187500.0, 187500.0, -187500.02235174447, -187500.02235174447, -187500.02235174447, -187500.02235174447, -187500.02235174447, 0.014, 0.052000000000000005, 0.996, 192.0, 0.0, 0.0, 0.0, 0.0, 0.0, 0.0, 0.0, 0.0, 0.0, 1.675975558834263E9, 0.0, 2023-02-09 15:45:58.834
188.0, 5757.943482153832, 187500.0, 187500.0, -187500.02235174447, -187500.02235174447, -187500.02235174447, -187500.02235174447, -187500.02235174447, 0.014, 0.052000000000000005, 0.996, 192.0, 0.0, 0.0, 0.0, 0.0, 0.0, 0.0, 0.0, 0.0, 0.0, 1.675975558842148E9, 0.0, 2023-02-09 15:45:58.842
189.0, 5757.272929820172, 187500.0, 187500.0, -187500.02235174447, -187500.02235174447, -187500.02235174447, -187500.02235174447, -187500.02235174447, 0.014, 0.052000000000000005, 0.996, 192.0, 0.0, 0.0, 0.0, 0.0, 0.0, 0.0, 0.0, 0.0, 0.0, 1.675975558842175E9, 0.0, 2023-02-09 15:45:58.842
190.0, 5940.668993075967, 187500.0, 187500.0, -187500.02235174447, -187500.02235174447, -187500.02235174447, -187500.02235174447, -187500.02235174447, 0.014, 0.052000000000000005, 0.996, 192.0, 0.0, 0.0, 0.0, 0.0, 0.0, 0.0, 0.0, 0.0, 0.0, 1.675975558870981E9, 0.0, 2023-02-09 15:45:58.870
191.0, 5514.890612946822, 187500.0, 187500.0, -187500.02235174447, -187500.02235174447, -187500.02235174447, -187500.02235174447, -187500.02235174447, 0.014, 0.052000000000000005, 0.996, 192.0, 0.0, 0.0, 0.0, 0.0, 0.0, 0.0, 0.0, 0.0, 0.0, 1.67597555887109E9, 0.0, 2023-02-09 15:45:58.871
192.0, 5221.434559993096, 187500.0, 187500.0, -187500.02235174447, -187500.02235174447, -187500.02235174447, -187500.02235174447, -187500.02235174447, 0.014, 0.052000000000000005, 0.996, 192.0, 0.0, 0.0, 0.0, 0.0, 0.0, 0.0, 0.0, 0.0, 0.0, 1.675975558871111E9, 0.0, 2023-02-09 15:45:58.871
193.0, 5592.831145862478, 187500.0, 187500.0, -187500.02235174447, -187500.02235174447, -187500.02235174447, -187500.02235174447, -187500.02235174447, 0.014, 0.052000000000000005, 0.996, 192.0, 0.0, 0.0, 0.0, 0.0, 0.0, 0.0, 0.0, 0.0, 0.0, 1.675975558871122E9, 0.0, 2023-02-09 15:45:58.871
194.0, 5881.5709807361345, 187500.0, 187500.0, -187500.02235174447, -187500.02235174447, -187500.02235174447, -187500.02235174447, -187500.02235174447, 0.014, 0.05, 0.998, 192.0, 0.0, 112.0, 1.0, 144.0, 31.0, 48.0, 0.0, 0.0, 0.0, 1.675975558871279E9, 0.0, 2023-02-09 15:45:58.871
195.0, 5720.280792746639, 187500.0, 187500.0, -187500.02235174447, -187500.02235174447, -187500.02235174447, -187500.02235174447, -187500.02235174447, 0.014, 0.05, 0.998, 192.0, 0.0, 0.0, 0.0, 0.0, 0.0, 0.0, 0.0, 0.0, 0.0, 1.675975558871698E9, 0.0, 2023-02-09 15:45:58.871
196.0, 5751.126200094963, 187500.0, 187500.0, -187500.02235174447, -187500.02235174447, -187500.02235174447, -187500.02235174447, -187500.02235174447, 0.014, 0.05, 0.998, 192.0, 0.0, 0.0, 0.0, 0.0, 0.0, 0.0, 0.0, 0.0, 0.0, 1.67597555887171E9, 0.0, 2023-02-09 15:45:58.871
197.0, 5784.7655755002, 187500.0, 187500.0, -187500.02235174447, -187500.02235174447, -187500.02235174447, -187500.02235174447, -187500.02235174447, 0.014, 0.05, 0.998, 192.0, 0.0, 0.0, 0.0, 0.0, 0.0, 0.0, 0.0, 0.0, 0.0, 1.675975558879846E9, 0.0, 2023-02-09 15:45:58.879
198.0, 5362.004680872522, 187500.0, 187500.0, -187500.02235174447, -187500.02235174447, -187500.02235174447, -187500.02235174447, -187500.02235174447, 0.014, 0.05, 0.998, 192.0, 0.0, 0.0, 0.0, 0.0, 0.0, 0.0, 0.0, 0.0, 0.0, 1.675975558879873E9, 0.0, 2023-02-09 15:45:58.879
199.0, 5897.686588488411, 187500.0, 187500.0, -187500.02235174447, -187500.02235174447, -187500.02235174447, -187500.02235174447, -187500.02235174447, 0.014, 0.05, 0.998, 192.0, 0.0, 0.0, 0.0, 0.0, 0.0, 0.0, 0.0, 0.0, 0.0, 1.675975558886449E9, 0.0, 2023-02-09 15:45:58.886
200.0, 5878.061756856651, 187500.0, 187500.0, -187500.02235174447, -187500.02235174447, -187500.02235174447, -187500.02235174447, -187500.02235174447, 0.014, 0.05, 0.998, 192.0, 0.0, 0.0, 0.0, 0.0, 0.0, 0.0, 0.0, 0.0, 0.0, 1.675975558886469E9, 0.0, 2023-02-09 15:45:58.886
201.0, 5489.65549345678, 187500.0, 187500.0, -187500.02235174447, -187500.02235174447, -187500.02235174447, -187500.02235174447, -187500.02235174447, 0.014, 0.05, 0.998, 192.0, 0.0, 0.0, 0.0, 0.0, 0.0, 0.0, 0.0, 0.0, 0.0, 1.675975558894473E9, 0.0, 2023-02-09 15:45:58.894
202.0, 5646.184759877296, 187500.0, 187500.0, -187500.02235174447, -187500.02235174447, -187500.02235174447, -187500.02235174447, -187500.02235174447, 0.014, 0.05, 0.998, 192.0, 0.0, 0.0, 0.0, 0.0, 0.0, 0.0, 0.0, 0.0, 0.0, 1.675975558894492E9, 0.0, 2023-02-09 15:45:58.894
203.0, 5502.530098263037, 187500.0, 187500.0, -187500.02235174447, -187500.02235174447, -187500.02235174447, -187500.02235174447, -187500.02235174447, 0.014, 0.05, 0.998, 192.0, 0.0, 0.0, 0.0, 0.0, 0.0, 0.0, 0.0, 0.0, 0.0, 1.675975558902495E9, 0.0, 2023-02-09 15:45:58.902
204.0, 5610.421968748805, 187500.0, 187500.0, -187500.02235174447, -187500.02235174447, -187500.02235174447, -187500.02235174447, -187500.02235174447, 0.016, 0.056, 0.996, 192.0, 0.0, 128.0, 1.0, 192.0, 31.0, 32.0, 0.0, 0.0, 0.0, 1.675975558902512E9, 0.0, 2023-02-09 15:45:58.902
205.0, 5746.052354103608, 187500.0, 187500.0, -187500.02235174447, -187500.02235174447, -187500.02235174447, -187500.02235174447, -187500.02235174447, 0.016, 0.056, 0.996, 192.0, 0.0, 0.0, 0.0, 0.0, 0.0, 0.0, 0.0, 0.0, 0.0, 1.675975558909669E9, 0.0, 2023-02-09 15:45:58.909
206.0, 5726.651039916402, 187500.0, 187500.0, -187500.02235174447, -187500.02235174447, -187500.02235174447, -187500.02235174447, -187500.02235174447, 0.016, 0.056, 0.996, 192.0, 0.0, 0.0, 0.0, 0.0, 0.0, 0.0, 0.0, 0.0, 0.0, 1.675975558909735E9, 0.0, 2023-02-09 15:45:58.909
207.0, 5944.334679166637, 187500.0, 187500.0, -187500.02235174447, -187500.02235174447, -187500.02235174447, -187500.02235174447, -187500.02235174447, 0.016, 0.056, 0.996, 192.0, 0.0, 0.0, 0.0, 0.0, 0.0, 0.0, 0.0, 0.0, 0.0, 1.675975558917031E9, 0.0, 2023-02-09 15:45:58.917
208.0, 5542.606776071403, 187500.0, 187500.0, -187500.02235174447, -187500.02235174447, -187500.02235174447, -187500.02235174447, -187500.02235174447, 0.016, 0.056, 0.996, 192.0, 0.0, 0.0, 0.0, 0.0, 0.0, 0.0, 0.0, 0.0, 0.0, 1.675975558917051E9, 0.0, 2023-02-09 15:45:58.917
209.0, 5408.138681428276, 187500.0, 187500.0, -187500.02235174447, -187500.02235174447, -187500.02235174447, -187500.02235174447, -187500.02235174447, 0.016, 0.056, 0.996, 192.0, 0.0, 0.0, 0.0, 0.0, 0.0, 0.0, 0.0, 0.0, 0.0, 1.675975558924097E9, 0.0, 2023-02-09 15:45:58.924
210.0, 5840.376715705003, 187500.0, 187500.0, -187500.02235174447, -187500.02235174447, -187500.02235174447, -187500.02235174447, -187500.02235174447, 0.016, 0.056, 0.996, 192.0, 0.0, 0.0, 0.0, 0.0, 0.0, 0.0, 0.0, 0.0, 0.0, 1.675975558932224E9, 0.0, 2023-02-09 15:45:58.932
211.0, 5548.3958778853275, 187500.0, 187500.0, -187500.02235174447, -187500.02235174447, -187500.02235174447, -187500.02235174447, -187500.02235174447, 0.016, 0.056, 0.996, 192.0, 0.0, 0.0, 0.0, 0.0, 0.0, 0.0, 0.0, 0.0, 0.0, 1.675975558932252E9, 0.0, 2023-02-09 15:45:58.932
212.0, 5624.928250900299, 187500.0, 187500.0, -187500.02235174447, -187500.02235174447, -187500.02235174447, -187500.02235174447, -187500.02235174447, 0.016, 0.056, 0.996, 192.0, 0.0, 0.0, 0.0, 0.0, 0.0, 0.0, 0.0, 0.0, 0.0, 1.675975558938802E9, 0.0, 2023-02-09 15:45:58.938
213.0, 6058.395631122069, 187500.0, 187500.0, -187500.02235174447, -187500.02235174447, -187500.02235174447, -187500.02235174447, -187500.02235174447, 0.016, 0.056, 0.996, 192.0, 0.0, 0.0, 0.0, 0.0, 0.0, 0.0, 0.0, 0.0, 0.0, 1.675975558938822E9, 0.0, 2023-02-09 15:45:58.938
214.0, 5760.7598019552, 187500.0, 187500.0, -187500.02235174447, -187500.02235174447, -187500.02235174447, -187500.02235174447, -187500.02235174447, 0.016, 0.052000000000000005, 0.998, 192.0, 0.0, 128.0, 1.0, 160.0, 31.0, 48.0, 0.0, 0.0, 0.0, 1.675975558946784E9, 0.0, 2023-02-09 15:45:58.946
215.0, 5683.780394051122, 187500.0, 187500.0, -187500.02235174447, -187500.02235174447, -187500.02235174447, -187500.02235174447, -187500.02235174447, 0.016, 0.052000000000000005, 0.998, 192.0, 0.0, 0.0, 0.0, 0.0, 0.0, 0.0, 0.0, 0.0, 0.0, 1.675975558946801E9, 0.0, 2023-02-09 15:45:58.946
216.0, 5854.123038545017, 187500.0, 187500.0, -187500.02235174447, -187500.02235174447, -187500.02235174447, -187500.02235174447, -187500.02235174447, 0.016, 0.052000000000000005, 0.998, 192.0, 0.0, 0.0, 0.0, 0.0, 0.0, 0.0, 0.0, 0.0, 0.0, 1.67597555895476E9, 0.0, 2023-02-09 15:45:58.954
217.0, 5691.55880112157, 187500.0, 187500.0, -187500.02235174447, -187500.02235174447, -187500.02235174447, -187500.02235174447, -187500.02235174447, 0.016, 0.052000000000000005, 0.998, 192.0, 0.0, 0.0, 0.0, 0.0, 0.0, 0.0, 0.0, 0.0, 0.0, 1.675975558954779E9, 0.0, 2023-02-09 15:45:58.954
218.0, 5450.606995893359, 187500.0, 187500.0, -187500.02235174447, -187500.02235174447, -187500.02235174447, -187500.02235174447, -187500.02235174447, 0.016, 0.052000000000000005, 0.998, 192.0, 0.0, 0.0, 0.0, 0.0, 0.0, 0.0, 0.0, 0.0, 0.0, 1.675975558961934E9, 0.0, 2023-02-09 15:45:58.961
219.0, 5481.407699752772, 187500.0, 187500.0, -187500.02235174447, -187500.02235174447, -187500.02235174447, -187500.02235174447, -187500.02235174447, 0.016, 0.052000000000000005, 0.998, 192.0, 0.0, 0.0, 0.0, 0.0, 0.0, 0.0, 0.0, 0.0, 0.0, 1.675975558961947E9, 0.0, 2023-02-09 15:45:58.961
220.0, 6030.679467997488, 187500.0, 187500.0, -187500.02235174447, -187500.02235174447, -187500.02235174447, -187500.02235174447, -187500.02235174447, 0.016, 0.052000000000000005, 0.998, 192.0, 0.0, 0.0, 0.0, 0.0, 0.0, 0.0, 0.0, 0.0, 0.0, 1.675975558969448E9, 0.0, 2023-02-09 15:45:58.969
221.0, 6482.967017050626, 187500.0, 187500.0, -187500.02235174447, -187500.02235174447, -187500.02235174447, -187500.02235174447, -187500.02235174447, 0.016, 0.052000000000000005, 0.998, 192.0, 0.0, 0.0, 0.0, 0.0, 0.0, 0.0, 0.0, 0.0, 0.0, 1.675975558969509E9, 0.0, 2023-02-09 15:45:58.969
222.0, 5641.625004008413, 187500.0, 187500.0, -187500.02235174447, -187500.02235174447, -187500.02235174447, -187500.02235174447, -187500.02235174447, 0.016, 0.052000000000000005, 0.998, 192.0, 0.0, 0.0, 0.0, 0.0, 0.0, 0.0, 0.0, 0.0, 0.0, 1.675975558977415E9, 0.0, 2023-02-09 15:45:58.977
223.0, 5312.406159926196, 187500.0, 187500.0, -187500.02235174447, -187500.02235174447, -187500.02235174447, -187500.02235174447, -187500.02235174447, 0.016, 0.052000000000000005, 0.998, 192.0, 0.0, 0.0, 0.0, 0.0, 0.0, 0.0, 0.0, 0.0, 0.0, 1.67597555897744E9, 0.0, 2023-02-09 15:45:58.977
224.0, 5416.11825419882, 187500.0, 187500.0, -187500.02235174447, -187500.02235174447, -187500.02235174447, -187500.02235174447, -187500.02235174447, 0.016, 0.048, 0.996, 192.0, 0.0, 128.0, 1.0, 128.0, 31.0, 32.0, 0.0, 0.0, 0.0, 1.675975558984456E9, 0.0, 2023-02-09 15:45:58.984
225.0, 5760.513932766192, 187500.0, 187500.0, -187500.02235174447, -187500.02235174447, -187500.02235174447, -187500.02235174447, -187500.02235174447, 0.016, 0.048, 0.996, 192.0, 0.0, 0.0, 0.0, 0.0, 0.0, 0.0, 0.0, 0.0, 0.0, 1.675975558991744E9, 0.0, 2023-02-09 15:45:58.991
226.0, 5545.758372039601, 187500.0, 187500.0, -187500.02235174447, -187500.02235174447, -187500.02235174447, -187500.02235174447, -187500.02235174447, 0.016, 0.048, 0.996, 192.0, 0.0, 0.0, 0.0, 0.0, 0.0, 0.0, 0.0, 0.0, 0.0, 1.675975558991761E9, 0.0, 2023-02-09 15:45:58.991
227.0, 5679.131231204418, 187500.0, 187500.0, -187500.02235174447, -187500.02235174447, -187500.02235174447, -187500.02235174447, -187500.02235174447, 0.016, 0.048, 0.996, 192.0, 0.0, 0.0, 0.0, 0.0, 0.0, 0.0, 0.0, 0.0, 0.0, 1.675975558999176E9, 0.0, 2023-02-09 15:45:58.999
228.0, 5967.6251968890665, 187500.0, 187500.0, -187500.02235174447, -187500.02235174447, -187500.02235174447, -187500.02235174447, -187500.02235174447, 0.016, 0.048, 0.996, 192.0, 0.0, 0.0, 0.0, 0.0, 0.0, 0.0, 0.0, 0.0, 0.0, 1.675975558999198E9, 0.0, 2023-02-09 15:45:58.999
229.0, 5792.186354659361, 187500.0, 187500.0, -187500.02235174447, -187500.02235174447, -187500.02235174447, -187500.02235174447, -187500.02235174447, 0.016, 0.048, 0.996, 192.0, 0.0, 0.0, 0.0, 0.0, 0.0, 0.0, 0.0, 0.0, 0.0, 1.675975559007147E9, 0.0, 2023-02-09 15:45:59.007
230.0, 5780.04935742013, 187500.0, 187500.0, -187500.02235174447, -187500.02235174447, -187500.02235174447, -187500.02235174447, -187500.02235174447, 0.016, 0.048, 0.996, 192.0, 0.0, 0.0, 0.0, 0.0, 0.0, 0.0, 0.0, 0.0, 0.0, 1.675975559007169E9, 0.0, 2023-02-09 15:45:59.007
231.0, 5681.1205364609405, 187500.0, 187500.0, -187500.02235174447, -187500.02235174447, -187500.02235174447, -187500.02235174447, -187500.02235174447, 0.016, 0.048, 0.996, 192.0, 0.0, 0.0, 0.0, 0.0, 0.0, 0.0, 0.0, 0.0, 0.0, 1.675975559015092E9, 0.0, 2023-02-09 15:45:59.015
232.0, 5486.70506318868, 187500.0, 187500.0, -187500.02235174447, -187500.02235174447, -187500.02235174447, -187500.02235174447, -187500.02235174447, 0.016, 0.048, 0.996, 192.0, 0.0, 0.0, 0.0, 0.0, 0.0, 0.0, 0.0, 0.0, 0.0, 1.675975559015113E9, 0.0, 2023-02-09 15:45:59.015
233.0, 5456.753725618569, 187500.0, 187500.0, -187500.02235174447, -187500.02235174447, -187500.02235174447, -187500.02235174447, -187500.02235174447, 0.016, 0.048, 0.996, 192.0, 0.0, 0.0, 0.0, 0.0, 0.0, 0.0, 0.0, 0.0, 0.0, 1.675975559021653E9, 0.0, 2023-02-09 15:45:59.021
234.0, 5631.92434691481, 187500.0, 187500.0, -187500.02235174447, -187500.02235174447, -187500.02235174447, -187500.02235174447, -187500.02235174447, 0.02, 0.048, 1.004, 192.0, 0.0, 160.0, 1.0, 128.0, 31.0, 96.0, 0.0, 0.0, 0.0, 1.675975559021678E9, 0.0, 2023-02-09 15:45:59.021
235.0, 6233.365086718212, 187500.0, 187500.0, -187500.02235174447, -187500.02235174447, -187500.02235174447, -187500.02235174447, -187500.02235174447, 0.02, 0.048, 1.004, 192.0, 0.0, 0.0, 0.0, 0.0, 0.0, 0.0, 0.0, 0.0, 0.0, 1.675975559029704E9, 0.0, 2023-02-09 15:45:59.029
236.0, 6553.509122551575, 187500.0, 187500.0, -187500.02235174447, -187500.02235174447, -187500.02235174447, -187500.02235174447, -187500.02235174447, 0.02, 0.048, 1.004, 192.0, 0.0, 0.0, 0.0, 0.0, 0.0, 0.0, 0.0, 0.0, 0.0, 1.675975559029759E9, 0.0, 2023-02-09 15:45:59.029
237.0, 5212.449158722063, 187500.0, 187500.0, -187500.02235174447, -187500.02235174447, -187500.02235174447, -187500.02235174447, -187500.02235174447, 0.02, 0.048, 1.004, 192.0, 0.0, 0.0, 0.0, 0.0, 0.0, 0.0, 0.0, 0.0, 0.0, 1.67597555903777E9, 0.0, 2023-02-09 15:45:59.037
238.0, 5144.030468944367, 187500.0, 187500.0, -187500.02235174447, -187500.02235174447, -187500.02235174447, -187500.02235174447, -187500.02235174447, 0.02, 0.048, 1.004, 192.0, 0.0, 0.0, 0.0, 0.0, 0.0, 0.0, 0.0, 0.0, 0.0, 1.675975559037826E9, 0.0, 2023-02-09 15:45:59.037
239.0, 5816.616811349012, 187500.0, 187500.0, -187500.02235174447, -187500.02235174447, -187500.02235174447, -187500.02235174447, -187500.02235174447, 0.02, 0.048, 1.004, 192.0, 0.0, 0.0, 0.0, 0.0, 0.0, 0.0, 0.0, 0.0, 0.0, 1.675975559045066E9, 0.0, 2023-02-09 15:45:59.045
240.0, 6211.616839363199, 187500.0, 187500.0, -187500.02235174447, -187500.02235174447, -187500.02235174447, -187500.02235174447, -187500.02235174447, 0.02, 0.048, 1.004, 192.0, 0.0, 0.0, 0.0, 0.0, 0.0, 0.0, 0.0, 0.0, 0.0, 1.675975559045081E9, 0.0, 2023-02-09 15:45:59.045
241.0, 5677.633664325913, 187500.0, 187500.0, -187500.02235174447, -187500.02235174447, -187500.02235174447, -187500.02235174447, -187500.02235174447, 0.02, 0.048, 1.004, 192.0, 0.0, 0.0, 0.0, 0.0, 0.0, 0.0, 0.0, 0.0, 0.0, 1.675975559051323E9, 0.0, 2023-02-09 15:45:59.051
242.0, 5482.033548597521, 187500.0, 187500.0, -187500.02235174447, -187500.02235174447, -187500.02235174447, -187500.02235174447, -187500.02235174447, 0.02, 0.048, 1.004, 192.0, 0.0, 0.0, 0.0, 0.0, 0.0, 0.0, 0.0, 0.0, 0.0, 1.675975559059413E9, 0.0, 2023-02-09 15:45:59.059
243.0, 5526.602927041403, 187500.0, 187500.0, -187500.02235174447, -187500.02235174447, -187500.02235174447, -187500.02235174447, -187500.02235174447, 0.018000000000000002, 0.042, 0.998, 192.0, 0.0, 144.0, 1.0, 80.0, 31.0, 48.0, 0.0, 0.0, 0.0, 1.675975559059436E9, 0.0, 2023-02-09 15:45:59.059
244.0, 5610.310210026528, 187500.0, 187500.0, -187500.02235174447, -187500.02235174447, -187500.02235174447, -187500.02235174447, -187500.02235174447, 0.018000000000000002, 0.042, 0.998, 192.0, 0.0, 0.0, 0.0, 0.0, 0.0, 0.0, 0.0, 0.0, 0.0, 1.675975559067356E9, 0.0, 2023-02-09 15:45:59.067
245.0, 5558.163590212297, 187500.0, 187500.0, -187500.02235174447, -187500.02235174447, -187500.02235174447, -187500.02235174447, -187500.02235174447, 0.018000000000000002, 0.042, 0.998, 192.0, 0.0, 0.0, 0.0, 0.0, 0.0, 0.0, 0.0, 0.0, 0.0, 1.675975559067381E9, 0.0, 2023-02-09 15:45:59.067
246.0, 5604.789329146067, 187500.0, 187500.0, -187500.02235174447, -187500.02235174447, -187500.02235174447, -187500.02235174447, -187500.02235174447, 0.018000000000000002, 0.042, 0.998, 192.0, 0.0, 0.0, 0.0, 0.0, 0.0, 0.0, 0.0, 0.0, 0.0, 1.675975559074706E9, 0.0, 2023-02-09 15:45:59.074
247.0, 5758.61403448749, 187500.0, 187500.0, -187500.02235174447, -187500.02235174447, -187500.02235174447, -187500.02235174447, -187500.02235174447, 0.018000000000000002, 0.042, 0.998, 192.0, 0.0, 0.0, 0.0, 0.0, 0.0, 0.0, 0.0, 0.0, 0.0, 1.675975559074727E9, 0.0, 2023-02-09 15:45:59.074
248.0, 5871.870323642532, 187500.0, 187500.0, -187500.02235174447, -187500.02235174447, -187500.02235174447, -187500.02235174447, -187500.02235174447, 0.018000000000000002, 0.042, 0.998, 192.0, 0.0, 0.0, 0.0, 0.0, 0.0, 0.0, 0.0, 0.0, 0.0, 1.675975559081939E9, 0.0, 2023-02-09 15:45:59.081
249.0, 5719.207909012784, 187500.0, 187500.0, -187500.02235174447, -187500.02235174447, -187500.02235174447, -187500.02235174447, -187500.02235174447, 0.018000000000000002, 0.042, 0.998, 192.0, 0.0, 0.0, 0.0, 0.0, 0.0, 0.0, 0.0, 0.0, 0.0, 1.675975559081956E9, 0.0, 2023-02-09 15:45:59.081
250.0, 5732.842473130521, 187500.0, 187500.0, -187500.02235174447, -187500.02235174447, -187500.02235174447, -187500.02235174447, -187500.02235174447, 0.018000000000000002, 0.042, 0.998, 192.0, 0.0, 0.0, 0.0, 0.0, 0.0, 0.0, 0.0, 0.0, 0.0, 1.675975559090069E9, 0.0, 2023-02-09 15:45:59.090
251.0, 5695.425652912338, 187500.0, 187500.0, -187500.02235174447, -187500.02235174447, -187500.02235174447, -187500.02235174447, -187500.02235174447, 0.018000000000000002, 0.042, 0.998, 192.0, 0.0, 0.0, 0.0, 0.0, 0.0, 0.0, 0.0, 0.0, 0.0, 1.675975559090094E9, 0.0, 2023-02-09 15:45:59.090
252.0, 5635.947660916765, 187500.0, 187500.0, -187500.02235174447, -187500.02235174447, -187500.02235174447, -187500.02235174447, -187500.02235174447, 0.018000000000000002, 0.042, 0.998, 192.0, 0.0, 0.0, 0.0, 0.0, 0.0, 0.0, 0.0, 0.0, 0.0, 1.675975559098103E9, 0.0, 2023-02-09 15:45:59.098
253.0, 5579.375395700383, 187500.0, 187500.0, -187500.02235174447, -187500.02235174447, -187500.02235174447, -187500.02235174447, -187500.02235174447, 0.016, 0.052000000000000005, 0.998, 192.0, 0.0, 128.0, 1.0, 160.0, 31.0, 48.0, 0.0, 0.0, 0.0, 1.675975559098119E9, 0.0, 2023-02-09 15:45:59.098
254.0, 5756.378860041959, 187500.0, 187500.0, -187500.02235174447, -187500.02235174447, -187500.02235174447, -187500.02235174447, -187500.02235174447, 0.016, 0.052000000000000005, 0.998, 192.0, 0.0, 0.0, 0.0, 0.0, 0.0, 0.0, 0.0, 0.0, 0.0, 1.67597555910463E9, 0.0, 2023-02-09 15:45:59.104
255.0, 6753.870159848948, 187500.0, 187500.0, -187500.02235174447, -187500.02235174447, -187500.02235174447, -187500.02235174447, -187500.02235174447, 0.016, 0.052000000000000005, 0.998, 192.0, 0.0, 0.0, 0.0, 0.0, 0.0, 0.0, 0.0, 0.0, 0.0, 1.67597555910465E9, 0.0, 2023-02-09 15:45:59.104
0.0, 5912.014056684263, 187500.0, 187500.0, -187500.02235174447, -187500.02235174447, -187500.02235174447, -187500.02235174447, -187500.02235174447, 0.016, 0.052000000000000005, 0.998, 192.0, 0.0, 0.0, 0.0, 0.0, 0.0, 0.0, 0.0, 0.0, 0.0, 1.675975559111642E9, 0.0, 2023-02-09 15:45:59.111
1.0, 5182.207248474032, 187500.0, 187500.0, -187500.02235174447, -187500.02235174447, -187500.02235174447, -187500.02235174447, -187500.02235174447, 0.016, 0.052000000000000005, 0.998, 192.0, 0.0, 0.0, 0.0, 0.0, 0.0, 0.0, 0.0, 0.0, 0.0, 1.675975559119621E9, 0.0, 2023-02-09 15:45:59.119
2.0, 5847.5292739307015, 187500.0, 187500.0, -187500.02235174447, -187500.02235174447, -187500.02235174447, -187500.02235174447, -187500.02235174447, 0.016, 0.052000000000000005, 0.998, 192.0, 0.0, 0.0, 0.0, 0.0, 0.0, 0.0, 0.0, 0.0, 0.0, 1.675975559119697E9, 0.0, 2023-02-09 15:45:59.119
3.0, 5603.492927967659, 187500.0, 187500.0, -187500.02235174447, -187500.02235174447, -187500.02235174447, -187500.02235174447, -187500.02235174447, 0.016, 0.052000000000000005, 0.998, 192.0, 0.0, 0.0, 0.0, 0.0, 0.0, 0.0, 0.0, 0.0, 0.0, 1.6759755591267E9, 0.0, 2023-02-09 15:45:59.126
4.0, 5238.46658926804, 187500.0, 187500.0, -187500.02235174447, -187500.02235174447, -187500.02235174447, -187500.02235174447, -187500.02235174447, 0.016, 0.052000000000000005, 0.998, 192.0, 0.0, 0.0, 0.0, 0.0, 0.0, 0.0, 0.0, 0.0, 0.0, 1.675975559126718E9, 0.0, 2023-02-09 15:45:59.126
5.0, 5388.06681490741, 187500.0, 187500.0, -187500.02235174447, -187500.02235174447, -187500.02235174447, -187500.02235174447, -187500.02235174447, 0.016, 0.052000000000000005, 0.998, 192.0, 0.0, 0.0, 0.0, 0.0, 0.0, 0.0, 0.0, 0.0, 0.0, 1.675975559134192E9, 0.0, 2023-02-09 15:45:59.134
6.0, 5713.619972898958, 187500.0, 187500.0, -187500.02235174447, -187500.02235174447, -187500.02235174447, -187500.02235174447, -187500.02235174447, 0.016, 0.052000000000000005, 0.998, 192.0, 0.0, 0.0, 0.0, 0.0, 0.0, 0.0, 0.0, 0.0, 0.0, 1.67597555913421E9, 0.0, 2023-02-09 15:45:59.134
7.0, 6057.970947977418, 187500.0, 187500.0, -187500.02235174447, -187500.02235174447, -187500.02235174447, -187500.02235174447, -187500.02235174447, 0.018000000000000002, 0.05, 0.998, 192.0, 0.0, 144.0, 1.0, 144.0, 31.0, 48.0, 0.0, 0.0, 0.0, 1.675975559142201E9, 0.0, 2023-02-09 15:45:59.142
8.0, 5648.218768622729, 187500.0, 187500.0, -187500.02235174447, -187500.02235174447, -187500.02235174447, -187500.02235174447, -187500.02235174447, 0.018000000000000002, 0.05, 0.998, 192.0, 0.0, 0.0, 0.0, 0.0, 0.0, 0.0, 0.0, 0.0, 0.0, 1.675975559142219E9, 0.0, 2023-02-09 15:45:59.142
9.0, 5775.4448980623365, 187500.0, 187500.0, -187500.02235174447, -187500.02235174447, -187500.02235174447, -187500.02235174447, -187500.02235174447, 0.018000000000000002, 0.05, 0.998, 192.0, 0.0, 0.0, 0.0, 0.0, 0.0, 0.0, 0.0, 0.0, 0.0, 1.675975559150272E9, 0.0, 2023-02-09 15:45:59.150
10.0, 6043.15174140355, 187500.0, 187500.0, -187500.02235174447, -187500.02235174447, -187500.02235174447, -187500.02235174447, -187500.02235174447, 0.018000000000000002, 0.05, 0.998, 192.0, 0.0, 0.0, 0.0, 0.0, 0.0, 0.0, 0.0, 0.0, 0.0, 1.675975559150294E9, 0.0, 2023-02-09 15:45:59.150
11.0, 5649.492818056681, 187500.0, 187500.0, -187500.02235174447, -187500.02235174447, -187500.02235174447, -187500.02235174447, -187500.02235174447, 0.018000000000000002, 0.05, 0.998, 192.0, 0.0, 0.0, 0.0, 0.0, 0.0, 0.0, 0.0, 0.0, 0.0, 1.675975559156856E9, 0.0, 2023-02-09 15:45:59.156
12.0, 5495.019912126054, 187500.0, 187500.0, -187500.02235174447, -187500.02235174447, -187500.02235174447, -187500.02235174447, -187500.02235174447, 0.018000000000000002, 0.05, 0.998, 192.0, 0.0, 0.0, 0.0, 0.0, 0.0, 0.0, 0.0, 0.0, 0.0, 1.67597555915687E9, 0.0, 2023-02-09 15:45:59.156
13.0, 5445.756667346557, 187500.0, 187500.0, -187500.02235174447, -187500.02235174447, -187500.02235174447, -187500.02235174447, -187500.02235174447, 0.018000000000000002, 0.05, 0.998, 192.0, 0.0, 0.0, 0.0, 0.0, 0.0, 0.0, 0.0, 0.0, 0.0, 1.675975559164971E9, 0.0, 2023-02-09 15:45:59.164
14.0, 5547.345345895928, 187500.0, 187500.0, -187500.02235174447, -187500.02235174447, -187500.02235174447, -187500.02235174447, -187500.02235174447, 0.018000000000000002, 0.05, 0.998, 192.0, 0.0, 0.0, 0.0, 0.0, 0.0, 0.0, 0.0, 0.0, 0.0, 1.675975559164996E9, 0.0, 2023-02-09 15:45:59.164
15.0, 5809.888936267965, 187500.0, 187500.0, -187500.02235174447, -187500.02235174447, -187500.02235174447, -187500.02235174447, -187500.02235174447, 0.018000000000000002, 0.05, 0.998, 192.0, 0.0, 0.0, 0.0, 0.0, 0.0, 0.0, 0.0, 0.0, 0.0, 1.675975559171962E9, 0.0, 2023-02-09 15:45:59.171
16.0, 5767.554732269613, 187500.0, 187500.0, -187500.02235174447, -187500.02235174447, -187500.02235174447, -187500.02235174447, -187500.02235174447, 0.018000000000000002, 0.05, 0.998, 192.0, 0.0, 0.0, 0.0, 0.0, 0.0, 0.0, 0.0, 0.0, 0.0, 1.675975559179924E9, 0.0, 2023-02-09 15:45:59.179
17.0, 5549.692279063735, 187500.0, 187500.0, -187500.02235174447, -187500.02235174447, -187500.02235174447, -187500.02235174447, -187500.02235174447, 0.02, 0.05, 0.996, 192.0, 0.0, 160.0, 1.0, 144.0, 31.0, 32.0, 0.0, 0.0, 0.0, 1.675975559179949E9, 0.0, 2023-02-09 15:45:59.179
18.0, 5636.171178361318, 187500.0, 187500.0, -187500.02235174447, -187500.02235174447, -187500.02235174447, -187500.02235174447, -187500.02235174447, 0.02, 0.05, 0.996, 192.0, 0.0, 0.0, 0.0, 0.0, 0.0, 0.0, 0.0, 0.0, 0.0, 1.675975559186599E9, 0.0, 2023-02-09 15:45:59.186
19.0, 6252.878159627696, 187500.0, 187500.0, -187500.02235174447, -187500.02235174447, -187500.02235174447, -187500.02235174447, -187500.02235174447, 0.02, 0.05, 0.996, 192.0, 0.0, 0.0, 0.0, 0.0, 0.0, 0.0, 0.0, 0.0, 0.0, 1.675975559186621E9, 0.0, 2023-02-09 15:45:59.186
20.0, 6485.336301962889, 187500.0, 187500.0, -187500.02235174447, -187500.02235174447, -187500.02235174447, -187500.02235174447, -187500.02235174447, 0.02, 0.05, 0.996, 192.0, 0.0, 0.0, 0.0, 0.0, 0.0, 0.0, 0.0, 0.0, 0.0, 1.675975559194486E9, 0.0, 2023-02-09 15:45:59.194
21.0, 5787.514840068203, 187500.0, 187500.0, -187500.02235174447, -187500.02235174447, -187500.02235174447, -187500.02235174447, -187500.02235174447, 0.02, 0.05, 0.996, 192.0, 0.0, 0.0, 0.0, 0.0, 0.0, 0.0, 0.0, 0.0, 0.0, 1.675975559194503E9, 0.0, 2023-02-09 15:45:59.194
22.0, 5547.054773218009, 187500.0, 187500.0, -187500.02235174447, -187500.02235174447, -187500.02235174447, -187500.02235174447, -187500.02235174447, 0.02, 0.05, 0.996, 192.0, 0.0, 0.0, 0.0, 0.0, 0.0, 0.0, 0.0, 0.0, 0.0, 1.675975559202529E9, 0.0, 2023-02-09 15:45:59.202
23.0, 5277.336272875818, 187500.0, 187500.0, -187500.02235174447, -187500.02235174447, -187500.02235174447, -187500.02235174447, -187500.02235174447, 0.02, 0.05, 0.996, 192.0, 0.0, 0.0, 0.0, 0.0, 0.0, 0.0, 0.0, 0.0, 0.0, 1.675975559202548E9, 0.0, 2023-02-09 15:45:59.202
24.0, 5446.136647002298, 187500.0, 187500.0, -187500.02235174447, -187500.02235174447, -187500.02235174447, -187500.02235174447, -187500.02235174447, 0.02, 0.05, 0.996, 192.0, 0.0, 0.0, 0.0, 0.0, 0.0, 0.0, 0.0, 0.0, 0.0, 1.675975559209708E9, 0.0, 2023-02-09 15:45:59.209
25.0, 5948.760324568788, 187500.0, 187500.0, -187500.02235174447, -187500.02235174447, -187500.02235174447, -187500.02235174447, -187500.02235174447, 0.02, 0.05, 0.996, 192.0, 0.0, 0.0, 0.0, 0.0, 0.0, 0.0, 0.0, 0.0, 0.0, 1.675975559209738E9, 0.0, 2023-02-09 15:45:59.209
26.0, 5994.693159424443, 187500.0, 187500.0, -187500.02235174447, -187500.02235174447, -187500.02235174447, -187500.02235174447, -187500.02235174447, 0.02, 0.05, 0.996, 192.0, 0.0, 0.0, 0.0, 0.0, 0.0, 0.0, 0.0, 0.0, 0.0, 1.675975559217123E9, 0.0, 2023-02-09 15:45:59.217
27.0, 5690.754138321178, 187500.0, 187500.0, -187500.02235174447, -187500.02235174447, -187500.02235174447, -187500.02235174447, -187500.02235174447, 0.022, 0.046, 0.996, 192.0, 0.0, 176.0, 1.0, 112.0, 31.0, 32.0, 0.0, 0.0, 0.0, 1.675975559217145E9, 0.0, 2023-02-09 15:45:59.217
28.0, 5329.415837456684, 187500.0, 187500.0, -187500.02235174447, -187500.02235174447, -187500.02235174447, -187500.02235174447, -187500.02235174447, 0.022, 0.046, 0.996, 192.0, 0.0, 0.0, 0.0, 0.0, 0.0, 0.0, 0.0, 0.0, 0.0, 1.675975559225226E9, 0.0, 2023-02-09 15:45:59.225
29.0, 5400.002646446544, 187500.0, 187500.0, -187500.02235174447, -187500.02235174447, -187500.02235174447, -187500.02235174447, -187500.02235174447, 0.022, 0.046, 0.996, 192.0, 0.0, 0.0, 0.0, 0.0, 0.0, 0.0, 0.0, 0.0, 0.0, 1.675975559225242E9, 0.0, 2023-02-09 15:45:59.225
30.0, 5619.832053164489, 187500.0, 187500.0, -187500.02235174447, -187500.02235174447, -187500.02235174447, -187500.02235174447, -187500.02235174447, 0.022, 0.046, 0.996, 192.0, 0.0, 0.0, 0.0, 0.0, 0.0, 0.0, 0.0, 0.0, 0.0, 1.675975559232126E9, 0.0, 2023-02-09 15:45:59.232
31.0, 5762.547941511624, 187500.0, 187500.0, -187500.02235174447, -187500.02235174447, -187500.02235174447, -187500.02235174447, -187500.02235174447, 0.022, 0.046, 0.996, 192.0, 0.0, 0.0, 0.0, 0.0, 0.0, 0.0, 0.0, 0.0, 0.0, 1.675975559239267E9, 0.0, 2023-02-09 15:45:59.239
32.0, 5879.06758535714, 187500.0, 187500.0, -187500.02235174447, -187500.02235174447, -187500.02235174447, -187500.02235174447, -187500.02235174447, 0.022, 0.046, 0.996, 192.0, 0.0, 0.0, 0.0, 0.0, 0.0, 0.0, 0.0, 0.0, 0.0, 1.67597555923928E9, 0.0, 2023-02-09 15:45:59.239
33.0, 5757.339985053538, 187500.0, 187500.0, -187500.02235174447, -187500.02235174447, -187500.02235174447, -187500.02235174447, -187500.02235174447, 0.022, 0.046, 0.996, 192.0, 0.0, 0.0, 0.0, 0.0, 0.0, 0.0, 0.0, 0.0, 0.0, 1.675975559246792E9, 0.0, 2023-02-09 15:45:59.246
34.0, 5692.31876043305, 187500.0, 187500.0, -187500.02235174447, -187500.02235174447, -187500.02235174447, -187500.02235174447, -187500.02235174447, 0.022, 0.046, 0.996, 192.0, 0.0, 0.0, 0.0, 0.0, 0.0, 0.0, 0.0, 0.0, 0.0, 1.675975559246809E9, 0.0, 2023-02-09 15:45:59.246
35.0, 5532.414380599783, 187500.0, 187500.0, -187500.02235174447, -187500.02235174447, -187500.02235174447, -187500.02235174447, -187500.02235174447, 0.022, 0.046, 0.996, 192.0, 0.0, 0.0, 0.0, 0.0, 0.0, 0.0, 0.0, 0.0, 0.0, 1.675975559254773E9, 0.0, 2023-02-09 15:45:59.254
36.0, 5717.46447294527, 187500.0, 187500.0, -187500.02235174447, -187500.02235174447, -187500.02235174447, -187500.02235174447, -187500.02235174447, 0.022, 0.046, 0.998, 192.0, 0.0, 176.0, 1.0, 112.0, 31.0, 48.0, 0.0, 0.0, 0.0, 1.675975559254795E9, 0.0, 2023-02-09 15:45:59.254
37.0, 5980.522153439779, 187500.0, 187500.0, -187500.02235174447, -187500.02235174447, -187500.02235174447, -187500.02235174447, -187500.02235174447, 0.022, 0.046, 0.998, 192.0, 0.0, 0.0, 0.0, 0.0, 0.0, 0.0, 0.0, 0.0, 0.0, 1.675975559262032E9, 0.0, 2023-02-09 15:45:59.262
38.0, 5984.768984886287, 187500.0, 187500.0, -187500.02235174447, -187500.02235174447, -187500.02235174447, -187500.02235174447, -187500.02235174447, 0.022, 0.046, 0.998, 192.0, 0.0, 0.0, 0.0, 0.0, 0.0, 0.0, 0.0, 0.0, 0.0, 1.675975559262101E9, 0.0, 2023-02-09 15:45:59.262
39.0, 6330.639878587709, 187500.0, 187500.0, -187500.02235174447, -187500.02235174447, -187500.02235174447, -187500.02235174447, -187500.02235174447, 0.022, 0.046, 0.998, 192.0, 0.0, 0.0, 0.0, 0.0, 0.0, 0.0, 0.0, 0.0, 0.0, 1.675975559269357E9, 0.0, 2023-02-09 15:45:59.269
40.0, 5546.183055184252, 187500.0, 187500.0, -187500.02235174447, -187500.02235174447, -187500.02235174447, -187500.02235174447, -187500.02235174447, 0.022, 0.046, 0.998, 192.0, 0.0, 0.0, 0.0, 0.0, 0.0, 0.0, 0.0, 0.0, 0.0, 1.675975559269415E9, 0.0, 2023-02-09 15:45:59.269
41.0, 5461.626405909826, 187500.0, 187500.0, -187500.02235174447, -187500.02235174447, -187500.02235174447, -187500.02235174447, -187500.02235174447, 0.022, 0.046, 0.998, 192.0, 0.0, 0.0, 0.0, 0.0, 0.0, 0.0, 0.0, 0.0, 0.0, 1.675975559277409E9, 0.0, 2023-02-09 15:45:59.277
42.0, 5362.831695417368, 187500.0, 187500.0, -187500.02235174447, -187500.02235174447, -187500.02235174447, -187500.02235174447, -187500.02235174447, 0.022, 0.046, 0.998, 192.0, 0.0, 0.0, 0.0, 0.0, 0.0, 0.0, 0.0, 0.0, 0.0, 1.675975559277465E9, 0.0, 2023-02-09 15:45:59.277
43.0, 5611.427797249294, 187500.0, 187500.0, -187500.02235174447, -187500.02235174447, -187500.02235174447, -187500.02235174447, -187500.02235174447, 0.022, 0.046, 0.998, 192.0, 0.0, 0.0, 0.0, 0.0, 0.0, 0.0, 0.0, 0.0, 0.0, 1.675975559285445E9, 0.0, 2023-02-09 15:45:59.285
44.0, 5936.042181973718, 187500.0, 187500.0, -187500.02235174447, -187500.02235174447, -187500.02235174447, -187500.02235174447, -187500.02235174447, 0.022, 0.046, 0.998, 192.0, 0.0, 0.0, 0.0, 0.0, 0.0, 0.0, 0.0, 0.0, 0.0, 1.675975559285509E9, 0.0, 2023-02-09 15:45:59.285
45.0, 6313.160814423659, 187500.0, 187500.0, -187500.02235174447, -187500.02235174447, -187500.02235174447, -187500.02235174447, -187500.02235174447, 0.022, 0.046, 0.998, 192.0, 0.0, 0.0, 0.0, 0.0, 0.0, 0.0, 0.0, 0.0, 0.0, 1.675975559291523E9, 0.0, 2023-02-09 15:45:59.291
46.0, 6566.070802935458, 187500.0, 187500.0, -187500.02235174447, -187500.02235174447, -187500.02235174447, -187500.02235174447, -187500.02235174447, 0.022, 0.052000000000000005, 1.0, 192.0, 0.0, 176.0, 1.0, 160.0, 31.0, 64.0, 0.0, 0.0, 0.0, 1.675975559291546E9, 0.0, 2023-02-09 15:45:59.291
47.0, 5964.361842198592, 187500.0, 187500.0, -187500.02235174447, -187500.02235174447, -187500.02235174447, -187500.02235174447, -187500.02235174447, 0.022, 0.052000000000000005, 1.0, 192.0, 0.0, 0.0, 0.0, 0.0, 0.0, 0.0, 0.0, 0.0, 0.0, 1.675975559299011E9, 0.0, 2023-02-09 15:45:59.299
48.0, 4873.909637201981, 187500.0, 187500.0, -187500.02235174447, -187500.02235174447, -187500.02235174447, -187500.02235174447, -187500.02235174447, 0.022, 0.052000000000000005, 1.0, 192.0, 0.0, 0.0, 0.0, 0.0, 0.0, 0.0, 0.0, 0.0, 0.0, 1.675975559307195E9, 0.0, 2023-02-09 15:45:59.307
49.0, 5317.9493925511115, 187500.0, 187500.0, -187500.02235174447, -187500.02235174447, -187500.02235174447, -187500.02235174447, -187500.02235174447, 0.022, 0.052000000000000005, 1.0, 192.0, 0.0, 0.0, 0.0, 0.0, 0.0, 0.0, 0.0, 0.0, 0.0, 1.675975559307217E9, 0.0, 2023-02-09 15:45:59.307
50.0, 5836.040477280674, 187500.0, 187500.0, -187500.02235174447, -187500.02235174447, -187500.02235174447, -187500.02235174447, -187500.02235174447, 0.022, 0.052000000000000005, 1.0, 192.0, 0.0, 0.0, 0.0, 0.0, 0.0, 0.0, 0.0, 0.0, 0.0, 1.675975559315062E9, 0.0, 2023-02-09 15:45:59.315
51.0, 5742.073743590563, 187500.0, 187500.0, -187500.02235174447, -187500.02235174447, -187500.02235174447, -187500.02235174447, -187500.02235174447, 0.022, 0.052000000000000005, 1.0, 192.0, 0.0, 0.0, 0.0, 0.0, 0.0, 0.0, 0.0, 0.0, 0.0, 1.675975559315125E9, 0.0, 2023-02-09 15:45:59.315
52.0, 5749.785095427644, 187500.0, 187500.0, -187500.02235174447, -187500.02235174447, -187500.02235174447, -187500.02235174447, -187500.02235174447, 0.022, 0.052000000000000005, 1.0, 192.0, 0.0, 0.0, 0.0, 0.0, 0.0, 0.0, 0.0, 0.0, 0.0, 1.675975559321701E9, 0.0, 2023-02-09 15:45:59.321
53.0, 5863.823695638621, 187500.0, 187500.0, -187500.02235174447, -187500.02235174447, -187500.02235174447, -187500.02235174447, -187500.02235174447, 0.022, 0.052000000000000005, 1.0, 192.0, 0.0, 0.0, 0.0, 0.0, 0.0, 0.0, 0.0, 0.0, 0.0, 1.675975559321715E9, 0.0, 2023-02-09 15:45:59.321
54.0, 5710.267211230661, 187500.0, 187500.0, -187500.02235174447, -187500.02235174447, -187500.02235174447, -187500.02235174447, -187500.02235174447, 0.022, 0.052000000000000005, 1.0, 192.0, 0.0, 0.0, 0.0, 0.0, 0.0, 0.0, 0.0, 0.0, 0.0, 1.675975559329704E9, 0.0, 2023-02-09 15:45:59.329
55.0, 5473.8528101268785, 187500.0, 187500.0, -187500.02235174447, -187500.02235174447, -187500.02235174447, -187500.02235174447, -187500.02235174447, 0.022, 0.052000000000000005, 1.0, 192.0, 0.0, 0.0, 0.0, 0.0, 0.0, 0.0, 0.0, 0.0, 0.0, 1.675975559329718E9, 0.0, 2023-02-09 15:45:59.329
56.0, 5618.781521175089, 187500.0, 187500.0, -187500.02235174447, -187500.02235174447, -187500.02235174447, -187500.02235174447, -187500.02235174447, 0.02, 0.054, 0.994, 192.0, 0.0, 160.0, 1.0, 176.0, 31.0, 16.0, 0.0, 0.0, 0.0, 1.675975559337636E9, 0.0, 2023-02-09 15:45:59.337
57.0, 6091.319750704736, 187500.0, 187500.0, -187500.02235174447, -187500.02235174447, -187500.02235174447, -187500.02235174447, -187500.02235174447, 0.02, 0.054, 0.994, 192.0, 0.0, 0.0, 0.0, 0.0, 0.0, 0.0, 0.0, 0.0, 0.0, 1.675975559337654E9, 0.0, 2023-02-09 15:45:59.337
58.0, 6644.681888184773, 187500.0, 187500.0, -187500.02235174447, -187500.02235174447, -187500.02235174447, -187500.02235174447, -187500.02235174447, 0.02, 0.054, 0.994, 192.0, 0.0, 0.0, 0.0, 0.0, 0.0, 0.0, 0.0, 0.0, 0.0, 1.67597555934491E9, 0.0, 2023-02-09 15:45:59.344
59.0, 6894.753205150749, 187500.0, 187500.0, -187500.02235174447, -187500.02235174447, -187500.02235174447, -187500.02235174447, -187500.02235174447, 0.02, 0.054, 0.994, 192.0, 0.0, 0.0, 0.0, 0.0, 0.0, 0.0, 0.0, 0.0, 0.0, 1.675975559344934E9, 0.0, 2023-02-09 15:45:59.344
60.0, 5236.521987500428, 187500.0, 187500.0, -187500.02235174447, -187500.02235174447, -187500.02235174447, -187500.02235174447, -187500.02235174447, 0.02, 0.054, 0.994, 192.0, 0.0, 0.0, 0.0, 0.0, 0.0, 0.0, 0.0, 0.0, 0.0, 1.675975559352386E9, 0.0, 2023-02-09 15:45:59.352
61.0, 4794.292723452178, 187500.0, 187500.0, -187500.02235174447, -187500.02235174447, -187500.02235174447, -187500.02235174447, -187500.02235174447, 0.02, 0.054, 0.994, 192.0, 0.0, 0.0, 0.0, 0.0, 0.0, 0.0, 0.0, 0.0, 0.0, 1.67597555935241E9, 0.0, 2023-02-09 15:45:59.352
62.0, 5371.191247843653, 187500.0, 187500.0, -187500.02235174447, -187500.02235174447, -187500.02235174447, -187500.02235174447, -187500.02235174447, 0.02, 0.054, 0.994, 192.0, 0.0, 0.0, 0.0, 0.0, 0.0, 0.0, 0.0, 0.0, 0.0, 1.675975559359329E9, 0.0, 2023-02-09 15:45:59.359
63.0, 5591.355930728428, 187500.0, 187500.0, -187500.02235174447, -187500.02235174447, -187500.02235174447, -187500.02235174447, -187500.02235174447, 0.02, 0.054, 0.994, 192.0, 0.0, 0.0, 0.0, 0.0, 0.0, 0.0, 0.0, 0.0, 0.0, 1.675975559367367E9, 0.0, 2023-02-09 15:45:59.367
64.0, 5629.800931191556, 187500.0, 187500.0, -187500.02235174447, -187500.02235174447, -187500.02235174447, -187500.02235174447, -187500.02235174447, 0.02, 0.054, 0.994, 192.0, 0.0, 0.0, 0.0, 0.0, 0.0, 0.0, 0.0, 0.0, 0.0, 1.67597555936739E9, 0.0, 2023-02-09 15:45:59.367
65.0, 5717.106845033985, 187500.0, 187500.0, -187500.02235174447, -187500.02235174447, -187500.02235174447, -187500.02235174447, -187500.02235174447, 0.02, 0.054, 0.994, 192.0, 0.0, 0.0, 0.0, 0.0, 0.0, 0.0, 0.0, 0.0, 0.0, 1.675975559374544E9, 0.0, 2023-02-09 15:45:59.374
66.0, 6120.153501052082, 187500.0, 187500.0, -187500.02235174447, -187500.02235174447, -187500.02235174447, -187500.02235174447, -187500.02235174447, 0.018000000000000002, 0.058, 0.996, 192.0, 0.0, 144.0, 1.0, 208.0, 31.0, 32.0, 0.0, 0.0, 0.0, 1.675975559374567E9, 0.0, 2023-02-09 15:45:59.374
67.0, 6308.824575999329, 187500.0, 187500.0, -187500.02235174447, -187500.02235174447, -187500.02235174447, -187500.02235174447, -187500.02235174447, 0.018000000000000002, 0.058, 0.996, 192.0, 0.0, 0.0, 0.0, 0.0, 0.0, 0.0, 0.0, 0.0, 0.0, 1.675975559381906E9, 0.0, 2023-02-09 15:45:59.381
68.0, 5734.027115586653, 187500.0, 187500.0, -187500.02235174447, -187500.02235174447, -187500.02235174447, -187500.02235174447, -187500.02235174447, 0.018000000000000002, 0.058, 0.996, 192.0, 0.0, 0.0, 0.0, 0.0, 0.0, 0.0, 0.0, 0.0, 0.0, 1.675975559381923E9, 0.0, 2023-02-09 15:45:59.381
69.0, 5609.505547226137, 187500.0, 187500.0, -187500.02235174447, -187500.02235174447, -187500.02235174447, -187500.02235174447, -187500.02235174447, 0.018000000000000002, 0.058, 0.996, 192.0, 0.0, 0.0, 0.0, 0.0, 0.0, 0.0, 0.0, 0.0, 0.0, 1.675975559390032E9, 0.0, 2023-02-09 15:45:59.390
70.0, 5819.34372417256, 187500.0, 187500.0, -187500.02235174447, -187500.02235174447, -187500.02235174447, -187500.02235174447, -187500.02235174447, 0.018000000000000002, 0.058, 0.996, 192.0, 0.0, 0.0, 0.0, 0.0, 0.0, 0.0, 0.0, 0.0, 0.0, 1.675975559390049E9, 0.0, 2023-02-09 15:45:59.390
71.0, 6040.402476835547, 187500.0, 187500.0, -187500.02235174447, -187500.02235174447, -187500.02235174447, -187500.02235174447, -187500.02235174447, 0.018000000000000002, 0.058, 0.996, 192.0, 0.0, 0.0, 0.0, 0.0, 0.0, 0.0, 0.0, 0.0, 0.0, 1.675975559398039E9, 0.0, 2023-02-09 15:45:59.398
72.0, 6194.249533921425, 187500.0, 187500.0, -187500.02235174447, -187500.02235174447, -187500.02235174447, -187500.02235174447, -187500.02235174447, 0.018000000000000002, 0.058, 0.996, 192.0, 0.0, 0.0, 0.0, 0.0, 0.0, 0.0, 0.0, 0.0, 0.0, 1.675975559398063E9, 0.0, 2023-02-09 15:45:59.398
73.0, 5754.411906529893, 187500.0, 187500.0, -187500.02235174447, -187500.02235174447, -187500.02235174447, -187500.02235174447, -187500.02235174447, 0.018000000000000002, 0.058, 0.996, 192.0, 0.0, 0.0, 0.0, 0.0, 0.0, 0.0, 0.0, 0.0, 0.0, 1.675975559404612E9, 0.0, 2023-02-09 15:45:59.404
74.0, 5437.240652709085, 187500.0, 187500.0, -187500.02235174447, -187500.02235174447, -187500.02235174447, -187500.02235174447, -187500.02235174447, 0.018000000000000002, 0.058, 0.996, 192.0, 0.0, 0.0, 0.0, 0.0, 0.0, 0.0, 0.0, 0.0, 0.0, 1.675975559404634E9, 0.0, 2023-02-09 15:45:59.404
75.0, 5510.2414501001185, 187500.0, 187500.0, -187500.02235174447, -187500.02235174447, -187500.02235174447, -187500.02235174447, -187500.02235174447, 0.018000000000000002, 0.058, 0.996, 192.0, 0.0, 0.0, 0.0, 0.0, 0.0, 0.0, 0.0, 0.0, 0.0, 1.675975559412625E9, 0.0, 2023-02-09 15:45:59.412
76.0, 5612.3218670275055, 187500.0, 187500.0, -187500.02235174447, -187500.02235174447, -187500.02235174447, -187500.02235174447, -187500.02235174447, 0.018000000000000002, 0.056, 0.998, 192.0, 0.0, 144.0, 1.0, 192.0, 31.0, 48.0, 0.0, 0.0, 0.0, 1.67597555941264E9, 0.0, 2023-02-09 15:45:59.412
77.0, 5597.01092207562, 187500.0, 187500.0, -187500.02235174447, -187500.02235174447, -187500.02235174447, -187500.02235174447, -187500.02235174447, 0.018000000000000002, 0.056, 0.998, 192.0, 0.0, 0.0, 0.0, 0.0, 0.0, 0.0, 0.0, 0.0, 0.0, 1.675975559419516E9, 0.0, 2023-02-09 15:45:59.419
78.0, 5685.412071396359, 187500.0, 187500.0, -187500.02235174447, -187500.02235174447, -187500.02235174447, -187500.02235174447, -187500.02235174447, 0.018000000000000002, 0.056, 0.998, 192.0, 0.0, 0.0, 0.0, 0.0, 0.0, 0.0, 0.0, 0.0, 0.0, 1.67597555942665E9, 0.0, 2023-02-09 15:45:59.426
79.0, 5768.135877625451, 187500.0, 187500.0, -187500.02235174447, -187500.02235174447, -187500.02235174447, -187500.02235174447, -187500.02235174447, 0.018000000000000002, 0.056, 0.998, 192.0, 0.0, 0.0, 0.0, 0.0, 0.0, 0.0, 0.0, 0.0, 0.0, 1.675975559426681E9, 0.0, 2023-02-09 15:45:59.426
80.0, 5755.32832805256, 187500.0, 187500.0, -187500.02235174447, -187500.02235174447, -187500.02235174447, -187500.02235174447, -187500.02235174447, 0.018000000000000002, 0.056, 0.998, 192.0, 0.0, 0.0, 0.0, 0.0, 0.0, 0.0, 0.0, 0.0, 0.0, 1.675975559434169E9, 0.0, 2023-02-09 15:45:59.434
81.0, 5800.210630918817, 187500.0, 187500.0, -187500.02235174447, -187500.02235174447, -187500.02235174447, -187500.02235174447, -187500.02235174447, 0.018000000000000002, 0.056, 0.998, 192.0, 0.0, 0.0, 0.0, 0.0, 0.0, 0.0, 0.0, 0.0, 0.0, 1.67597555943423E9, 0.0, 2023-02-09 15:45:59.434
82.0, 5779.222342875283, 187500.0, 187500.0, -187500.02235174447, -187500.02235174447, -187500.02235174447, -187500.02235174447, -187500.02235174447, 0.018000000000000002, 0.056, 0.998, 192.0, 0.0, 0.0, 0.0, 0.0, 0.0, 0.0, 0.0, 0.0, 0.0, 1.675975559442155E9, 0.0, 2023-02-09 15:45:59.442
83.0, 5863.1978467938725, 187500.0, 187500.0, -187500.02235174447, -187500.02235174447, -187500.02235174447, -187500.02235174447, -187500.02235174447, 0.018000000000000002, 0.056, 0.998, 192.0, 0.0, 0.0, 0.0, 0.0, 0.0, 0.0, 0.0, 0.0, 0.0, 1.675975559442217E9, 0.0, 2023-02-09 15:45:59.442
84.0, 5756.3118048085935, 187500.0, 187500.0, -187500.02235174447, -187500.02235174447, -187500.02235174447, -187500.02235174447, -187500.02235174447, 0.018000000000000002, 0.056, 0.998, 192.0, 0.0, 0.0, 0.0, 0.0, 0.0, 0.0, 0.0, 0.0, 0.0, 1.675975559450139E9, 0.0, 2023-02-09 15:45:59.450
85.0, 5832.2630324677275, 187500.0, 187500.0, -187500.02235174447, -187500.02235174447, -187500.02235174447, -187500.02235174447, -187500.02235174447, 0.018000000000000002, 0.056, 0.998, 192.0, 0.0, 0.0, 0.0, 0.0, 0.0, 0.0, 0.0, 0.0, 0.0, 1.675975559450159E9, 0.0, 2023-02-09 15:45:59.450
86.0, 5771.086307893552, 187500.0, 187500.0, -187500.02235174447, -187500.02235174447, -187500.02235174447, -187500.02235174447, -187500.02235174447, 0.02, 0.052000000000000005, 0.996, 192.0, 0.0, 160.0, 1.0, 160.0, 31.0, 32.0, 0.0, 0.0, 0.0, 1.675975559456839E9, 0.0, 2023-02-09 15:45:59.456
87.0, 5749.181598327351, 187500.0, 187500.0, -187500.02235174447, -187500.02235174447, -187500.02235174447, -187500.02235174447, -187500.02235174447, 0.02, 0.052000000000000005, 0.996, 192.0, 0.0, 0.0, 0.0, 0.0, 0.0, 0.0, 0.0, 0.0, 0.0, 1.675975559456853E9, 0.0, 2023-02-09 15:45:59.456
88.0, 5696.3197226905495, 187500.0, 187500.0, -187500.02235174447, -187500.02235174447, -187500.02235174447, -187500.02235174447, -187500.02235174447, 0.02, 0.052000000000000005, 0.996, 192.0, 0.0, 0.0, 0.0, 0.0, 0.0, 0.0, 0.0, 0.0, 0.0, 1.675975559465E9, 0.0, 2023-02-09 15:45:59.465
89.0, 5731.389609740926, 187500.0, 187500.0, -187500.02235174447, -187500.02235174447, -187500.02235174447, -187500.02235174447, -187500.02235174447, 0.02, 0.052000000000000005, 0.996, 192.0, 0.0, 0.0, 0.0, 0.0, 0.0, 0.0, 0.0, 0.0, 0.0, 1.675975559465022E9, 0.0, 2023-02-09 15:45:59.465
90.0, 5962.506647408802, 187500.0, 187500.0, -187500.02235174447, -187500.02235174447, -187500.02235174447, -187500.02235174447, -187500.02235174447, 0.02, 0.052000000000000005, 0.996, 192.0, 0.0, 0.0, 0.0, 0.0, 0.0, 0.0, 0.0, 0.0, 0.0, 1.675975559472968E9, 0.0, 2023-02-09 15:45:59.472
91.0, 6160.833675960741, 187500.0, 187500.0, -187500.02235174447, -187500.02235174447, -187500.02235174447, -187500.02235174447, -187500.02235174447, 0.02, 0.052000000000000005, 0.996, 192.0, 0.0, 0.0, 0.0, 0.0, 0.0, 0.0, 0.0, 0.0, 0.0, 1.675975559472997E9, 0.0, 2023-02-09 15:45:59.472
92.0, 6265.216322567025, 187500.0, 187500.0, -187500.02235174447, -187500.02235174447, -187500.02235174447, -187500.02235174447, -187500.02235174447, 0.02, 0.052000000000000005, 0.996, 192.0, 0.0, 0.0, 0.0, 0.0, 0.0, 0.0, 0.0, 0.0, 0.0, 1.675975559480033E9, 0.0, 2023-02-09 15:45:59.480
93.0, 5674.929103246821, 187500.0, 187500.0, -187500.02235174447, -187500.02235174447, -187500.02235174447, -187500.02235174447, -187500.02235174447, 0.02, 0.052000000000000005, 0.996, 192.0, 0.0, 0.0, 0.0, 0.0, 0.0, 0.0, 0.0, 0.0, 0.0, 1.675975559486627E9, 0.0, 2023-02-09 15:45:59.486
94.0, 5863.4884194717915, 187500.0, 187500.0, -187500.02235174447, -187500.02235174447, -187500.02235174447, -187500.02235174447, -187500.02235174447, 0.02, 0.052000000000000005, 0.996, 192.0, 0.0, 0.0, 0.0, 0.0, 0.0, 0.0, 0.0, 0.0, 0.0, 1.675975559486649E9, 0.0, 2023-02-09 15:45:59.486
95.0, 6440.766923519007, 187500.0, 187500.0, -187500.02235174447, -187500.02235174447, -187500.02235174447, -187500.02235174447, -187500.02235174447, 0.016, 0.046, 0.992, 192.0, 0.0, 128.0, 1.0, 112.0, 31.0, 0.0, 0.0, 0.0, 0.0, 1.675975559494575E9, 0.0, 2023-02-09 15:45:59.494
96.0, 5990.155755300017, 187500.0, 187500.0, -187500.02235174447, -187500.02235174447, -187500.02235174447, -187500.02235174447, -187500.02235174447, 0.016, 0.046, 0.992, 192.0, 0.0, 0.0, 0.0, 0.0, 0.0, 0.0, 0.0, 0.0, 0.0, 1.675975559494596E9, 0.0, 2023-02-09 15:45:59.494
97.0, 5367.34674779734, 187500.0, 187500.0, -187500.02235174447, -187500.02235174447, -187500.02235174447, -187500.02235174447, -187500.02235174447, 0.016, 0.046, 0.992, 192.0, 0.0, 0.0, 0.0, 0.0, 0.0, 0.0, 0.0, 0.0, 0.0, 1.675975559502523E9, 0.0, 2023-02-09 15:45:59.502
98.0, 5349.398296999729, 187500.0, 187500.0, -187500.02235174447, -187500.02235174447, -187500.02235174447, -187500.02235174447, -187500.02235174447, 0.016, 0.046, 0.992, 192.0, 0.0, 0.0, 0.0, 0.0, 0.0, 0.0, 0.0, 0.0, 0.0, 1.675975559502538E9, 0.0, 2023-02-09 15:45:59.502
99.0, 5596.9438668422545, 187500.0, 187500.0, -187500.02235174447, -187500.02235174447, -187500.02235174447, -187500.02235174447, -187500.02235174447, 0.016, 0.046, 0.992, 192.0, 0.0, 0.0, 0.0, 0.0, 0.0, 0.0, 0.0, 0.0, 0.0, 1.675975559509774E9, 0.0, 2023-02-09 15:45:59.509
100.0, 5776.450726562825, 187500.0, 187500.0, -187500.02235174447, -187500.02235174447, -187500.02235174447, -187500.02235174447, -187500.02235174447, 0.016, 0.046, 0.992, 192.0, 0.0, 0.0, 0.0, 0.0, 0.0, 0.0, 0.0, 0.0, 0.0, 1.675975559509793E9, 0.0, 2023-02-09 15:45:59.509
101.0, 5823.501148641247, 187500.0, 187500.0, -187500.02235174447, -187500.02235174447, -187500.02235174447, -187500.02235174447, -187500.02235174447, 0.016, 0.046, 0.992, 192.0, 0.0, 0.0, 0.0, 0.0, 0.0, 0.0, 0.0, 0.0, 0.0, 1.675975559517191E9, 0.0, 2023-02-09 15:45:59.517
102.0, 5873.569056221135, 187500.0, 187500.0, -187500.02235174447, -187500.02235174447, -187500.02235174447, -187500.02235174447, -187500.02235174447, 0.016, 0.046, 0.992, 192.0, 0.0, 0.0, 0.0, 0.0, 0.0, 0.0, 0.0, 0.0, 0.0, 1.675975559517216E9, 0.0, 2023-02-09 15:45:59.517
103.0, 5846.948128574864, 187500.0, 187500.0, -187500.02235174447, -187500.02235174447, -187500.02235174447, -187500.02235174447, -187500.02235174447, 0.016, 0.046, 0.992, 192.0, 0.0, 0.0, 0.0, 0.0, 0.0, 0.0, 0.0, 0.0, 0.0, 1.675975559525192E9, 0.0, 2023-02-09 15:45:59.525
104.0, 6127.730742422431, 187500.0, 187500.0, -187500.02235174447, -187500.02235174447, -187500.02235174447, -187500.02235174447, -187500.02235174447, 0.016, 0.046, 0.992, 192.0, 0.0, 0.0, 0.0, 0.0, 0.0, 0.0, 0.0, 0.0, 0.0, 1.675975559525212E9, 0.0, 2023-02-09 15:45:59.525
105.0, 5707.920278062854, 187500.0, 187500.0, -187500.02235174447, -187500.02235174447, -187500.02235174447, -187500.02235174447, -187500.02235174447, 0.014, 0.048, 0.994, 192.0, 0.0, 112.0, 1.0, 128.0, 31.0, 16.0, 0.0, 0.0, 0.0, 1.675975559533199E9, 0.0, 2023-02-09 15:45:59.533
106.0, 5599.737834899168, 187500.0, 187500.0, -187500.02235174447, -187500.02235174447, -187500.02235174447, -187500.02235174447, -187500.02235174447, 0.014, 0.048, 0.994, 192.0, 0.0, 0.0, 0.0, 0.0, 0.0, 0.0, 0.0, 0.0, 0.0, 1.67597555953322E9, 0.0, 2023-02-09 15:45:59.533
107.0, 5700.387740181415, 187500.0, 187500.0, -187500.02235174447, -187500.02235174447, -187500.02235174447, -187500.02235174447, -187500.02235174447, 0.014, 0.048, 0.994, 192.0, 0.0, 0.0, 0.0, 0.0, 0.0, 0.0, 0.0, 0.0, 0.0, 1.675975559539338E9, 0.0, 2023-02-09 15:45:59.539
108.0, 5744.800656414111, 187500.0, 187500.0, -187500.02235174447, -187500.02235174447, -187500.02235174447, -187500.02235174447, -187500.02235174447, 0.014, 0.048, 0.994, 192.0, 0.0, 0.0, 0.0, 0.0, 0.0, 0.0, 0.0, 0.0, 0.0, 1.675975559539359E9, 0.0, 2023-02-09 15:45:59.539
109.0, 5791.627561047979, 187500.0, 187500.0, -187500.02235174447, -187500.02235174447, -187500.02235174447, -187500.02235174447, -187500.02235174447, 0.014, 0.048, 0.994, 192.0, 0.0, 0.0, 0.0, 0.0, 0.0, 0.0, 0.0, 0.0, 0.0, 1.675975559546695E9, 0.0, 2023-02-09 15:45:59.546
110.0, 6000.214040304904, 187500.0, 187500.0, -187500.02235174447, -187500.02235174447, -187500.02235174447, -187500.02235174447, -187500.02235174447, 0.014, 0.048, 0.994, 192.0, 0.0, 0.0, 0.0, 0.0, 0.0, 0.0, 0.0, 0.0, 0.0, 1.675975559556506E9, 0.0, 2023-02-09 15:45:59.556
111.0, 6315.507747591466, 187500.0, 187500.0, -187500.02235174447, -187500.02235174447, -187500.02235174447, -187500.02235174447, -187500.02235174447, 0.014, 0.048, 0.994, 192.0, 0.0, 0.0, 0.0, 0.0, 0.0, 0.0, 0.0, 0.0, 0.0, 1.675975559556523E9, 0.0, 2023-02-09 15:45:59.556
112.0, 5886.577771494123, 187500.0, 187500.0, -187500.02235174447, -187500.02235174447, -187500.02235174447, -187500.02235174447, -187500.02235174447, 0.014, 0.048, 0.994, 192.0, 0.0, 0.0, 0.0, 0.0, 0.0, 0.0, 0.0, 0.0, 0.0, 1.675975559562945E9, 0.0, 2023-02-09 15:45:59.562
113.0, 5605.146957057352, 187500.0, 187500.0, -187500.02235174447, -187500.02235174447, -187500.02235174447, -187500.02235174447, -187500.02235174447, 0.014, 0.048, 0.994, 192.0, 0.0, 0.0, 0.0, 0.0, 0.0, 0.0, 0.0, 0.0, 0.0, 1.675975559562963E9, 0.0, 2023-02-09 15:45:59.562
114.0, 5998.157679815016, 187500.0, 187500.0, -187500.02235174447, -187500.02235174447, -187500.02235174447, -187500.02235174447, -187500.02235174447, 0.014, 0.048, 0.994, 192.0, 0.0, 0.0, 0.0, 0.0, 0.0, 0.0, 0.0, 0.0, 0.0, 1.675975559569415E9, 0.0, 2023-02-09 15:45:59.569
115.0, 5795.874392494487, 187500.0, 187500.0, -187500.02235174447, -187500.02235174447, -187500.02235174447, -187500.02235174447, -187500.02235174447, 0.014, 0.048, 1.0, 192.0, 0.0, 112.0, 1.0, 128.0, 31.0, 64.0, 0.0, 0.0, 0.0, 1.675975559569432E9, 0.0, 2023-02-09 15:45:59.569
116.0, 5856.313509501638, 187500.0, 187500.0, -187500.02235174447, -187500.02235174447, -187500.02235174447, -187500.02235174447, -187500.02235174447, 0.014, 0.048, 1.0, 192.0, 0.0, 0.0, 0.0, 0.0, 0.0, 0.0, 0.0, 0.0, 0.0, 1.675975559577905E9, 0.0, 2023-02-09 15:45:59.577
117.0, 6062.3071864017475, 187500.0, 187500.0, -187500.02235174447, -187500.02235174447, -187500.02235174447, -187500.02235174447, -187500.02235174447, 0.014, 0.048, 1.0, 192.0, 0.0, 0.0, 0.0, 0.0, 0.0, 0.0, 0.0, 0.0, 0.0, 1.675975559577923E9, 0.0, 2023-02-09 15:45:59.577
118.0, 5899.765300722755, 187500.0, 187500.0, -187500.02235174447, -187500.02235174447, -187500.02235174447, -187500.02235174447, -187500.02235174447, 0.014, 0.048, 1.0, 192.0, 0.0, 0.0, 0.0, 0.0, 0.0, 0.0, 0.0, 0.0, 0.0, 1.675975559585471E9, 0.0, 2023-02-09 15:45:59.585
119.0, 5476.9597026061665, 187500.0, 187500.0, -187500.02235174447, -187500.02235174447, -187500.02235174447, -187500.02235174447, -187500.02235174447, 0.014, 0.048, 1.0, 192.0, 0.0, 0.0, 0.0, 0.0, 0.0, 0.0, 0.0, 0.0, 0.0, 1.675975559585486E9, 0.0, 2023-02-09 15:45:59.585
120.0, 6077.573427864722, 187500.0, 187500.0, -187500.02235174447, -187500.02235174447, -187500.02235174447, -187500.02235174447, -187500.02235174447, 0.014, 0.048, 1.0, 192.0, 0.0, 0.0, 0.0, 0.0, 0.0, 0.0, 0.0, 0.0, 0.0, 1.675975559592088E9, 0.0, 2023-02-09 15:45:59.592
121.0, 6663.636167482873, 187500.0, 187500.0, -187500.02235174447, -187500.02235174447, -187500.02235174447, -187500.02235174447, -187500.02235174447, 0.014, 0.048, 1.0, 192.0, 0.0, 0.0, 0.0, 0.0, 0.0, 0.0, 0.0, 0.0, 0.0, 1.67597555959211E9, 0.0, 2023-02-09 15:45:59.592
122.0, 5623.0060008771425, 187500.0, 187500.0, -187500.02235174447, -187500.02235174447, -187500.02235174447, -187500.02235174447, -187500.02235174447, 0.014, 0.048, 1.0, 192.0, 0.0, 0.0, 0.0, 0.0, 0.0, 0.0, 0.0, 0.0, 0.0, 1.675975559600066E9, 0.0, 2023-02-09 15:45:59.600
123.0, 5453.468019183639, 187500.0, 187500.0, -187500.02235174447, -187500.02235174447, -187500.02235174447, -187500.02235174447, -187500.02235174447, 0.014, 0.048, 1.0, 192.0, 0.0, 0.0, 0.0, 0.0, 0.0, 0.0, 0.0, 0.0, 0.0, 1.675975559600086E9, 0.0, 2023-02-09 15:45:59.600
124.0, 5714.581097910535, 187500.0, 187500.0, -187500.02235174447, -187500.02235174447, -187500.02235174447, -187500.02235174447, -187500.02235174447, 0.014, 0.048, 1.0, 192.0, 0.0, 0.0, 0.0, 0.0, 0.0, 0.0, 0.0, 0.0, 0.0, 1.675975559607016E9, 0.0, 2023-02-09 15:45:59.607
125.0, 5687.423728397337, 187500.0, 187500.0, -187500.02235174447, -187500.02235174447, -187500.02235174447, -187500.02235174447, -187500.02235174447, 0.018000000000000002, 0.044, 0.998, 192.0, 0.0, 144.0, 1.0, 96.0, 31.0, 48.0, 0.0, 0.0, 0.0, 1.675975559614987E9, 0.0, 2023-02-09 15:45:59.614
126.0, 6011.814595677209, 187500.0, 187500.0, -187500.02235174447, -187500.02235174447, -187500.02235174447, -187500.02235174447, -187500.02235174447, 0.018000000000000002, 0.044, 0.998, 192.0, 0.0, 0.0, 0.0, 0.0, 0.0, 0.0, 0.0, 0.0, 0.0, 1.675975559615013E9, 0.0, 2023-02-09 15:45:59.615
127.0, 5650.766867490634, 187500.0, 187500.0, -187500.02235174447, -187500.02235174447, -187500.02235174447, -187500.02235174447, -187500.02235174447, 0.018000000000000002, 0.044, 0.998, 192.0, 0.0, 0.0, 0.0, 0.0, 0.0, 0.0, 0.0, 0.0, 0.0, 1.675975559622372E9, 0.0, 2023-02-09 15:45:59.622
128.0, 6058.976776477907, 187500.0, 187500.0, -187500.02235174447, -187500.02235174447, -187500.02235174447, -187500.02235174447, -187500.02235174447, 0.018000000000000002, 0.044, 0.998, 192.0, 0.0, 0.0, 0.0, 0.0, 0.0, 0.0, 0.0, 0.0, 0.0, 1.675975559622391E9, 0.0, 2023-02-09 15:45:59.622
129.0, 5668.469449099237, 187500.0, 187500.0, -187500.02235174447, -187500.02235174447, -187500.02235174447, -187500.02235174447, -187500.02235174447, 0.018000000000000002, 0.044, 0.998, 192.0, 0.0, 0.0, 0.0, 0.0, 0.0, 0.0, 0.0, 0.0, 0.0, 1.67597555963054E9, 0.0, 2023-02-09 15:45:59.630
130.0, 5542.182092926752, 187500.0, 187500.0, -187500.02235174447, -187500.02235174447, -187500.02235174447, -187500.02235174447, -187500.02235174447, 0.018000000000000002, 0.044, 0.998, 192.0, 0.0, 0.0, 0.0, 0.0, 0.0, 0.0, 0.0, 0.0, 0.0, 1.675975559630558E9, 0.0, 2023-02-09 15:45:59.630
131.0, 5743.951290124809, 187500.0, 187500.0, -187500.02235174447, -187500.02235174447, -187500.02235174447, -187500.02235174447, -187500.02235174447, 0.018000000000000002, 0.044, 0.998, 192.0, 0.0, 0.0, 0.0, 0.0, 0.0, 0.0, 0.0, 0.0, 0.0, 1.675975559637067E9, 0.0, 2023-02-09 15:45:59.637
132.0, 5732.2389760302285, 187500.0, 187500.0, -187500.02235174447, -187500.02235174447, -187500.02235174447, -187500.02235174447, -187500.02235174447, 0.018000000000000002, 0.044, 0.998, 192.0, 0.0, 0.0, 0.0, 0.0, 0.0, 0.0, 0.0, 0.0, 0.0, 1.675975559637092E9, 0.0, 2023-02-09 15:45:59.637
133.0, 5921.26767888876, 187500.0, 187500.0, -187500.02235174447, -187500.02235174447, -187500.02235174447, -187500.02235174447, -187500.02235174447, 0.018000000000000002, 0.044, 0.998, 192.0, 0.0, 0.0, 0.0, 0.0, 0.0, 0.0, 0.0, 0.0, 0.0, 1.675975559644934E9, 0.0, 2023-02-09 15:45:59.644
134.0, 5920.731237021832, 187500.0, 187500.0, -187500.02235174447, -187500.02235174447, -187500.02235174447, -187500.02235174447, -187500.02235174447, 0.018000000000000002, 0.044, 0.998, 192.0, 0.0, 0.0, 0.0, 0.0, 0.0, 0.0, 0.0, 0.0, 0.0, 1.675975559644956E9, 0.0, 2023-02-09 15:45:59.644
135.0, 6184.772394272375, 187500.0, 187500.0, -187500.02235174447, -187500.02235174447, -187500.02235174447, -187500.02235174447, -187500.02235174447, 0.014, 0.048, 0.998, 192.0, 0.0, 112.0, 1.0, 128.0, 31.0, 48.0, 0.0, 0.0, 0.0, 1.675975559653078E9, 0.0, 2023-02-09 15:45:59.653
136.0, 5689.614199353958, 187500.0, 187500.0, -187500.02235174447, -187500.02235174447, -187500.02235174447, -187500.02235174447, -187500.02235174447, 0.014, 0.048, 0.998, 192.0, 0.0, 0.0, 0.0, 0.0, 0.0, 0.0, 0.0, 0.0, 0.0, 1.675975559653091E9, 0.0, 2023-02-09 15:45:59.653
137.0, 5566.657253105313, 187500.0, 187500.0, -187500.02235174447, -187500.02235174447, -187500.02235174447, -187500.02235174447, -187500.02235174447, 0.014, 0.048, 0.998, 192.0, 0.0, 0.0, 0.0, 0.0, 0.0, 0.0, 0.0, 0.0, 0.0, 1.675975559659629E9, 0.0, 2023-02-09 15:45:59.659
138.0, 5703.3605221939715, 187500.0, 187500.0, -187500.02235174447, -187500.02235174447, -187500.02235174447, -187500.02235174447, -187500.02235174447, 0.014, 0.048, 0.998, 192.0, 0.0, 0.0, 0.0, 0.0, 0.0, 0.0, 0.0, 0.0, 0.0, 1.675975559659649E9, 0.0, 2023-02-09 15:45:59.659
139.0, 5758.256406576205, 187500.0, 187500.0, -187500.02235174447, -187500.02235174447, -187500.02235174447, -187500.02235174447, -187500.02235174447, 0.014, 0.048, 0.998, 192.0, 0.0, 0.0, 0.0, 0.0, 0.0, 0.0, 0.0, 0.0, 0.0, 1.675975559666635E9, 0.0, 2023-02-09 15:45:59.666
140.0, 5941.8536355320975, 187500.0, 187500.0, -187500.02235174447, -187500.02235174447, -187500.02235174447, -187500.02235174447, -187500.02235174447, 0.014, 0.048, 0.998, 192.0, 0.0, 0.0, 0.0, 0.0, 0.0, 0.0, 0.0, 0.0, 0.0, 1.675975559674789E9, 0.0, 2023-02-09 15:45:59.674
141.0, 6197.915220012095, 187500.0, 187500.0, -187500.02235174447, -187500.02235174447, -187500.02235174447, -187500.02235174447, -187500.02235174447, 0.014, 0.048, 0.998, 192.0, 0.0, 0.0, 0.0, 0.0, 0.0, 0.0, 0.0, 0.0, 0.0, 1.675975559674811E9, 0.0, 2023-02-09 15:45:59.674
142.0, 5841.047268038663, 187500.0, 187500.0, -187500.02235174447, -187500.02235174447, -187500.02235174447, -187500.02235174447, -187500.02235174447, 0.014, 0.048, 0.998, 192.0, 0.0, 0.0, 0.0, 0.0, 0.0, 0.0, 0.0, 0.0, 0.0, 1.675975559682612E9, 0.0, 2023-02-09 15:45:59.682
143.0, 5592.96525632921, 187500.0, 187500.0, -187500.02235174447, -187500.02235174447, -187500.02235174447, -187500.02235174447, -187500.02235174447, 0.014, 0.048, 0.998, 192.0, 0.0, 0.0, 0.0, 0.0, 0.0, 0.0, 0.0, 0.0, 0.0, 1.675975559682632E9, 0.0, 2023-02-09 15:45:59.682
144.0, 5789.034758691163, 187500.0, 187500.0, -187500.02235174447, -187500.02235174447, -187500.02235174447, -187500.02235174447, -187500.02235174447, 0.01, 0.044, 1.0, 192.0, 0.0, 80.0, 1.0, 96.0, 31.0, 64.0, 0.0, 0.0, 0.0, 1.675975559689387E9, 0.0, 2023-02-09 15:45:59.689
145.0, 5909.063626416162, 187500.0, 187500.0, -187500.02235174447, -187500.02235174447, -187500.02235174447, -187500.02235174447, -187500.02235174447, 0.01, 0.044, 1.0, 192.0, 0.0, 0.0, 0.0, 0.0, 0.0, 0.0, 0.0, 0.0, 0.0, 1.675975559689412E9, 0.0, 2023-02-09 15:45:59.689
146.0, 5814.6722095814, 187500.0, 187500.0, -187500.02235174447, -187500.02235174447, -187500.02235174447, -187500.02235174447, -187500.02235174447, 0.01, 0.044, 1.0, 192.0, 0.0, 0.0, 0.0, 0.0, 0.0, 0.0, 0.0, 0.0, 0.0, 1.675975559697356E9, 0.0, 2023-02-09 15:45:59.697
147.0, 5920.731237021832, 187500.0, 187500.0, -187500.02235174447, -187500.02235174447, -187500.02235174447, -187500.02235174447, -187500.02235174447, 0.01, 0.044, 1.0, 192.0, 0.0, 0.0, 0.0, 0.0, 0.0, 0.0, 0.0, 0.0, 0.0, 1.675975559697374E9, 0.0, 2023-02-09 15:45:59.697
148.0, 5699.180745980829, 187500.0, 187500.0, -187500.02235174447, -187500.02235174447, -187500.02235174447, -187500.02235174447, -187500.02235174447, 0.01, 0.044, 1.0, 192.0, 0.0, 0.0, 0.0, 0.0, 0.0, 0.0, 0.0, 0.0, 0.0, 1.675975559705419E9, 0.0, 2023-02-09 15:45:59.705
149.0, 5739.324479022561, 187500.0, 187500.0, -187500.02235174447, -187500.02235174447, -187500.02235174447, -187500.02235174447, -187500.02235174447, 0.01, 0.044, 1.0, 192.0, 0.0, 0.0, 0.0, 0.0, 0.0, 0.0, 0.0, 0.0, 0.0, 1.675975559705436E9, 0.0, 2023-02-09 15:45:59.705
150.0, 5840.48847442728, 187500.0, 187500.0, -187500.02235174447, -187500.02235174447, -187500.02235174447, -187500.02235174447, -187500.02235174447, 0.01, 0.044, 1.0, 192.0, 0.0, 0.0, 0.0, 0.0, 0.0, 0.0, 0.0, 0.0, 0.0, 1.675975559712574E9, 0.0, 2023-02-09 15:45:59.712
151.0, 5988.166450043494, 187500.0, 187500.0, -187500.02235174447, -187500.02235174447, -187500.02235174447, -187500.02235174447, -187500.02235174447, 0.01, 0.044, 1.0, 192.0, 0.0, 0.0, 0.0, 0.0, 0.0, 0.0, 0.0, 0.0, 0.0, 1.675975559712591E9, 0.0, 2023-02-09 15:45:59.712
152.0, 6165.013452173884, 187500.0, 187500.0, -187500.02235174447, -187500.02235174447, -187500.02235174447, -187500.02235174447, -187500.02235174447, 0.01, 0.044, 1.0, 192.0, 0.0, 0.0, 0.0, 0.0, 0.0, 0.0, 0.0, 0.0, 0.0, 1.675975559719928E9, 0.0, 2023-02-09 15:45:59.719
153.0, 6126.411989499568, 187500.0, 187500.0, -187500.02235174447, -187500.02235174447, -187500.02235174447, -187500.02235174447, -187500.02235174447, 0.01, 0.044, 1.0, 192.0, 0.0, 0.0, 0.0, 0.0, 0.0, 0.0, 0.0, 0.0, 0.0, 1.675975559719941E9, 0.0, 2023-02-09 15:45:59.719
154.0, 5691.491745888204, 187500.0, 187500.0, -187500.02235174447, -187500.02235174447, -187500.02235174447, -187500.02235174447, -187500.02235174447, 0.016, 0.046, 0.992, 192.0, 0.0, 128.0, 1.0, 112.0, 31.0, 0.0, 0.0, 0.0, 0.0, 1.675975559727007E9, 0.0, 2023-02-09 15:45:59.727
155.0, 5571.462878163205, 187500.0, 187500.0, -187500.02235174447, -187500.02235174447, -187500.02235174447, -187500.02235174447, -187500.02235174447, 0.016, 0.046, 0.992, 192.0, 0.0, 0.0, 0.0, 0.0, 0.0, 0.0, 0.0, 0.0, 0.0, 1.675975559734925E9, 0.0, 2023-02-09 15:45:59.734
156.0, 5773.343834083537, 187500.0, 187500.0, -187500.02235174447, -187500.02235174447, -187500.02235174447, -187500.02235174447, -187500.02235174447, 0.016, 0.046, 0.992, 192.0, 0.0, 0.0, 0.0, 0.0, 0.0, 0.0, 0.0, 0.0, 0.0, 1.675975559734946E9, 0.0, 2023-02-09 15:45:59.734
157.0, 5993.642627435044, 187500.0, 187500.0, -187500.02235174447, -187500.02235174447, -187500.02235174447, -187500.02235174447, -187500.02235174447, 0.016, 0.046, 0.992, 192.0, 0.0, 0.0, 0.0, 0.0, 0.0, 0.0, 0.0, 0.0, 0.0, 1.6759755597421E9, 0.0, 2023-02-09 15:45:59.742
158.0, 6562.092192422413, 187500.0, 187500.0, -187500.02235174447, -187500.02235174447, -187500.02235174447, -187500.02235174447, -187500.02235174447, 0.016, 0.046, 0.992, 192.0, 0.0, 0.0, 0.0, 0.0, 0.0, 0.0, 0.0, 0.0, 0.0, 1.675975559742125E9, 0.0, 2023-02-09 15:45:59.742
159.0, 6131.552890724289, 187500.0, 187500.0, -187500.02235174447, -187500.02235174447, -187500.02235174447, -187500.02235174447, -187500.02235174447, 0.016, 0.046, 0.992, 192.0, 0.0, 0.0, 0.0, 0.0, 0.0, 0.0, 0.0, 0.0, 0.0, 1.67597555974964E9, 0.0, 2023-02-09 15:45:59.749
160.0, 5705.662751872868, 187500.0, 187500.0, -187500.02235174447, -187500.02235174447, -187500.02235174447, -187500.02235174447, -187500.02235174447, 0.016, 0.046, 0.992, 192.0, 0.0, 0.0, 0.0, 0.0, 0.0, 0.0, 0.0, 0.0, 0.0, 1.675975559749654E9, 0.0, 2023-02-09 15:45:59.749
161.0, 5731.27785101865, 187500.0, 187500.0, -187500.02235174447, -187500.02235174447, -187500.02235174447, -187500.02235174447, -187500.02235174447, 0.016, 0.046, 0.992, 192.0, 0.0, 0.0, 0.0, 0.0, 0.0, 0.0, 0.0, 0.0, 0.0, 1.675975559757695E9, 0.0, 2023-02-09 15:45:59.757
162.0, 5499.512612761571, 187500.0, 187500.0, -187500.02235174447, -187500.02235174447, -187500.02235174447, -187500.02235174447, -187500.02235174447, 0.016, 0.046, 0.992, 192.0, 0.0, 0.0, 0.0, 0.0, 0.0, 0.0, 0.0, 0.0, 0.0, 1.67597555975772E9, 0.0, 2023-02-09 15:45:59.757
163.0, 5828.530291143691, 187500.0, 187500.0, -187500.02235174447, -187500.02235174447, -187500.02235174447, -187500.02235174447, -187500.02235174447, 0.016, 0.046, 0.992, 192.0, 0.0, 0.0, 0.0, 0.0, 0.0, 0.0, 0.0, 0.0, 0.0, 1.675975559765581E9, 0.0, 2023-02-09 15:45:59.765
164.0, 5887.740062205799, 187500.0, 187500.0, -187500.02235174447, -187500.02235174447, -187500.02235174447, -187500.02235174447, -187500.02235174447, 0.012, 0.05, 0.992, 192.0, 0.0, 96.0, 1.0, 144.0, 31.0, 0.0, 0.0, 0.0, 0.0, 1.675975559765608E9, 0.0, 2023-02-09 15:45:59.765
165.0, 5817.890860782964, 187500.0, 187500.0, -187500.02235174447, -187500.02235174447, -187500.02235174447, -187500.02235174447, -187500.02235174447, 0.012, 0.05, 0.992, 192.0, 0.0, 0.0, 0.0, 0.0, 0.0, 0.0, 0.0, 0.0, 0.0, 1.675975559772147E9, 0.0, 2023-02-09 15:45:59.772
166.0, 5814.225174692295, 187500.0, 187500.0, -187500.02235174447, -187500.02235174447, -187500.02235174447, -187500.02235174447, -187500.02235174447, 0.012, 0.05, 0.992, 192.0, 0.0, 0.0, 0.0, 0.0, 0.0, 0.0, 0.0, 0.0, 0.0, 1.675975559772214E9, 0.0, 2023-02-09 15:45:59.772
