%OpenBCI Raw EEG Data
%Number of channels = 8
%Sample Rate = 250 Hz
%Board = OpenBCI_GUI$BoardCytonSerial
Sample Index, EXG Channel 0, EXG Channel 1, EXG Channel 2, EXG Channel 3, EXG Channel 4, EXG Channel 5, EXG Channel 6, EXG Channel 7, Accel Channel 0, Accel Channel 1, Accel Channel 2, Other, Other, Other, Other, Other, Other, Other, Analog Channel 0, Analog Channel 1, Analog Channel 2, Timestamp, Other, Timestamp (Formatted)
161.0, 4932.158283252512, 187500.0, 187500.0, -187500.02235174447, -187500.02235174447, -187500.02235174447, -187500.02235174447, -187500.02235174447, 0.0, 0.0, 0.0, 192.0, 0.0, 0.0, 0.0, 0.0, 0.0, 0.0, 0.0, 0.0, 0.0, 1.675975448719978E9, 0.0, 2023-02-09 15:44:08.719
162.0, 4950.486713705864, 187500.0, 187500.0, -187500.02235174447, -187500.02235174447, -187500.02235174447, -187500.02235174447, -187500.02235174447, 0.0, 0.0, 0.0, 192.0, 0.0, 0.0, 0.0, 0.0, 0.0, 0.0, 0.0, 0.0, 0.0, 1.675975448720883E9, 0.0, 2023-02-09 15:44:08.720
163.0, 4946.418696214998, 187500.0, 187500.0, -187500.02235174447, -187500.02235174447, -187500.02235174447, -187500.02235174447, -187500.02235174447, 0.0, 0.0, 0.0, 192.0, 0.0, 0.0, 0.0, 0.0, 0.0, 0.0, 0.0, 0.0, 0.0, 1.675975448720895E9, 0.0, 2023-02-09 15:44:08.720
164.0, 4974.470135506408, 187500.0, 187500.0, -187500.02235174447, -187500.02235174447, -187500.02235174447, -187500.02235174447, -187500.02235174447, 0.014, 0.05, 0.998, 192.0, 0.0, 112.0, 1.0, 144.0, 31.0, 48.0, 0.0, 0.0, 0.0, 1.675975448720905E9, 0.0, 2023-02-09 15:44:08.720
0.0, 0.0, 0.0, 0.0, 0.0, 0.0, 0.0, 0.0, 0.0, 0.014, 0.05, 0.996, 192.0, 0.0, 112.0, 1.0, 144.0, 31.0, 32.0, 0.0, 0.0, 0.0, 1.675975448800986E9, 0.0, 2023-02-09 15:44:08.800
1.0, 6557.666547020262, 187500.0, 187500.0, -187500.02235174447, -187500.02235174447, -187500.02235174447, -187500.02235174447, -187500.02235174447, 0.014, 0.05, 0.996, 192.0, 0.0, 0.0, 0.0, 0.0, 0.0, 0.0, 0.0, 0.0, 0.0, 1.675975448807998E9, 0.0, 2023-02-09 15:44:08.807
2.0, 6235.488502441466, 187500.0, 187500.0, -187500.02235174447, -187500.02235174447, -187500.02235174447, -187500.02235174447, -187500.02235174447, 0.014, 0.05, 0.996, 192.0, 0.0, 0.0, 0.0, 0.0, 0.0, 0.0, 0.0, 0.0, 0.0, 1.675975448814602E9, 0.0, 2023-02-09 15:44:08.814
3.0, 5105.898392903614, 187500.0, 187500.0, -187500.02235174447, -187500.02235174447, -187500.02235174447, -187500.02235174447, -187500.02235174447, 0.014, 0.05, 0.996, 192.0, 0.0, 0.0, 0.0, 0.0, 0.0, 0.0, 0.0, 0.0, 0.0, 1.675975448814625E9, 0.0, 2023-02-09 15:44:08.814
4.0, 5345.799666142424, 187500.0, 187500.0, -187500.02235174447, -187500.02235174447, -187500.02235174447, -187500.02235174447, -187500.02235174447, 0.014, 0.05, 0.996, 192.0, 0.0, 0.0, 0.0, 0.0, 0.0, 0.0, 0.0, 0.0, 0.0, 1.675975448820737E9, 0.0, 2023-02-09 15:44:08.820
5.0, 5933.2258621723495, 187500.0, 187500.0, -187500.02235174447, -187500.02235174447, -187500.02235174447, -187500.02235174447, -187500.02235174447, 0.014, 0.05, 0.996, 192.0, 0.0, 0.0, 0.0, 0.0, 0.0, 0.0, 0.0, 0.0, 0.0, 1.675975448820755E9, 0.0, 2023-02-09 15:44:08.820
6.0, 6512.5830784539085, 187500.0, 187500.0, -187500.02235174447, -187500.02235174447, -187500.02235174447, -187500.02235174447, -187500.02235174447, 0.014, 0.05, 0.996, 192.0, 0.0, 0.0, 0.0, 0.0, 0.0, 0.0, 0.0, 0.0, 0.0, 1.675975448829144E9, 0.0, 2023-02-09 15:44:08.829
7.0, 6453.3733073918, 187500.0, 187500.0, -187500.02235174447, -187500.02235174447, -187500.02235174447, -187500.02235174447, -187500.02235174447, 0.016, 0.05, 0.996, 192.0, 0.0, 128.0, 1.0, 144.0, 31.0, 32.0, 0.0, 0.0, 0.0, 1.675975448829168E9, 0.0, 2023-02-09 15:44:08.829
8.0, 5620.413198520327, 187500.0, 187500.0, -187500.02235174447, -187500.02235174447, -187500.02235174447, -187500.02235174447, -187500.02235174447, 0.016, 0.05, 0.996, 192.0, 0.0, 0.0, 0.0, 0.0, 0.0, 0.0, 0.0, 0.0, 0.0, 1.675975448836748E9, 0.0, 2023-02-09 15:44:08.836
9.0, 6273.9111511601395, 187500.0, 187500.0, -187500.02235174447, -187500.02235174447, -187500.02235174447, -187500.02235174447, -187500.02235174447, 0.016, 0.05, 0.996, 192.0, 0.0, 0.0, 0.0, 0.0, 0.0, 0.0, 0.0, 0.0, 0.0, 1.675975448836768E9, 0.0, 2023-02-09 15:44:08.836
10.0, 5701.505327404181, 187500.0, 187500.0, -187500.02235174447, -187500.02235174447, -187500.02235174447, -187500.02235174447, -187500.02235174447, 0.016, 0.05, 0.996, 192.0, 0.0, 0.0, 0.0, 0.0, 0.0, 0.0, 0.0, 0.0, 0.0, 1.675975448843783E9, 0.0, 2023-02-09 15:44:08.843
11.0, 5563.639767603847, 187500.0, 187500.0, -187500.02235174447, -187500.02235174447, -187500.02235174447, -187500.02235174447, -187500.02235174447, 0.016, 0.05, 0.996, 192.0, 0.0, 0.0, 0.0, 0.0, 0.0, 0.0, 0.0, 0.0, 0.0, 1.6759754488438E9, 0.0, 2023-02-09 15:44:08.843
12.0, 5953.565949626679, 187500.0, 187500.0, -187500.02235174447, -187500.02235174447, -187500.02235174447, -187500.02235174447, -187500.02235174447, 0.016, 0.05, 0.996, 192.0, 0.0, 0.0, 0.0, 0.0, 0.0, 0.0, 0.0, 0.0, 0.0, 1.675975448851363E9, 0.0, 2023-02-09 15:44:08.851
13.0, 6328.762332053463, 187500.0, 187500.0, -187500.02235174447, -187500.02235174447, -187500.02235174447, -187500.02235174447, -187500.02235174447, 0.016, 0.05, 0.996, 192.0, 0.0, 0.0, 0.0, 0.0, 0.0, 0.0, 0.0, 0.0, 0.0, 1.675975448851387E9, 0.0, 2023-02-09 15:44:08.851
14.0, 5625.0623613670305, 187500.0, 187500.0, -187500.02235174447, -187500.02235174447, -187500.02235174447, -187500.02235174447, -187500.02235174447, 0.016, 0.05, 0.996, 192.0, 0.0, 0.0, 0.0, 0.0, 0.0, 0.0, 0.0, 0.0, 0.0, 1.675975448859281E9, 0.0, 2023-02-09 15:44:08.859
15.0, 6330.058733231871, 187500.0, 187500.0, -187500.02235174447, -187500.02235174447, -187500.02235174447, -187500.02235174447, -187500.02235174447, 0.016, 0.05, 0.996, 192.0, 0.0, 0.0, 0.0, 0.0, 0.0, 0.0, 0.0, 0.0, 0.0, 1.6759754488593E9, 0.0, 2023-02-09 15:44:08.859
16.0, 5826.853910309543, 187500.0, 187500.0, -187500.02235174447, -187500.02235174447, -187500.02235174447, -187500.02235174447, -187500.02235174447, 0.016, 0.05, 0.996, 192.0, 0.0, 0.0, 0.0, 0.0, 0.0, 0.0, 0.0, 0.0, 0.0, 1.675975448866428E9, 0.0, 2023-02-09 15:44:08.866
17.0, 5301.856136543291, 187500.0, 187500.0, -187500.02235174447, -187500.02235174447, -187500.02235174447, -187500.02235174447, -187500.02235174447, 0.016, 0.046, 0.998, 192.0, 0.0, 128.0, 1.0, 112.0, 31.0, 48.0, 0.0, 0.0, 0.0, 1.675975448873384E9, 0.0, 2023-02-09 15:44:08.873
18.0, 5722.784188125634, 187500.0, 187500.0, -187500.02235174447, -187500.02235174447, -187500.02235174447, -187500.02235174447, -187500.02235174447, 0.016, 0.046, 0.998, 192.0, 0.0, 0.0, 0.0, 0.0, 0.0, 0.0, 0.0, 0.0, 0.0, 1.675975448873405E9, 0.0, 2023-02-09 15:44:08.873
19.0, 5850.323241987615, 187500.0, 187500.0, -187500.02235174447, -187500.02235174447, -187500.02235174447, -187500.02235174447, -187500.02235174447, 0.016, 0.046, 0.998, 192.0, 0.0, 0.0, 0.0, 0.0, 0.0, 0.0, 0.0, 0.0, 0.0, 1.675975448881068E9, 0.0, 2023-02-09 15:44:08.881
20.0, 6156.698603236509, 187500.0, 187500.0, -187500.02235174447, -187500.02235174447, -187500.02235174447, -187500.02235174447, -187500.02235174447, 0.016, 0.046, 0.998, 192.0, 0.0, 0.0, 0.0, 0.0, 0.0, 0.0, 0.0, 0.0, 0.0, 1.675975448881091E9, 0.0, 2023-02-09 15:44:08.881
21.0, 6971.218522932354, 187500.0, 187500.0, -187500.02235174447, -187500.02235174447, -187500.02235174447, -187500.02235174447, -187500.02235174447, 0.016, 0.046, 0.998, 192.0, 0.0, 0.0, 0.0, 0.0, 0.0, 0.0, 0.0, 0.0, 0.0, 1.675975448889129E9, 0.0, 2023-02-09 15:44:08.889
22.0, 6411.955524916116, 187500.0, 187500.0, -187500.02235174447, -187500.02235174447, -187500.02235174447, -187500.02235174447, -187500.02235174447, 0.016, 0.046, 0.998, 192.0, 0.0, 0.0, 0.0, 0.0, 0.0, 0.0, 0.0, 0.0, 0.0, 1.675975448889146E9, 0.0, 2023-02-09 15:44:08.889
23.0, 5112.849785429214, 187500.0, 187500.0, -187500.02235174447, -187500.02235174447, -187500.02235174447, -187500.02235174447, -187500.02235174447, 0.016, 0.046, 0.998, 192.0, 0.0, 0.0, 0.0, 0.0, 0.0, 0.0, 0.0, 0.0, 0.0, 1.675975448897077E9, 0.0, 2023-02-09 15:44:08.897
24.0, 5709.551955408091, 187500.0, 187500.0, -187500.02235174447, -187500.02235174447, -187500.02235174447, -187500.02235174447, -187500.02235174447, 0.016, 0.046, 0.998, 192.0, 0.0, 0.0, 0.0, 0.0, 0.0, 0.0, 0.0, 0.0, 0.0, 1.675975448897093E9, 0.0, 2023-02-09 15:44:08.897
25.0, 6314.68073304662, 187500.0, 187500.0, -187500.02235174447, -187500.02235174447, -187500.02235174447, -187500.02235174447, -187500.02235174447, 0.016, 0.046, 0.998, 192.0, 0.0, 0.0, 0.0, 0.0, 0.0, 0.0, 0.0, 0.0, 0.0, 1.675975448903681E9, 0.0, 2023-02-09 15:44:08.903
26.0, 5865.343614261582, 187500.0, 187500.0, -187500.02235174447, -187500.02235174447, -187500.02235174447, -187500.02235174447, -187500.02235174447, 0.016, 0.046, 0.998, 192.0, 0.0, 0.0, 0.0, 0.0, 0.0, 0.0, 0.0, 0.0, 0.0, 1.675975448903699E9, 0.0, 2023-02-09 15:44:08.903
27.0, 5750.343889039027, 187500.0, 187500.0, -187500.02235174447, -187500.02235174447, -187500.02235174447, -187500.02235174447, -187500.02235174447, 0.016, 0.048, 0.998, 192.0, 0.0, 128.0, 1.0, 128.0, 31.0, 48.0, 0.0, 0.0, 0.0, 1.675975448911565E9, 0.0, 2023-02-09 15:44:08.911
28.0, 5358.24958780403, 187500.0, 187500.0, -187500.02235174447, -187500.02235174447, -187500.02235174447, -187500.02235174447, -187500.02235174447, 0.016, 0.048, 0.998, 192.0, 0.0, 0.0, 0.0, 0.0, 0.0, 0.0, 0.0, 0.0, 0.0, 1.675975448911581E9, 0.0, 2023-02-09 15:44:08.911
29.0, 5820.617773606512, 187500.0, 187500.0, -187500.02235174447, -187500.02235174447, -187500.02235174447, -187500.02235174447, -187500.02235174447, 0.016, 0.048, 0.998, 192.0, 0.0, 0.0, 0.0, 0.0, 0.0, 0.0, 0.0, 0.0, 0.0, 1.675975448919688E9, 0.0, 2023-02-09 15:44:08.919
30.0, 6523.155453581268, 187500.0, 187500.0, -187500.02235174447, -187500.02235174447, -187500.02235174447, -187500.02235174447, -187500.02235174447, 0.016, 0.048, 0.998, 192.0, 0.0, 0.0, 0.0, 0.0, 0.0, 0.0, 0.0, 0.0, 0.0, 1.675975448919718E9, 0.0, 2023-02-09 15:44:08.919
31.0, 6920.547118252172, 187500.0, 187500.0, -187500.02235174447, -187500.02235174447, -187500.02235174447, -187500.02235174447, -187500.02235174447, 0.016, 0.048, 0.998, 192.0, 0.0, 0.0, 0.0, 0.0, 0.0, 0.0, 0.0, 0.0, 0.0, 1.675975448926698E9, 0.0, 2023-02-09 15:44:08.926
32.0, 5748.242825060228, 187500.0, 187500.0, -187500.02235174447, -187500.02235174447, -187500.02235174447, -187500.02235174447, -187500.02235174447, 0.016, 0.048, 0.998, 192.0, 0.0, 0.0, 0.0, 0.0, 0.0, 0.0, 0.0, 0.0, 0.0, 1.675975448933295E9, 0.0, 2023-02-09 15:44:08.933
33.0, 5797.707235539822, 187500.0, 187500.0, -187500.02235174447, -187500.02235174447, -187500.02235174447, -187500.02235174447, -187500.02235174447, 0.016, 0.048, 0.998, 192.0, 0.0, 0.0, 0.0, 0.0, 0.0, 0.0, 0.0, 0.0, 0.0, 1.675975448933308E9, 0.0, 2023-02-09 15:44:08.933
34.0, 6400.891411410739, 187500.0, 187500.0, -187500.02235174447, -187500.02235174447, -187500.02235174447, -187500.02235174447, -187500.02235174447, 0.016, 0.048, 0.998, 192.0, 0.0, 0.0, 0.0, 0.0, 0.0, 0.0, 0.0, 0.0, 0.0, 1.675975448941301E9, 0.0, 2023-02-09 15:44:08.941
35.0, 5062.312491215765, 187500.0, 187500.0, -187500.02235174447, -187500.02235174447, -187500.02235174447, -187500.02235174447, -187500.02235174447, 0.016, 0.048, 0.998, 192.0, 0.0, 0.0, 0.0, 0.0, 0.0, 0.0, 0.0, 0.0, 0.0, 1.675975448941312E9, 0.0, 2023-02-09 15:44:08.941
36.0, 5300.626790598249, 187500.0, 187500.0, -187500.02235174447, -187500.02235174447, -187500.02235174447, -187500.02235174447, -187500.02235174447, 0.016, 0.048, 0.998, 192.0, 0.0, 0.0, 0.0, 0.0, 0.0, 0.0, 0.0, 0.0, 0.0, 1.675975448949451E9, 0.0, 2023-02-09 15:44:08.949
37.0, 6452.792162035962, 187500.0, 187500.0, -187500.02235174447, -187500.02235174447, -187500.02235174447, -187500.02235174447, -187500.02235174447, 0.012, 0.05, 1.0, 192.0, 0.0, 96.0, 1.0, 144.0, 31.0, 64.0, 0.0, 0.0, 0.0, 1.675975448949468E9, 0.0, 2023-02-09 15:44:08.949
38.0, 5612.947715872254, 187500.0, 187500.0, -187500.02235174447, -187500.02235174447, -187500.02235174447, -187500.02235174447, -187500.02235174447, 0.012, 0.05, 1.0, 192.0, 0.0, 0.0, 0.0, 0.0, 0.0, 0.0, 0.0, 0.0, 0.0, 1.675975448955963E9, 0.0, 2023-02-09 15:44:08.955
39.0, 5835.593442391568, 187500.0, 187500.0, -187500.02235174447, -187500.02235174447, -187500.02235174447, -187500.02235174447, -187500.02235174447, 0.012, 0.05, 1.0, 192.0, 0.0, 0.0, 0.0, 0.0, 0.0, 0.0, 0.0, 0.0, 0.0, 1.675975448955982E9, 0.0, 2023-02-09 15:44:08.955
40.0, 6567.613073302874, 187500.0, 187500.0, -187500.02235174447, -187500.02235174447, -187500.02235174447, -187500.02235174447, -187500.02235174447, 0.012, 0.05, 1.0, 192.0, 0.0, 0.0, 0.0, 0.0, 0.0, 0.0, 0.0, 0.0, 0.0, 1.675975448963829E9, 0.0, 2023-02-09 15:44:08.963
41.0, 5570.077070006975, 187500.0, 187500.0, -187500.02235174447, -187500.02235174447, -187500.02235174447, -187500.02235174447, -187500.02235174447, 0.012, 0.05, 1.0, 192.0, 0.0, 0.0, 0.0, 0.0, 0.0, 0.0, 0.0, 0.0, 0.0, 1.67597544896389E9, 0.0, 2023-02-09 15:44:08.963
42.0, 5351.298195278429, 187500.0, 187500.0, -187500.02235174447, -187500.02235174447, -187500.02235174447, -187500.02235174447, -187500.02235174447, 0.012, 0.05, 1.0, 192.0, 0.0, 0.0, 0.0, 0.0, 0.0, 0.0, 0.0, 0.0, 0.0, 1.67597544897189E9, 0.0, 2023-02-09 15:44:08.971
43.0, 6846.138160960456, 187500.0, 187500.0, -187500.02235174447, -187500.02235174447, -187500.02235174447, -187500.02235174447, -187500.02235174447, 0.012, 0.05, 1.0, 192.0, 0.0, 0.0, 0.0, 0.0, 0.0, 0.0, 0.0, 0.0, 0.0, 1.675975448971904E9, 0.0, 2023-02-09 15:44:08.971
44.0, 6603.018236520081, 187500.0, 187500.0, -187500.02235174447, -187500.02235174447, -187500.02235174447, -187500.02235174447, -187500.02235174447, 0.012, 0.05, 1.0, 192.0, 0.0, 0.0, 0.0, 0.0, 0.0, 0.0, 0.0, 0.0, 0.0, 1.675975448979048E9, 0.0, 2023-02-09 15:44:08.979
45.0, 5093.873154386658, 187500.0, 187500.0, -187500.02235174447, -187500.02235174447, -187500.02235174447, -187500.02235174447, -187500.02235174447, 0.012, 0.05, 1.0, 192.0, 0.0, 0.0, 0.0, 0.0, 0.0, 0.0, 0.0, 0.0, 0.0, 1.675975448979064E9, 0.0, 2023-02-09 15:44:08.979
46.0, 5206.995333074968, 187500.0, 187500.0, -187500.02235174447, -187500.02235174447, -187500.02235174447, -187500.02235174447, -187500.02235174447, 0.012, 0.05, 1.0, 192.0, 0.0, 0.0, 0.0, 0.0, 0.0, 0.0, 0.0, 0.0, 0.0, 1.675975448985681E9, 0.0, 2023-02-09 15:44:08.985
47.0, 6067.291625415281, 187500.0, 187500.0, -187500.02235174447, -187500.02235174447, -187500.02235174447, -187500.02235174447, -187500.02235174447, 0.014, 0.05, 0.996, 192.0, 0.0, 112.0, 1.0, 144.0, 31.0, 32.0, 0.0, 0.0, 0.0, 1.67597544899349E9, 0.0, 2023-02-09 15:44:08.993
48.0, 5855.978233334808, 187500.0, 187500.0, -187500.02235174447, -187500.02235174447, -187500.02235174447, -187500.02235174447, -187500.02235174447, 0.014, 0.05, 0.996, 192.0, 0.0, 0.0, 0.0, 0.0, 0.0, 0.0, 0.0, 0.0, 0.0, 1.675975448993508E9, 0.0, 2023-02-09 15:44:08.993
49.0, 6750.517398180652, 187500.0, 187500.0, -187500.02235174447, -187500.02235174447, -187500.02235174447, -187500.02235174447, -187500.02235174447, 0.014, 0.05, 0.996, 192.0, 0.0, 0.0, 0.0, 0.0, 0.0, 0.0, 0.0, 0.0, 0.0, 1.675975449001576E9, 0.0, 2023-02-09 15:44:09.001
50.0, 6062.5977590796665, 187500.0, 187500.0, -187500.02235174447, -187500.02235174447, -187500.02235174447, -187500.02235174447, -187500.02235174447, 0.014, 0.05, 0.996, 192.0, 0.0, 0.0, 0.0, 0.0, 0.0, 0.0, 0.0, 0.0, 0.0, 1.675975449001592E9, 0.0, 2023-02-09 15:44:09.001
51.0, 4934.460512931409, 187500.0, 187500.0, -187500.02235174447, -187500.02235174447, -187500.02235174447, -187500.02235174447, -187500.02235174447, 0.014, 0.05, 0.996, 192.0, 0.0, 0.0, 0.0, 0.0, 0.0, 0.0, 0.0, 0.0, 0.0, 1.675975449008817E9, 0.0, 2023-02-09 15:44:09.008
52.0, 5122.885718689647, 187500.0, 187500.0, -187500.02235174447, -187500.02235174447, -187500.02235174447, -187500.02235174447, -187500.02235174447, 0.014, 0.05, 0.996, 192.0, 0.0, 0.0, 0.0, 0.0, 0.0, 0.0, 0.0, 0.0, 0.0, 1.675975449008843E9, 0.0, 2023-02-09 15:44:09.008
53.0, 5558.588273356948, 187500.0, 187500.0, -187500.02235174447, -187500.02235174447, -187500.02235174447, -187500.02235174447, -187500.02235174447, 0.014, 0.05, 0.996, 192.0, 0.0, 0.0, 0.0, 0.0, 0.0, 0.0, 0.0, 0.0, 0.0, 1.675975449016281E9, 0.0, 2023-02-09 15:44:09.016
54.0, 7029.91420387199, 187500.0, 187500.0, -187500.02235174447, -187500.02235174447, -187500.02235174447, -187500.02235174447, -187500.02235174447, 0.014, 0.05, 0.996, 192.0, 0.0, 0.0, 0.0, 0.0, 0.0, 0.0, 0.0, 0.0, 0.0, 1.675975449016304E9, 0.0, 2023-02-09 15:44:09.016
55.0, 6974.548932856194, 187500.0, 187500.0, -187500.02235174447, -187500.02235174447, -187500.02235174447, -187500.02235174447, -187500.02235174447, 0.014, 0.05, 0.996, 192.0, 0.0, 0.0, 0.0, 0.0, 0.0, 0.0, 0.0, 0.0, 0.0, 1.67597544902406E9, 0.0, 2023-02-09 15:44:09.024
56.0, 5546.272462162074, 187500.0, 187500.0, -187500.02235174447, -187500.02235174447, -187500.02235174447, -187500.02235174447, -187500.02235174447, 0.014, 0.05, 0.996, 192.0, 0.0, 0.0, 0.0, 0.0, 0.0, 0.0, 0.0, 0.0, 0.0, 1.675975449024079E9, 0.0, 2023-02-09 15:44:09.024
57.0, 5617.753340930145, 187500.0, 187500.0, -187500.02235174447, -187500.02235174447, -187500.02235174447, -187500.02235174447, -187500.02235174447, 0.014, 0.05, 0.99, 192.0, 0.0, 112.0, 1.0, 144.0, 30.0, 240.0, 0.0, 0.0, 0.0, 1.675975449032231E9, 0.0, 2023-02-09 15:44:09.032
58.0, 5933.136455194528, 187500.0, 187500.0, -187500.02235174447, -187500.02235174447, -187500.02235174447, -187500.02235174447, -187500.02235174447, 0.014, 0.05, 0.99, 192.0, 0.0, 0.0, 0.0, 0.0, 0.0, 0.0, 0.0, 0.0, 0.0, 1.675975449032259E9, 0.0, 2023-02-09 15:44:09.032
59.0, 5412.586678574882, 187500.0, 187500.0, -187500.02235174447, -187500.02235174447, -187500.02235174447, -187500.02235174447, -187500.02235174447, 0.014, 0.05, 0.99, 192.0, 0.0, 0.0, 0.0, 0.0, 0.0, 0.0, 0.0, 0.0, 0.0, 1.67597544903883E9, 0.0, 2023-02-09 15:44:09.038
60.0, 5488.0014643670875, 187500.0, 187500.0, -187500.02235174447, -187500.02235174447, -187500.02235174447, -187500.02235174447, -187500.02235174447, 0.014, 0.05, 0.99, 192.0, 0.0, 0.0, 0.0, 0.0, 0.0, 0.0, 0.0, 0.0, 0.0, 1.675975449038844E9, 0.0, 2023-02-09 15:44:09.038
61.0, 6440.521054329998, 187500.0, 187500.0, -187500.02235174447, -187500.02235174447, -187500.02235174447, -187500.02235174447, -187500.02235174447, 0.014, 0.05, 0.99, 192.0, 0.0, 0.0, 0.0, 0.0, 0.0, 0.0, 0.0, 0.0, 0.0, 1.675975449045847E9, 0.0, 2023-02-09 15:44:09.045
62.0, 6067.91747426003, 187500.0, 187500.0, -187500.02235174447, -187500.02235174447, -187500.02235174447, -187500.02235174447, -187500.02235174447, 0.014, 0.05, 0.99, 192.0, 0.0, 0.0, 0.0, 0.0, 0.0, 0.0, 0.0, 0.0, 0.0, 1.675975449045864E9, 0.0, 2023-02-09 15:44:09.045
63.0, 5023.778083774815, 187500.0, 187500.0, -187500.02235174447, -187500.02235174447, -187500.02235174447, -187500.02235174447, -187500.02235174447, 0.014, 0.05, 0.99, 192.0, 0.0, 0.0, 0.0, 0.0, 0.0, 0.0, 0.0, 0.0, 0.0, 1.67597544905376E9, 0.0, 2023-02-09 15:44:09.053
64.0, 5410.664428551725, 187500.0, 187500.0, -187500.02235174447, -187500.02235174447, -187500.02235174447, -187500.02235174447, -187500.02235174447, 0.014, 0.05, 0.99, 192.0, 0.0, 0.0, 0.0, 0.0, 0.0, 0.0, 0.0, 0.0, 0.0, 1.675975449061885E9, 0.0, 2023-02-09 15:44:09.061
65.0, 6389.849649649817, 187500.0, 187500.0, -187500.02235174447, -187500.02235174447, -187500.02235174447, -187500.02235174447, -187500.02235174447, 0.014, 0.05, 0.99, 192.0, 0.0, 0.0, 0.0, 0.0, 0.0, 0.0, 0.0, 0.0, 0.0, 1.675975449061899E9, 0.0, 2023-02-09 15:44:09.061
66.0, 6707.42323487082, 187500.0, 187500.0, -187500.02235174447, -187500.02235174447, -187500.02235174447, -187500.02235174447, -187500.02235174447, 0.018000000000000002, 0.048, 0.994, 192.0, 0.0, 144.0, 1.0, 128.0, 31.0, 16.0, 0.0, 0.0, 0.0, 1.675975449068441E9, 0.0, 2023-02-09 15:44:09.068
67.0, 5895.630227998523, 187500.0, 187500.0, -187500.02235174447, -187500.02235174447, -187500.02235174447, -187500.02235174447, -187500.02235174447, 0.018000000000000002, 0.048, 0.994, 192.0, 0.0, 0.0, 0.0, 0.0, 0.0, 0.0, 0.0, 0.0, 0.0, 1.675975449068456E9, 0.0, 2023-02-09 15:44:09.068
68.0, 4996.441900305975, 187500.0, 187500.0, -187500.02235174447, -187500.02235174447, -187500.02235174447, -187500.02235174447, -187500.02235174447, 0.018000000000000002, 0.048, 0.994, 192.0, 0.0, 0.0, 0.0, 0.0, 0.0, 0.0, 0.0, 0.0, 0.0, 1.675975449076439E9, 0.0, 2023-02-09 15:44:09.076
69.0, 5672.269245656639, 187500.0, 187500.0, -187500.02235174447, -187500.02235174447, -187500.02235174447, -187500.02235174447, -187500.02235174447, 0.018000000000000002, 0.048, 0.994, 192.0, 0.0, 0.0, 0.0, 0.0, 0.0, 0.0, 0.0, 0.0, 0.0, 1.675975449076461E9, 0.0, 2023-02-09 15:44:09.076
70.0, 7249.0730582562755, 187500.0, 187500.0, -187500.02235174447, -187500.02235174447, -187500.02235174447, -187500.02235174447, -187500.02235174447, 0.018000000000000002, 0.048, 0.994, 192.0, 0.0, 0.0, 0.0, 0.0, 0.0, 0.0, 0.0, 0.0, 0.0, 1.675975449084427E9, 0.0, 2023-02-09 15:44:09.084
71.0, 5562.477476892171, 187500.0, 187500.0, -187500.02235174447, -187500.02235174447, -187500.02235174447, -187500.02235174447, -187500.02235174447, 0.018000000000000002, 0.048, 0.994, 192.0, 0.0, 0.0, 0.0, 0.0, 0.0, 0.0, 0.0, 0.0, 0.0, 1.675975449084438E9, 0.0, 2023-02-09 15:44:09.084
72.0, 4834.86113963856, 187500.0, 187500.0, -187500.02235174447, -187500.02235174447, -187500.02235174447, -187500.02235174447, -187500.02235174447, 0.018000000000000002, 0.048, 0.994, 192.0, 0.0, 0.0, 0.0, 0.0, 0.0, 0.0, 0.0, 0.0, 0.0, 1.675975449091535E9, 0.0, 2023-02-09 15:44:09.091
73.0, 5792.946313970842, 187500.0, 187500.0, -187500.02235174447, -187500.02235174447, -187500.02235174447, -187500.02235174447, -187500.02235174447, 0.018000000000000002, 0.048, 0.994, 192.0, 0.0, 0.0, 0.0, 0.0, 0.0, 0.0, 0.0, 0.0, 0.0, 1.675975449091557E9, 0.0, 2023-02-09 15:44:09.091
74.0, 5970.106240523606, 187500.0, 187500.0, -187500.02235174447, -187500.02235174447, -187500.02235174447, -187500.02235174447, -187500.02235174447, 0.018000000000000002, 0.048, 0.994, 192.0, 0.0, 0.0, 0.0, 0.0, 0.0, 0.0, 0.0, 0.0, 0.0, 1.675975449099005E9, 0.0, 2023-02-09 15:44:09.099
75.0, 5954.616481616078, 187500.0, 187500.0, -187500.02235174447, -187500.02235174447, -187500.02235174447, -187500.02235174447, -187500.02235174447, 0.018000000000000002, 0.048, 0.994, 192.0, 0.0, 0.0, 0.0, 0.0, 0.0, 0.0, 0.0, 0.0, 0.0, 1.675975449099029E9, 0.0, 2023-02-09 15:44:09.099
76.0, 5574.189790986752, 187500.0, 187500.0, -187500.02235174447, -187500.02235174447, -187500.02235174447, -187500.02235174447, -187500.02235174447, 0.024, 0.05, 0.998, 192.0, 0.0, 192.0, 1.0, 144.0, 31.0, 48.0, 0.0, 0.0, 0.0, 1.67597544910714E9, 0.0, 2023-02-09 15:44:09.107
77.0, 5969.748612612321, 187500.0, 187500.0, -187500.02235174447, -187500.02235174447, -187500.02235174447, -187500.02235174447, -187500.02235174447, 0.024, 0.05, 0.998, 192.0, 0.0, 0.0, 0.0, 0.0, 0.0, 0.0, 0.0, 0.0, 0.0, 1.675975449107162E9, 0.0, 2023-02-09 15:44:09.107
78.0, 5555.369622155384, 187500.0, 187500.0, -187500.02235174447, -187500.02235174447, -187500.02235174447, -187500.02235174447, -187500.02235174447, 0.024, 0.05, 0.998, 192.0, 0.0, 0.0, 0.0, 0.0, 0.0, 0.0, 0.0, 0.0, 0.0, 1.675975449114187E9, 0.0, 2023-02-09 15:44:09.114
79.0, 5580.425927689783, 187500.0, 187500.0, -187500.02235174447, -187500.02235174447, -187500.02235174447, -187500.02235174447, -187500.02235174447, 0.024, 0.05, 0.998, 192.0, 0.0, 0.0, 0.0, 0.0, 0.0, 0.0, 0.0, 0.0, 0.0, 1.675975449126092E9, 0.0, 2023-02-09 15:44:09.126
80.0, 5955.868179305575, 187500.0, 187500.0, -187500.02235174447, -187500.02235174447, -187500.02235174447, -187500.02235174447, -187500.02235174447, 0.024, 0.05, 0.998, 192.0, 0.0, 0.0, 0.0, 0.0, 0.0, 0.0, 0.0, 0.0, 0.0, 1.675975449126113E9, 0.0, 2023-02-09 15:44:09.126
81.0, 6646.067696341002, 187500.0, 187500.0, -187500.02235174447, -187500.02235174447, -187500.02235174447, -187500.02235174447, -187500.02235174447, 0.024, 0.05, 0.998, 192.0, 0.0, 0.0, 0.0, 0.0, 0.0, 0.0, 0.0, 0.0, 0.0, 1.675975449128868E9, 0.0, 2023-02-09 15:44:09.128
82.0, 6102.048588043283, 187500.0, 187500.0, -187500.02235174447, -187500.02235174447, -187500.02235174447, -187500.02235174447, -187500.02235174447, 0.024, 0.05, 0.998, 192.0, 0.0, 0.0, 0.0, 0.0, 0.0, 0.0, 0.0, 0.0, 0.0, 1.675975449128884E9, 0.0, 2023-02-09 15:44:09.128
83.0, 5171.83603904677, 187500.0, 187500.0, -187500.02235174447, -187500.02235174447, -187500.02235174447, -187500.02235174447, -187500.02235174447, 0.024, 0.05, 0.998, 192.0, 0.0, 0.0, 0.0, 0.0, 0.0, 0.0, 0.0, 0.0, 0.0, 1.675975449136647E9, 0.0, 2023-02-09 15:44:09.136
84.0, 6131.329373279736, 187500.0, 187500.0, -187500.02235174447, -187500.02235174447, -187500.02235174447, -187500.02235174447, -187500.02235174447, 0.024, 0.05, 0.998, 192.0, 0.0, 0.0, 0.0, 0.0, 0.0, 0.0, 0.0, 0.0, 0.0, 1.675975449136667E9, 0.0, 2023-02-09 15:44:09.136
85.0, 6120.645239430099, 187500.0, 187500.0, -187500.02235174447, -187500.02235174447, -187500.02235174447, -187500.02235174447, -187500.02235174447, 0.024, 0.05, 0.998, 192.0, 0.0, 0.0, 0.0, 0.0, 0.0, 0.0, 0.0, 0.0, 0.0, 1.675975449143795E9, 0.0, 2023-02-09 15:44:09.143
86.0, 5716.592754911513, 187500.0, 187500.0, -187500.02235174447, -187500.02235174447, -187500.02235174447, -187500.02235174447, -187500.02235174447, 0.018000000000000002, 0.044, 0.996, 192.0, 0.0, 144.0, 1.0, 96.0, 31.0, 32.0, 0.0, 0.0, 0.0, 1.675975449143818E9, 0.0, 2023-02-09 15:44:09.143
87.0, 5549.893444763833, 187500.0, 187500.0, -187500.02235174447, -187500.02235174447, -187500.02235174447, -187500.02235174447, -187500.02235174447, 0.018000000000000002, 0.044, 0.996, 192.0, 0.0, 0.0, 0.0, 0.0, 0.0, 0.0, 0.0, 0.0, 0.0, 1.67597544915117E9, 0.0, 2023-02-09 15:44:09.151
88.0, 5445.622556879825, 187500.0, 187500.0, -187500.02235174447, -187500.02235174447, -187500.02235174447, -187500.02235174447, -187500.02235174447, 0.018000000000000002, 0.044, 0.996, 192.0, 0.0, 0.0, 0.0, 0.0, 0.0, 0.0, 0.0, 0.0, 0.0, 1.675975449151182E9, 0.0, 2023-02-09 15:44:09.151
89.0, 6201.178574702571, 187500.0, 187500.0, -187500.02235174447, -187500.02235174447, -187500.02235174447, -187500.02235174447, -187500.02235174447, 0.018000000000000002, 0.044, 0.996, 192.0, 0.0, 0.0, 0.0, 0.0, 0.0, 0.0, 0.0, 0.0, 0.0, 1.675975449159389E9, 0.0, 2023-02-09 15:44:09.159
90.0, 6391.928361884161, 187500.0, 187500.0, -187500.02235174447, -187500.02235174447, -187500.02235174447, -187500.02235174447, -187500.02235174447, 0.018000000000000002, 0.044, 0.996, 192.0, 0.0, 0.0, 0.0, 0.0, 0.0, 0.0, 0.0, 0.0, 0.0, 1.675975449159407E9, 0.0, 2023-02-09 15:44:09.159
91.0, 6094.337236206203, 187500.0, 187500.0, -187500.02235174447, -187500.02235174447, -187500.02235174447, -187500.02235174447, -187500.02235174447, 0.018000000000000002, 0.044, 0.996, 192.0, 0.0, 0.0, 0.0, 0.0, 0.0, 0.0, 0.0, 0.0, 0.0, 1.675975449167285E9, 0.0, 2023-02-09 15:44:09.167
92.0, 5148.858445746714, 187500.0, 187500.0, -187500.02235174447, -187500.02235174447, -187500.02235174447, -187500.02235174447, -187500.02235174447, 0.018000000000000002, 0.044, 0.996, 192.0, 0.0, 0.0, 0.0, 0.0, 0.0, 0.0, 0.0, 0.0, 0.0, 1.675975449167347E9, 0.0, 2023-02-09 15:44:09.167
93.0, 4984.439013533475, 187500.0, 187500.0, -187500.02235174447, -187500.02235174447, -187500.02235174447, -187500.02235174447, -187500.02235174447, 0.018000000000000002, 0.044, 0.996, 192.0, 0.0, 0.0, 0.0, 0.0, 0.0, 0.0, 0.0, 0.0, 0.0, 1.675975449173537E9, 0.0, 2023-02-09 15:44:09.173
94.0, 6469.175990721702, 187500.0, 187500.0, -187500.02235174447, -187500.02235174447, -187500.02235174447, -187500.02235174447, -187500.02235174447, 0.018000000000000002, 0.044, 0.996, 192.0, 0.0, 0.0, 0.0, 0.0, 0.0, 0.0, 0.0, 0.0, 0.0, 1.67597544918089E9, 0.0, 2023-02-09 15:44:09.180
95.0, 6520.205023313168, 187500.0, 187500.0, -187500.02235174447, -187500.02235174447, -187500.02235174447, -187500.02235174447, -187500.02235174447, 0.018000000000000002, 0.044, 0.996, 192.0, 0.0, 0.0, 0.0, 0.0, 0.0, 0.0, 0.0, 0.0, 0.0, 1.675975449180918E9, 0.0, 2023-02-09 15:44:09.180
96.0, 5688.496612131192, 187500.0, 187500.0, -187500.02235174447, -187500.02235174447, -187500.02235174447, -187500.02235174447, -187500.02235174447, 0.016, 0.048, 1.0, 192.0, 0.0, 128.0, 1.0, 128.0, 31.0, 64.0, 0.0, 0.0, 0.0, 1.675975449188986E9, 0.0, 2023-02-09 15:44:09.188
97.0, 5290.389691637718, 187500.0, 187500.0, -187500.02235174447, -187500.02235174447, -187500.02235174447, -187500.02235174447, -187500.02235174447, 0.016, 0.048, 1.0, 192.0, 0.0, 0.0, 0.0, 0.0, 0.0, 0.0, 0.0, 0.0, 0.0, 1.675975449189014E9, 0.0, 2023-02-09 15:44:09.189
98.0, 5599.20139303224, 187500.0, 187500.0, -187500.02235174447, -187500.02235174447, -187500.02235174447, -187500.02235174447, -187500.02235174447, 0.016, 0.048, 1.0, 192.0, 0.0, 0.0, 0.0, 0.0, 0.0, 0.0, 0.0, 0.0, 0.0, 1.675975449197566E9, 0.0, 2023-02-09 15:44:09.197
99.0, 6391.861306650795, 187500.0, 187500.0, -187500.02235174447, -187500.02235174447, -187500.02235174447, -187500.02235174447, -187500.02235174447, 0.016, 0.048, 1.0, 192.0, 0.0, 0.0, 0.0, 0.0, 0.0, 0.0, 0.0, 0.0, 0.0, 1.675975449197585E9, 0.0, 2023-02-09 15:44:09.197
100.0, 5887.605951739068, 187500.0, 187500.0, -187500.02235174447, -187500.02235174447, -187500.02235174447, -187500.02235174447, -187500.02235174447, 0.016, 0.048, 1.0, 192.0, 0.0, 0.0, 0.0, 0.0, 0.0, 0.0, 0.0, 0.0, 0.0, 1.675975449203488E9, 0.0, 2023-02-09 15:44:09.203
101.0, 5212.98560058899, 187500.0, 187500.0, -187500.02235174447, -187500.02235174447, -187500.02235174447, -187500.02235174447, -187500.02235174447, 0.016, 0.048, 1.0, 192.0, 0.0, 0.0, 0.0, 0.0, 0.0, 0.0, 0.0, 0.0, 0.0, 1.675975449203509E9, 0.0, 2023-02-09 15:44:09.203
102.0, 5695.000969767687, 187500.0, 187500.0, -187500.02235174447, -187500.02235174447, -187500.02235174447, -187500.02235174447, -187500.02235174447, 0.016, 0.048, 1.0, 192.0, 0.0, 0.0, 0.0, 0.0, 0.0, 0.0, 0.0, 0.0, 0.0, 1.675975449211535E9, 0.0, 2023-02-09 15:44:09.211
103.0, 6280.303750074358, 187500.0, 187500.0, -187500.02235174447, -187500.02235174447, -187500.02235174447, -187500.02235174447, -187500.02235174447, 0.016, 0.048, 1.0, 192.0, 0.0, 0.0, 0.0, 0.0, 0.0, 0.0, 0.0, 0.0, 0.0, 1.675975449211599E9, 0.0, 2023-02-09 15:44:09.211
104.0, 5929.940155737419, 187500.0, 187500.0, -187500.02235174447, -187500.02235174447, -187500.02235174447, -187500.02235174447, -187500.02235174447, 0.016, 0.048, 1.0, 192.0, 0.0, 0.0, 0.0, 0.0, 0.0, 0.0, 0.0, 0.0, 0.0, 1.675975449219666E9, 0.0, 2023-02-09 15:44:09.219
105.0, 5735.547034209613, 187500.0, 187500.0, -187500.02235174447, -187500.02235174447, -187500.02235174447, -187500.02235174447, -187500.02235174447, 0.016, 0.048, 1.0, 192.0, 0.0, 0.0, 0.0, 0.0, 0.0, 0.0, 0.0, 0.0, 0.0, 1.675975449219688E9, 0.0, 2023-02-09 15:44:09.219
106.0, 5334.757904381502, 187500.0, 187500.0, -187500.02235174447, -187500.02235174447, -187500.02235174447, -187500.02235174447, -187500.02235174447, 0.012, 0.05, 0.996, 192.0, 0.0, 96.0, 1.0, 144.0, 31.0, 32.0, 0.0, 0.0, 0.0, 1.675975449226735E9, 0.0, 2023-02-09 15:44:09.226
107.0, 5816.505052626736, 187500.0, 187500.0, -187500.02235174447, -187500.02235174447, -187500.02235174447, -187500.02235174447, -187500.02235174447, 0.012, 0.05, 0.996, 192.0, 0.0, 0.0, 0.0, 0.0, 0.0, 0.0, 0.0, 0.0, 0.0, 1.67597544922676E9, 0.0, 2023-02-09 15:44:09.226
108.0, 5711.049522286597, 187500.0, 187500.0, -187500.02235174447, -187500.02235174447, -187500.02235174447, -187500.02235174447, -187500.02235174447, 0.012, 0.05, 0.996, 192.0, 0.0, 0.0, 0.0, 0.0, 0.0, 0.0, 0.0, 0.0, 0.0, 1.675975449233029E9, 0.0, 2023-02-09 15:44:09.233
109.0, 5953.297728693215, 187500.0, 187500.0, -187500.02235174447, -187500.02235174447, -187500.02235174447, -187500.02235174447, -187500.02235174447, 0.012, 0.05, 0.996, 192.0, 0.0, 0.0, 0.0, 0.0, 0.0, 0.0, 0.0, 0.0, 0.0, 1.675975449241315E9, 0.0, 2023-02-09 15:44:09.241
110.0, 6015.5249852567895, 187500.0, 187500.0, -187500.02235174447, -187500.02235174447, -187500.02235174447, -187500.02235174447, -187500.02235174447, 0.012, 0.05, 0.996, 192.0, 0.0, 0.0, 0.0, 0.0, 0.0, 0.0, 0.0, 0.0, 0.0, 1.675975449241332E9, 0.0, 2023-02-09 15:44:09.241
111.0, 6226.99483954845, 187500.0, 187500.0, -187500.02235174447, -187500.02235174447, -187500.02235174447, -187500.02235174447, -187500.02235174447, 0.012, 0.05, 0.996, 192.0, 0.0, 0.0, 0.0, 0.0, 0.0, 0.0, 0.0, 0.0, 0.0, 1.675975449249366E9, 0.0, 2023-02-09 15:44:09.249
112.0, 6046.415096094024, 187500.0, 187500.0, -187500.02235174447, -187500.02235174447, -187500.02235174447, -187500.02235174447, -187500.02235174447, 0.012, 0.05, 0.996, 192.0, 0.0, 0.0, 0.0, 0.0, 0.0, 0.0, 0.0, 0.0, 0.0, 1.67597544924938E9, 0.0, 2023-02-09 15:44:09.249
113.0, 5155.7651347834035, 187500.0, 187500.0, -187500.02235174447, -187500.02235174447, -187500.02235174447, -187500.02235174447, -187500.02235174447, 0.012, 0.05, 0.996, 192.0, 0.0, 0.0, 0.0, 0.0, 0.0, 0.0, 0.0, 0.0, 0.0, 1.675975449256E9, 0.0, 2023-02-09 15:44:09.256
114.0, 5238.220720079032, 187500.0, 187500.0, -187500.02235174447, -187500.02235174447, -187500.02235174447, -187500.02235174447, -187500.02235174447, 0.012, 0.05, 0.996, 192.0, 0.0, 0.0, 0.0, 0.0, 0.0, 0.0, 0.0, 0.0, 0.0, 1.675975449256021E9, 0.0, 2023-02-09 15:44:09.256
115.0, 5659.886379228399, 187500.0, 187500.0, -187500.02235174447, -187500.02235174447, -187500.02235174447, -187500.02235174447, -187500.02235174447, 0.012, 0.046, 0.996, 192.0, 0.0, 96.0, 1.0, 112.0, 31.0, 32.0, 0.0, 0.0, 0.0, 1.675975449263911E9, 0.0, 2023-02-09 15:44:09.263
116.0, 5729.914394606876, 187500.0, 187500.0, -187500.02235174447, -187500.02235174447, -187500.02235174447, -187500.02235174447, -187500.02235174447, 0.012, 0.046, 0.996, 192.0, 0.0, 0.0, 0.0, 0.0, 0.0, 0.0, 0.0, 0.0, 0.0, 1.675975449263936E9, 0.0, 2023-02-09 15:44:09.263
117.0, 5728.975621339753, 187500.0, 187500.0, -187500.02235174447, -187500.02235174447, -187500.02235174447, -187500.02235174447, -187500.02235174447, 0.012, 0.046, 0.996, 192.0, 0.0, 0.0, 0.0, 0.0, 0.0, 0.0, 0.0, 0.0, 0.0, 1.675975449271872E9, 0.0, 2023-02-09 15:44:09.271
118.0, 6148.093181621216, 187500.0, 187500.0, -187500.02235174447, -187500.02235174447, -187500.02235174447, -187500.02235174447, -187500.02235174447, 0.012, 0.046, 0.996, 192.0, 0.0, 0.0, 0.0, 0.0, 0.0, 0.0, 0.0, 0.0, 0.0, 1.675975449271892E9, 0.0, 2023-02-09 15:44:09.271
119.0, 5670.101126444474, 187500.0, 187500.0, -187500.02235174447, -187500.02235174447, -187500.02235174447, -187500.02235174447, -187500.02235174447, 0.012, 0.046, 0.996, 192.0, 0.0, 0.0, 0.0, 0.0, 0.0, 0.0, 0.0, 0.0, 0.0, 1.675975449278837E9, 0.0, 2023-02-09 15:44:09.278
120.0, 5804.993904232252, 187500.0, 187500.0, -187500.02235174447, -187500.02235174447, -187500.02235174447, -187500.02235174447, -187500.02235174447, 0.012, 0.046, 0.996, 192.0, 0.0, 0.0, 0.0, 0.0, 0.0, 0.0, 0.0, 0.0, 0.0, 1.675975449278906E9, 0.0, 2023-02-09 15:44:09.278
121.0, 5551.8603982759005, 187500.0, 187500.0, -187500.02235174447, -187500.02235174447, -187500.02235174447, -187500.02235174447, -187500.02235174447, 0.012, 0.046, 0.996, 192.0, 0.0, 0.0, 0.0, 0.0, 0.0, 0.0, 0.0, 0.0, 0.0, 1.675975449286472E9, 0.0, 2023-02-09 15:44:09.286
122.0, 5494.930505148233, 187500.0, 187500.0, -187500.02235174447, -187500.02235174447, -187500.02235174447, -187500.02235174447, -187500.02235174447, 0.012, 0.046, 0.996, 192.0, 0.0, 0.0, 0.0, 0.0, 0.0, 0.0, 0.0, 0.0, 0.0, 1.6759754492865E9, 0.0, 2023-02-09 15:44:09.286
123.0, 5673.342129390494, 187500.0, 187500.0, -187500.02235174447, -187500.02235174447, -187500.02235174447, -187500.02235174447, -187500.02235174447, 0.012, 0.046, 0.996, 192.0, 0.0, 0.0, 0.0, 0.0, 0.0, 0.0, 0.0, 0.0, 0.0, 1.675975449293928E9, 0.0, 2023-02-09 15:44:09.293
124.0, 5983.718452896888, 187500.0, 187500.0, -187500.02235174447, -187500.02235174447, -187500.02235174447, -187500.02235174447, -187500.02235174447, 0.012, 0.046, 0.996, 192.0, 0.0, 0.0, 0.0, 0.0, 0.0, 0.0, 0.0, 0.0, 0.0, 1.675975449293944E9, 0.0, 2023-02-09 15:44:09.293
125.0, 6522.1496250807795, 187500.0, 187500.0, -187500.02235174447, -187500.02235174447, -187500.02235174447, -187500.02235174447, -187500.02235174447, 0.014, 0.048, 0.994, 192.0, 0.0, 112.0, 1.0, 128.0, 31.0, 16.0, 0.0, 0.0, 0.0, 1.67597544930165E9, 0.0, 2023-02-09 15:44:09.301
126.0, 6017.849566680142, 187500.0, 187500.0, -187500.02235174447, -187500.02235174447, -187500.02235174447, -187500.02235174447, -187500.02235174447, 0.014, 0.048, 0.994, 192.0, 0.0, 0.0, 0.0, 0.0, 0.0, 0.0, 0.0, 0.0, 0.0, 1.675975449308641E9, 0.0, 2023-02-09 15:44:09.308
127.0, 4927.196195983433, 187500.0, 187500.0, -187500.02235174447, -187500.02235174447, -187500.02235174447, -187500.02235174447, -187500.02235174447, 0.014, 0.048, 0.994, 192.0, 0.0, 0.0, 0.0, 0.0, 0.0, 0.0, 0.0, 0.0, 0.0, 1.675975449308655E9, 0.0, 2023-02-09 15:44:09.308
128.0, 5510.1296913778415, 187500.0, 187500.0, -187500.02235174447, -187500.02235174447, -187500.02235174447, -187500.02235174447, -187500.02235174447, 0.014, 0.048, 0.994, 192.0, 0.0, 0.0, 0.0, 0.0, 0.0, 0.0, 0.0, 0.0, 0.0, 1.67597544931608E9, 0.0, 2023-02-09 15:44:09.316
129.0, 7078.104564917632, 187500.0, 187500.0, -187500.02235174447, -187500.02235174447, -187500.02235174447, -187500.02235174447, -187500.02235174447, 0.014, 0.048, 0.994, 192.0, 0.0, 0.0, 0.0, 0.0, 0.0, 0.0, 0.0, 0.0, 0.0, 1.675975449316104E9, 0.0, 2023-02-09 15:44:09.316
130.0, 5825.2222329643055, 187500.0, 187500.0, -187500.02235174447, -187500.02235174447, -187500.02235174447, -187500.02235174447, -187500.02235174447, 0.014, 0.048, 0.994, 192.0, 0.0, 0.0, 0.0, 0.0, 0.0, 0.0, 0.0, 0.0, 0.0, 1.675975449324257E9, 0.0, 2023-02-09 15:44:09.324
131.0, 4754.841894488561, 187500.0, 187500.0, -187500.02235174447, -187500.02235174447, -187500.02235174447, -187500.02235174447, -187500.02235174447, 0.014, 0.048, 0.994, 192.0, 0.0, 0.0, 0.0, 0.0, 0.0, 0.0, 0.0, 0.0, 0.0, 1.675975449324272E9, 0.0, 2023-02-09 15:44:09.324
132.0, 5328.745285123025, 187500.0, 187500.0, -187500.02235174447, -187500.02235174447, -187500.02235174447, -187500.02235174447, -187500.02235174447, 0.014, 0.048, 0.994, 192.0, 0.0, 0.0, 0.0, 0.0, 0.0, 0.0, 0.0, 0.0, 0.0, 1.675975449332151E9, 0.0, 2023-02-09 15:44:09.332
133.0, 6077.640483098088, 187500.0, 187500.0, -187500.02235174447, -187500.02235174447, -187500.02235174447, -187500.02235174447, -187500.02235174447, 0.014, 0.048, 0.994, 192.0, 0.0, 0.0, 0.0, 0.0, 0.0, 0.0, 0.0, 0.0, 0.0, 1.67597544933218E9, 0.0, 2023-02-09 15:44:09.332
134.0, 6282.33775881979, 187500.0, 187500.0, -187500.02235174447, -187500.02235174447, -187500.02235174447, -187500.02235174447, -187500.02235174447, 0.014, 0.048, 0.994, 192.0, 0.0, 0.0, 0.0, 0.0, 0.0, 0.0, 0.0, 0.0, 0.0, 1.675975449338785E9, 0.0, 2023-02-09 15:44:09.338
135.0, 5887.6730069724335, 187500.0, 187500.0, -187500.02235174447, -187500.02235174447, -187500.02235174447, -187500.02235174447, -187500.02235174447, 0.016, 0.05, 0.996, 192.0, 0.0, 128.0, 1.0, 144.0, 31.0, 32.0, 0.0, 0.0, 0.0, 1.675975449338804E9, 0.0, 2023-02-09 15:44:09.338
136.0, 5298.056339985888, 187500.0, 187500.0, -187500.02235174447, -187500.02235174447, -187500.02235174447, -187500.02235174447, -187500.02235174447, 0.016, 0.05, 0.996, 192.0, 0.0, 0.0, 0.0, 0.0, 0.0, 0.0, 0.0, 0.0, 0.0, 1.675975449346989E9, 0.0, 2023-02-09 15:44:09.346
137.0, 5273.782345507425, 187500.0, 187500.0, -187500.02235174447, -187500.02235174447, -187500.02235174447, -187500.02235174447, -187500.02235174447, 0.016, 0.05, 0.996, 192.0, 0.0, 0.0, 0.0, 0.0, 0.0, 0.0, 0.0, 0.0, 0.0, 1.675975449347008E9, 0.0, 2023-02-09 15:44:09.347
138.0, 5128.093675147734, 187500.0, 187500.0, -187500.02235174447, -187500.02235174447, -187500.02235174447, -187500.02235174447, -187500.02235174447, 0.016, 0.05, 0.996, 192.0, 0.0, 0.0, 0.0, 0.0, 0.0, 0.0, 0.0, 0.0, 0.0, 1.675975449354871E9, 0.0, 2023-02-09 15:44:09.354
139.0, 5921.848824244598, 187500.0, 187500.0, -187500.02235174447, -187500.02235174447, -187500.02235174447, -187500.02235174447, -187500.02235174447, 0.016, 0.05, 0.996, 192.0, 0.0, 0.0, 0.0, 0.0, 0.0, 0.0, 0.0, 0.0, 0.0, 1.675975449354885E9, 0.0, 2023-02-09 15:44:09.354
140.0, 5983.51728719679, 187500.0, 187500.0, -187500.02235174447, -187500.02235174447, -187500.02235174447, -187500.02235174447, -187500.02235174447, 0.016, 0.05, 0.996, 192.0, 0.0, 0.0, 0.0, 0.0, 0.0, 0.0, 0.0, 0.0, 0.0, 1.675975449361852E9, 0.0, 2023-02-09 15:44:09.361
141.0, 5866.215332295338, 187500.0, 187500.0, -187500.02235174447, -187500.02235174447, -187500.02235174447, -187500.02235174447, -187500.02235174447, 0.016, 0.05, 0.996, 192.0, 0.0, 0.0, 0.0, 0.0, 0.0, 0.0, 0.0, 0.0, 0.0, 1.675975449368317E9, 0.0, 2023-02-09 15:44:09.368
142.0, 7047.303861058219, 187500.0, 187500.0, -187500.02235174447, -187500.02235174447, -187500.02235174447, -187500.02235174447, -187500.02235174447, 0.016, 0.05, 0.996, 192.0, 0.0, 0.0, 0.0, 0.0, 0.0, 0.0, 0.0, 0.0, 0.0, 1.675975449368376E9, 0.0, 2023-02-09 15:44:09.368
143.0, 4925.11748374909, 187500.0, 187500.0, -187500.02235174447, -187500.02235174447, -187500.02235174447, -187500.02235174447, -187500.02235174447, 0.016, 0.05, 0.996, 192.0, 0.0, 0.0, 0.0, 0.0, 0.0, 0.0, 0.0, 0.0, 0.0, 1.67597544937654E9, 0.0, 2023-02-09 15:44:09.376
144.0, 4765.257807404734, 187500.0, 187500.0, -187500.02235174447, -187500.02235174447, -187500.02235174447, -187500.02235174447, -187500.02235174447, 0.016, 0.05, 0.996, 192.0, 0.0, 0.0, 0.0, 0.0, 0.0, 0.0, 0.0, 0.0, 0.0, 1.675975449376562E9, 0.0, 2023-02-09 15:44:09.376
145.0, 5742.029040101653, 187500.0, 187500.0, -187500.02235174447, -187500.02235174447, -187500.02235174447, -187500.02235174447, -187500.02235174447, 0.016, 0.048, 0.992, 192.0, 0.0, 128.0, 1.0, 128.0, 31.0, 0.0, 0.0, 0.0, 0.0, 1.675975449384456E9, 0.0, 2023-02-09 15:44:09.384
146.0, 6466.270263942512, 187500.0, 187500.0, -187500.02235174447, -187500.02235174447, -187500.02235174447, -187500.02235174447, -187500.02235174447, 0.016, 0.048, 0.992, 192.0, 0.0, 0.0, 0.0, 0.0, 0.0, 0.0, 0.0, 0.0, 0.0, 1.675975449384482E9, 0.0, 2023-02-09 15:44:09.384
147.0, 5543.769066783079, 187500.0, 187500.0, -187500.02235174447, -187500.02235174447, -187500.02235174447, -187500.02235174447, -187500.02235174447, 0.016, 0.048, 0.992, 192.0, 0.0, 0.0, 0.0, 0.0, 0.0, 0.0, 0.0, 0.0, 0.0, 1.675975449391513E9, 0.0, 2023-02-09 15:44:09.391
148.0, 5120.315268077286, 187500.0, 187500.0, -187500.02235174447, -187500.02235174447, -187500.02235174447, -187500.02235174447, -187500.02235174447, 0.016, 0.048, 0.992, 192.0, 0.0, 0.0, 0.0, 0.0, 0.0, 0.0, 0.0, 0.0, 0.0, 1.675975449391526E9, 0.0, 2023-02-09 15:44:09.391
149.0, 6153.3458415682135, 187500.0, 187500.0, -187500.02235174447, -187500.02235174447, -187500.02235174447, -187500.02235174447, -187500.02235174447, 0.016, 0.048, 0.992, 192.0, 0.0, 0.0, 0.0, 0.0, 0.0, 0.0, 0.0, 0.0, 0.0, 1.675975449399156E9, 0.0, 2023-02-09 15:44:09.399
150.0, 5590.663026650313, 187500.0, 187500.0, -187500.02235174447, -187500.02235174447, -187500.02235174447, -187500.02235174447, -187500.02235174447, 0.016, 0.048, 0.992, 192.0, 0.0, 0.0, 0.0, 0.0, 0.0, 0.0, 0.0, 0.0, 0.0, 1.675975449399169E9, 0.0, 2023-02-09 15:44:09.399
151.0, 5251.520008029939, 187500.0, 187500.0, -187500.02235174447, -187500.02235174447, -187500.02235174447, -187500.02235174447, -187500.02235174447, 0.016, 0.048, 0.992, 192.0, 0.0, 0.0, 0.0, 0.0, 0.0, 0.0, 0.0, 0.0, 0.0, 1.675975449407077E9, 0.0, 2023-02-09 15:44:09.407
152.0, 5353.086334834854, 187500.0, 187500.0, -187500.02235174447, -187500.02235174447, -187500.02235174447, -187500.02235174447, -187500.02235174447, 0.016, 0.048, 0.992, 192.0, 0.0, 0.0, 0.0, 0.0, 0.0, 0.0, 0.0, 0.0, 0.0, 1.675975449407126E9, 0.0, 2023-02-09 15:44:09.407
153.0, 5561.359889669406, 187500.0, 187500.0, -187500.02235174447, -187500.02235174447, -187500.02235174447, -187500.02235174447, -187500.02235174447, 0.016, 0.048, 0.992, 192.0, 0.0, 0.0, 0.0, 0.0, 0.0, 0.0, 0.0, 0.0, 0.0, 1.675975449415011E9, 0.0, 2023-02-09 15:44:09.415
154.0, 6792.2034015898, 187500.0, 187500.0, -187500.02235174447, -187500.02235174447, -187500.02235174447, -187500.02235174447, -187500.02235174447, 0.016, 0.048, 0.992, 192.0, 0.0, 0.0, 0.0, 0.0, 0.0, 0.0, 0.0, 0.0, 0.0, 1.675975449415032E9, 0.0, 2023-02-09 15:44:09.415
155.0, 6103.546154921789, 187500.0, 187500.0, -187500.02235174447, -187500.02235174447, -187500.02235174447, -187500.02235174447, -187500.02235174447, 0.016, 0.048, 0.994, 192.0, 0.0, 128.0, 1.0, 128.0, 31.0, 16.0, 0.0, 0.0, 0.0, 1.675975449421448E9, 0.0, 2023-02-09 15:44:09.421
156.0, 4870.132192389035, 187500.0, 187500.0, -187500.02235174447, -187500.02235174447, -187500.02235174447, -187500.02235174447, -187500.02235174447, 0.016, 0.048, 0.994, 192.0, 0.0, 0.0, 0.0, 0.0, 0.0, 0.0, 0.0, 0.0, 0.0, 1.675975449428716E9, 0.0, 2023-02-09 15:44:09.428
157.0, 5386.502192795539, 187500.0, 187500.0, -187500.02235174447, -187500.02235174447, -187500.02235174447, -187500.02235174447, -187500.02235174447, 0.016, 0.048, 0.994, 192.0, 0.0, 0.0, 0.0, 0.0, 0.0, 0.0, 0.0, 0.0, 0.0, 1.675975449428735E9, 0.0, 2023-02-09 15:44:09.428
158.0, 5537.376467868861, 187500.0, 187500.0, -187500.02235174447, -187500.02235174447, -187500.02235174447, -187500.02235174447, -187500.02235174447, 0.016, 0.048, 0.994, 192.0, 0.0, 0.0, 0.0, 0.0, 0.0, 0.0, 0.0, 0.0, 0.0, 1.675975449436827E9, 0.0, 2023-02-09 15:44:09.436
159.0, 5809.017218234208, 187500.0, 187500.0, -187500.02235174447, -187500.02235174447, -187500.02235174447, -187500.02235174447, -187500.02235174447, 0.016, 0.048, 0.994, 192.0, 0.0, 0.0, 0.0, 0.0, 0.0, 0.0, 0.0, 0.0, 0.0, 1.675975449436851E9, 0.0, 2023-02-09 15:44:09.436
160.0, 6392.0177688619815, 187500.0, 187500.0, -187500.02235174447, -187500.02235174447, -187500.02235174447, -187500.02235174447, -187500.02235174447, 0.016, 0.048, 0.994, 192.0, 0.0, 0.0, 0.0, 0.0, 0.0, 0.0, 0.0, 0.0, 0.0, 1.675975449443827E9, 0.0, 2023-02-09 15:44:09.443
161.0, 5318.7093518625925, 187500.0, 187500.0, -187500.02235174447, -187500.02235174447, -187500.02235174447, -187500.02235174447, -187500.02235174447, 0.016, 0.048, 0.994, 192.0, 0.0, 0.0, 0.0, 0.0, 0.0, 0.0, 0.0, 0.0, 0.0, 1.675975449443848E9, 0.0, 2023-02-09 15:44:09.443
162.0, 5140.074210175778, 187500.0, 187500.0, -187500.02235174447, -187500.02235174447, -187500.02235174447, -187500.02235174447, -187500.02235174447, 0.016, 0.048, 0.994, 192.0, 0.0, 0.0, 0.0, 0.0, 0.0, 0.0, 0.0, 0.0, 0.0, 1.675975449451219E9, 0.0, 2023-02-09 15:44:09.451
163.0, 6363.407535959189, 187500.0, 187500.0, -187500.02235174447, -187500.02235174447, -187500.02235174447, -187500.02235174447, -187500.02235174447, 0.016, 0.048, 0.994, 192.0, 0.0, 0.0, 0.0, 0.0, 0.0, 0.0, 0.0, 0.0, 0.0, 1.675975449451235E9, 0.0, 2023-02-09 15:44:09.451
164.0, 5805.463290865814, 187500.0, 187500.0, -187500.02235174447, -187500.02235174447, -187500.02235174447, -187500.02235174447, -187500.02235174447, 0.016, 0.048, 0.994, 192.0, 0.0, 0.0, 0.0, 0.0, 0.0, 0.0, 0.0, 0.0, 0.0, 1.67597544945942E9, 0.0, 2023-02-09 15:44:09.459
165.0, 4764.766069026718, 187500.0, 187500.0, -187500.02235174447, -187500.02235174447, -187500.02235174447, -187500.02235174447, -187500.02235174447, 0.016, 0.042, 0.998, 192.0, 0.0, 128.0, 1.0, 80.0, 31.0, 48.0, 0.0, 0.0, 0.0, 1.675975449459441E9, 0.0, 2023-02-09 15:44:09.459
166.0, 5744.890063391932, 187500.0, 187500.0, -187500.02235174447, -187500.02235174447, -187500.02235174447, -187500.02235174447, -187500.02235174447, 0.016, 0.042, 0.998, 192.0, 0.0, 0.0, 0.0, 0.0, 0.0, 0.0, 0.0, 0.0, 0.0, 1.675975449467404E9, 0.0, 2023-02-09 15:44:09.467
167.0, 6123.886242376118, 187500.0, 187500.0, -187500.02235174447, -187500.02235174447, -187500.02235174447, -187500.02235174447, -187500.02235174447, 0.016, 0.042, 0.998, 192.0, 0.0, 0.0, 0.0, 0.0, 0.0, 0.0, 0.0, 0.0, 0.0, 1.675975449467458E9, 0.0, 2023-02-09 15:44:09.467
168.0, 6083.206067467459, 187500.0, 187500.0, -187500.02235174447, -187500.02235174447, -187500.02235174447, -187500.02235174447, -187500.02235174447, 0.016, 0.042, 0.998, 192.0, 0.0, 0.0, 0.0, 0.0, 0.0, 0.0, 0.0, 0.0, 0.0, 1.675975449473879E9, 0.0, 2023-02-09 15:44:09.473
169.0, 5312.473215159562, 187500.0, 187500.0, -187500.02235174447, -187500.02235174447, -187500.02235174447, -187500.02235174447, -187500.02235174447, 0.016, 0.042, 0.998, 192.0, 0.0, 0.0, 0.0, 0.0, 0.0, 0.0, 0.0, 0.0, 0.0, 1.675975449473901E9, 0.0, 2023-02-09 15:44:09.473
170.0, 5063.832409838726, 187500.0, 187500.0, -187500.02235174447, -187500.02235174447, -187500.02235174447, -187500.02235174447, -187500.02235174447, 0.016, 0.042, 0.998, 192.0, 0.0, 0.0, 0.0, 0.0, 0.0, 0.0, 0.0, 0.0, 0.0, 1.675975449481016E9, 0.0, 2023-02-09 15:44:09.481
171.0, 5164.2140941875095, 187500.0, 187500.0, -187500.02235174447, -187500.02235174447, -187500.02235174447, -187500.02235174447, -187500.02235174447, 0.016, 0.042, 0.998, 192.0, 0.0, 0.0, 0.0, 0.0, 0.0, 0.0, 0.0, 0.0, 0.0, 1.675975449488915E9, 0.0, 2023-02-09 15:44:09.488
172.0, 6884.069071301112, 187500.0, 187500.0, -187500.02235174447, -187500.02235174447, -187500.02235174447, -187500.02235174447, -187500.02235174447, 0.016, 0.042, 0.998, 192.0, 0.0, 0.0, 0.0, 0.0, 0.0, 0.0, 0.0, 0.0, 0.0, 1.675975449488942E9, 0.0, 2023-02-09 15:44:09.488
173.0, 6326.415398885656, 187500.0, 187500.0, -187500.02235174447, -187500.02235174447, -187500.02235174447, -187500.02235174447, -187500.02235174447, 0.016, 0.042, 0.998, 192.0, 0.0, 0.0, 0.0, 0.0, 0.0, 0.0, 0.0, 0.0, 0.0, 1.675975449497033E9, 0.0, 2023-02-09 15:44:09.497
174.0, 4539.572243639498, 187500.0, 187500.0, -187500.02235174447, -187500.02235174447, -187500.02235174447, -187500.02235174447, -187500.02235174447, 0.014, 0.042, 0.998, 192.0, 0.0, 112.0, 1.0, 80.0, 31.0, 48.0, 0.0, 0.0, 0.0, 1.675975449497061E9, 0.0, 2023-02-09 15:44:09.497
175.0, 5314.551927393905, 187500.0, 187500.0, -187500.02235174447, -187500.02235174447, -187500.02235174447, -187500.02235174447, -187500.02235174447, 0.014, 0.042, 0.998, 192.0, 0.0, 0.0, 0.0, 0.0, 0.0, 0.0, 0.0, 0.0, 0.0, 1.675975449503717E9, 0.0, 2023-02-09 15:44:09.503
176.0, 5716.883327589432, 187500.0, 187500.0, -187500.02235174447, -187500.02235174447, -187500.02235174447, -187500.02235174447, -187500.02235174447, 0.014, 0.042, 0.998, 192.0, 0.0, 0.0, 0.0, 0.0, 0.0, 0.0, 0.0, 0.0, 0.0, 1.675975449503735E9, 0.0, 2023-02-09 15:44:09.503
177.0, 6075.673529586021, 187500.0, 187500.0, -187500.02235174447, -187500.02235174447, -187500.02235174447, -187500.02235174447, -187500.02235174447, 0.014, 0.042, 0.998, 192.0, 0.0, 0.0, 0.0, 0.0, 0.0, 0.0, 0.0, 0.0, 0.0, 1.675975449511554E9, 0.0, 2023-02-09 15:44:09.511
178.0, 5446.986013291599, 187500.0, 187500.0, -187500.02235174447, -187500.02235174447, -187500.02235174447, -187500.02235174447, -187500.02235174447, 0.014, 0.042, 0.998, 192.0, 0.0, 0.0, 0.0, 0.0, 0.0, 0.0, 0.0, 0.0, 0.0, 1.67597544951158E9, 0.0, 2023-02-09 15:44:09.511
179.0, 5539.790456270034, 187500.0, 187500.0, -187500.02235174447, -187500.02235174447, -187500.02235174447, -187500.02235174447, -187500.02235174447, 0.014, 0.042, 0.998, 192.0, 0.0, 0.0, 0.0, 0.0, 0.0, 0.0, 0.0, 0.0, 0.0, 1.675975449519687E9, 0.0, 2023-02-09 15:44:09.519
180.0, 5590.9535993282325, 187500.0, 187500.0, -187500.02235174447, -187500.02235174447, -187500.02235174447, -187500.02235174447, -187500.02235174447, 0.014, 0.042, 0.998, 192.0, 0.0, 0.0, 0.0, 0.0, 0.0, 0.0, 0.0, 0.0, 0.0, 1.675975449519714E9, 0.0, 2023-02-09 15:44:09.519
181.0, 5121.097579133222, 187500.0, 187500.0, -187500.02235174447, -187500.02235174447, -187500.02235174447, -187500.02235174447, -187500.02235174447, 0.014, 0.042, 0.998, 192.0, 0.0, 0.0, 0.0, 0.0, 0.0, 0.0, 0.0, 0.0, 0.0, 1.675975449526678E9, 0.0, 2023-02-09 15:44:09.526
182.0, 5338.423590472173, 187500.0, 187500.0, -187500.02235174447, -187500.02235174447, -187500.02235174447, -187500.02235174447, -187500.02235174447, 0.014, 0.042, 0.998, 192.0, 0.0, 0.0, 0.0, 0.0, 0.0, 0.0, 0.0, 0.0, 0.0, 1.675975449526694E9, 0.0, 2023-02-09 15:44:09.526
183.0, 6241.23290076648, 187500.0, 187500.0, -187500.02235174447, -187500.02235174447, -187500.02235174447, -187500.02235174447, -187500.02235174447, 0.014, 0.042, 0.998, 192.0, 0.0, 0.0, 0.0, 0.0, 0.0, 0.0, 0.0, 0.0, 0.0, 1.675975449534262E9, 0.0, 2023-02-09 15:44:09.534
184.0, 6299.660360772653, 187500.0, 187500.0, -187500.02235174447, -187500.02235174447, -187500.02235174447, -187500.02235174447, -187500.02235174447, 0.012, 0.044, 0.998, 192.0, 0.0, 96.0, 1.0, 96.0, 31.0, 48.0, 0.0, 0.0, 0.0, 1.675975449534281E9, 0.0, 2023-02-09 15:44:09.534
185.0, 4917.696704589928, 187500.0, 187500.0, -187500.02235174447, -187500.02235174447, -187500.02235174447, -187500.02235174447, -187500.02235174447, 0.012, 0.044, 0.998, 192.0, 0.0, 0.0, 0.0, 0.0, 0.0, 0.0, 0.0, 0.0, 0.0, 1.675975449541203E9, 0.0, 2023-02-09 15:44:09.541
186.0, 5066.156991262078, 187500.0, 187500.0, -187500.02235174447, -187500.02235174447, -187500.02235174447, -187500.02235174447, -187500.02235174447, 0.012, 0.044, 0.998, 192.0, 0.0, 0.0, 0.0, 0.0, 0.0, 0.0, 0.0, 0.0, 0.0, 1.675975449541221E9, 0.0, 2023-02-09 15:44:09.541
187.0, 5507.045150643009, 187500.0, 187500.0, -187500.02235174447, -187500.02235174447, -187500.02235174447, -187500.02235174447, -187500.02235174447, 0.012, 0.044, 0.998, 192.0, 0.0, 0.0, 0.0, 0.0, 0.0, 0.0, 0.0, 0.0, 0.0, 1.67597544954926E9, 0.0, 2023-02-09 15:44:09.549
188.0, 6318.391122626201, 187500.0, 187500.0, -187500.02235174447, -187500.02235174447, -187500.02235174447, -187500.02235174447, -187500.02235174447, 0.012, 0.044, 0.998, 192.0, 0.0, 0.0, 0.0, 0.0, 0.0, 0.0, 0.0, 0.0, 0.0, 1.675975449555921E9, 0.0, 2023-02-09 15:44:09.555
189.0, 5956.829304317153, 187500.0, 187500.0, -187500.02235174447, -187500.02235174447, -187500.02235174447, -187500.02235174447, -187500.02235174447, 0.012, 0.044, 0.998, 192.0, 0.0, 0.0, 0.0, 0.0, 0.0, 0.0, 0.0, 0.0, 0.0, 1.675975449555955E9, 0.0, 2023-02-09 15:44:09.555
190.0, 4765.034289960181, 187500.0, 187500.0, -187500.02235174447, -187500.02235174447, -187500.02235174447, -187500.02235174447, -187500.02235174447, 0.012, 0.044, 0.998, 192.0, 0.0, 0.0, 0.0, 0.0, 0.0, 0.0, 0.0, 0.0, 0.0, 1.675975449563936E9, 0.0, 2023-02-09 15:44:09.563
191.0, 5199.440443449073, 187500.0, 187500.0, -187500.02235174447, -187500.02235174447, -187500.02235174447, -187500.02235174447, -187500.02235174447, 0.012, 0.044, 0.998, 192.0, 0.0, 0.0, 0.0, 0.0, 0.0, 0.0, 0.0, 0.0, 0.0, 1.675975449563965E9, 0.0, 2023-02-09 15:44:09.563
192.0, 5442.716830100636, 187500.0, 187500.0, -187500.02235174447, -187500.02235174447, -187500.02235174447, -187500.02235174447, -187500.02235174447, 0.012, 0.044, 0.998, 192.0, 0.0, 0.0, 0.0, 0.0, 0.0, 0.0, 0.0, 0.0, 0.0, 1.675975449571823E9, 0.0, 2023-02-09 15:44:09.571
193.0, 5881.950960391875, 187500.0, 187500.0, -187500.02235174447, -187500.02235174447, -187500.02235174447, -187500.02235174447, -187500.02235174447, 0.012, 0.044, 0.998, 192.0, 0.0, 0.0, 0.0, 0.0, 0.0, 0.0, 0.0, 0.0, 0.0, 1.675975449571857E9, 0.0, 2023-02-09 15:44:09.571
194.0, 6167.293330108325, 187500.0, 187500.0, -187500.02235174447, -187500.02235174447, -187500.02235174447, -187500.02235174447, -187500.02235174447, 0.016, 0.046, 1.002, 192.0, 0.0, 128.0, 1.0, 112.0, 31.0, 80.0, 0.0, 0.0, 0.0, 1.675975449579049E9, 0.0, 2023-02-09 15:44:09.579
195.0, 5607.002151847142, 187500.0, 187500.0, -187500.02235174447, -187500.02235174447, -187500.02235174447, -187500.02235174447, -187500.02235174447, 0.016, 0.046, 1.002, 192.0, 0.0, 0.0, 0.0, 0.0, 0.0, 0.0, 0.0, 0.0, 0.0, 1.675975449579073E9, 0.0, 2023-02-09 15:44:09.579
196.0, 5325.43722694364, 187500.0, 187500.0, -187500.02235174447, -187500.02235174447, -187500.02235174447, -187500.02235174447, -187500.02235174447, 0.016, 0.046, 1.002, 192.0, 0.0, 0.0, 0.0, 0.0, 0.0, 0.0, 0.0, 0.0, 0.0, 1.675975449586598E9, 0.0, 2023-02-09 15:44:09.586
197.0, 4938.9308618224695, 187500.0, 187500.0, -187500.02235174447, -187500.02235174447, -187500.02235174447, -187500.02235174447, -187500.02235174447, 0.016, 0.046, 1.002, 192.0, 0.0, 0.0, 0.0, 0.0, 0.0, 0.0, 0.0, 0.0, 0.0, 1.675975449586628E9, 0.0, 2023-02-09 15:44:09.586
198.0, 6053.545302575267, 187500.0, 187500.0, -187500.02235174447, -187500.02235174447, -187500.02235174447, -187500.02235174447, -187500.02235174447, 0.016, 0.046, 1.002, 192.0, 0.0, 0.0, 0.0, 0.0, 0.0, 0.0, 0.0, 0.0, 0.0, 1.675975449594515E9, 0.0, 2023-02-09 15:44:09.594
199.0, 6319.307544148868, 187500.0, 187500.0, -187500.02235174447, -187500.02235174447, -187500.02235174447, -187500.02235174447, -187500.02235174447, 0.016, 0.046, 1.002, 192.0, 0.0, 0.0, 0.0, 0.0, 0.0, 0.0, 0.0, 0.0, 0.0, 1.675975449594532E9, 0.0, 2023-02-09 15:44:09.594
200.0, 5384.892867194756, 187500.0, 187500.0, -187500.02235174447, -187500.02235174447, -187500.02235174447, -187500.02235174447, -187500.02235174447, 0.016, 0.046, 1.002, 192.0, 0.0, 0.0, 0.0, 0.0, 0.0, 0.0, 0.0, 0.0, 0.0, 1.675975449602575E9, 0.0, 2023-02-09 15:44:09.602
201.0, 4828.289726768699, 187500.0, 187500.0, -187500.02235174447, -187500.02235174447, -187500.02235174447, -187500.02235174447, -187500.02235174447, 0.016, 0.046, 1.002, 192.0, 0.0, 0.0, 0.0, 0.0, 0.0, 0.0, 0.0, 0.0, 0.0, 1.675975449602592E9, 0.0, 2023-02-09 15:44:09.602
202.0, 5119.15297736561, 187500.0, 187500.0, -187500.02235174447, -187500.02235174447, -187500.02235174447, -187500.02235174447, -187500.02235174447, 0.016, 0.046, 1.002, 192.0, 0.0, 0.0, 0.0, 0.0, 0.0, 0.0, 0.0, 0.0, 0.0, 1.675975449608833E9, 0.0, 2023-02-09 15:44:09.608
203.0, 5440.302841699462, 187500.0, 187500.0, -187500.02235174447, -187500.02235174447, -187500.02235174447, -187500.02235174447, -187500.02235174447, 0.016, 0.046, 1.002, 192.0, 0.0, 0.0, 0.0, 0.0, 0.0, 0.0, 0.0, 0.0, 0.0, 1.675975449616226E9, 0.0, 2023-02-09 15:44:09.616
204.0, 5323.67143913167, 187500.0, 187500.0, -187500.02235174447, -187500.02235174447, -187500.02235174447, -187500.02235174447, -187500.02235174447, 0.016, 0.044, 0.996, 192.0, 0.0, 128.0, 1.0, 96.0, 31.0, 32.0, 0.0, 0.0, 0.0, 1.675975449616248E9, 0.0, 2023-02-09 15:44:09.616
205.0, 6709.1666709383335, 187500.0, 187500.0, -187500.02235174447, -187500.02235174447, -187500.02235174447, -187500.02235174447, -187500.02235174447, 0.016, 0.044, 0.996, 192.0, 0.0, 0.0, 0.0, 0.0, 0.0, 0.0, 0.0, 0.0, 0.0, 1.675975449624565E9, 0.0, 2023-02-09 15:44:09.624
206.0, 6096.058320529261, 187500.0, 187500.0, -187500.02235174447, -187500.02235174447, -187500.02235174447, -187500.02235174447, -187500.02235174447, 0.016, 0.044, 0.996, 192.0, 0.0, 0.0, 0.0, 0.0, 0.0, 0.0, 0.0, 0.0, 0.0, 1.67597544962459E9, 0.0, 2023-02-09 15:44:09.624
207.0, 4786.760185570739, 187500.0, 187500.0, -187500.02235174447, -187500.02235174447, -187500.02235174447, -187500.02235174447, -187500.02235174447, 0.016, 0.044, 0.996, 192.0, 0.0, 0.0, 0.0, 0.0, 0.0, 0.0, 0.0, 0.0, 0.0, 1.67597544963199E9, 0.0, 2023-02-09 15:44:09.631
208.0, 5072.638997154117, 187500.0, 187500.0, -187500.02235174447, -187500.02235174447, -187500.02235174447, -187500.02235174447, -187500.02235174447, 0.016, 0.044, 0.996, 192.0, 0.0, 0.0, 0.0, 0.0, 0.0, 0.0, 0.0, 0.0, 0.0, 1.675975449632001E9, 0.0, 2023-02-09 15:44:09.632
209.0, 5092.308532274787, 187500.0, 187500.0, -187500.02235174447, -187500.02235174447, -187500.02235174447, -187500.02235174447, -187500.02235174447, 0.016, 0.044, 0.996, 192.0, 0.0, 0.0, 0.0, 0.0, 0.0, 0.0, 0.0, 0.0, 0.0, 1.67597544963876E9, 0.0, 2023-02-09 15:44:09.638
210.0, 5498.260915072074, 187500.0, 187500.0, -187500.02235174447, -187500.02235174447, -187500.02235174447, -187500.02235174447, -187500.02235174447, 0.016, 0.044, 0.996, 192.0, 0.0, 0.0, 0.0, 0.0, 0.0, 0.0, 0.0, 0.0, 0.0, 1.675975449638794E9, 0.0, 2023-02-09 15:44:09.638
211.0, 5264.0593366693665, 187500.0, 187500.0, -187500.02235174447, -187500.02235174447, -187500.02235174447, -187500.02235174447, -187500.02235174447, 0.016, 0.044, 0.996, 192.0, 0.0, 0.0, 0.0, 0.0, 0.0, 0.0, 0.0, 0.0, 0.0, 1.675975449646877E9, 0.0, 2023-02-09 15:44:09.646
212.0, 5693.056368000075, 187500.0, 187500.0, -187500.02235174447, -187500.02235174447, -187500.02235174447, -187500.02235174447, -187500.02235174447, 0.016, 0.044, 0.996, 192.0, 0.0, 0.0, 0.0, 0.0, 0.0, 0.0, 0.0, 0.0, 0.0, 1.675975449646898E9, 0.0, 2023-02-09 15:44:09.646
213.0, 6586.165021200779, 187500.0, 187500.0, -187500.02235174447, -187500.02235174447, -187500.02235174447, -187500.02235174447, -187500.02235174447, 0.016, 0.044, 0.996, 192.0, 0.0, 0.0, 0.0, 0.0, 0.0, 0.0, 0.0, 0.0, 0.0, 1.675975449654853E9, 0.0, 2023-02-09 15:44:09.654
214.0, 6391.660140950697, 187500.0, 187500.0, -187500.02235174447, -187500.02235174447, -187500.02235174447, -187500.02235174447, -187500.02235174447, 0.024, 0.052000000000000005, 1.0, 192.0, 0.0, 192.0, 1.0, 160.0, 31.0, 64.0, 0.0, 0.0, 0.0, 1.675975449654873E9, 0.0, 2023-02-09 15:44:09.654
215.0, 4700.16952755088, 187500.0, 187500.0, -187500.02235174447, -187500.02235174447, -187500.02235174447, -187500.02235174447, -187500.02235174447, 0.024, 0.052000000000000005, 1.0, 192.0, 0.0, 0.0, 0.0, 0.0, 0.0, 0.0, 0.0, 0.0, 0.0, 1.67597544966208E9, 0.0, 2023-02-09 15:44:09.662
216.0, 4688.367806478477, 187500.0, 187500.0, -187500.02235174447, -187500.02235174447, -187500.02235174447, -187500.02235174447, -187500.02235174447, 0.024, 0.052000000000000005, 1.0, 192.0, 0.0, 0.0, 0.0, 0.0, 0.0, 0.0, 0.0, 0.0, 0.0, 1.675975449662099E9, 0.0, 2023-02-09 15:44:09.662
217.0, 5214.617277934227, 187500.0, 187500.0, -187500.02235174447, -187500.02235174447, -187500.02235174447, -187500.02235174447, -187500.02235174447, 0.024, 0.052000000000000005, 1.0, 192.0, 0.0, 0.0, 0.0, 0.0, 0.0, 0.0, 0.0, 0.0, 0.0, 1.675975449668452E9, 0.0, 2023-02-09 15:44:09.668
218.0, 6104.239058999903, 187500.0, 187500.0, -187500.02235174447, -187500.02235174447, -187500.02235174447, -187500.02235174447, -187500.02235174447, 0.024, 0.052000000000000005, 1.0, 192.0, 0.0, 0.0, 0.0, 0.0, 0.0, 0.0, 0.0, 0.0, 0.0, 1.675975449676477E9, 0.0, 2023-02-09 15:44:09.676
219.0, 6971.531447354728, 187500.0, 187500.0, -187500.02235174447, -187500.02235174447, -187500.02235174447, -187500.02235174447, -187500.02235174447, 0.024, 0.052000000000000005, 1.0, 192.0, 0.0, 0.0, 0.0, 0.0, 0.0, 0.0, 0.0, 0.0, 0.0, 1.675975449676495E9, 0.0, 2023-02-09 15:44:09.676
220.0, 4849.38977353451, 187500.0, 187500.0, -187500.02235174447, -187500.02235174447, -187500.02235174447, -187500.02235174447, -187500.02235174447, 0.024, 0.052000000000000005, 1.0, 192.0, 0.0, 0.0, 0.0, 0.0, 0.0, 0.0, 0.0, 0.0, 0.0, 1.675975449684614E9, 0.0, 2023-02-09 15:44:09.684
221.0, 4485.950408691217, 187500.0, 187500.0, -187500.02235174447, -187500.02235174447, -187500.02235174447, -187500.02235174447, -187500.02235174447, 0.024, 0.052000000000000005, 1.0, 192.0, 0.0, 0.0, 0.0, 0.0, 0.0, 0.0, 0.0, 0.0, 0.0, 1.675975449684632E9, 0.0, 2023-02-09 15:44:09.684
222.0, 5381.0483671484435, 187500.0, 187500.0, -187500.02235174447, -187500.02235174447, -187500.02235174447, -187500.02235174447, -187500.02235174447, 0.024, 0.052000000000000005, 1.0, 192.0, 0.0, 0.0, 0.0, 0.0, 0.0, 0.0, 0.0, 0.0, 0.0, 1.675975449691763E9, 0.0, 2023-02-09 15:44:09.691
223.0, 5783.223305132783, 187500.0, 187500.0, -187500.02235174447, -187500.02235174447, -187500.02235174447, -187500.02235174447, -187500.02235174447, 0.016, 0.052000000000000005, 0.996, 192.0, 0.0, 128.0, 1.0, 160.0, 31.0, 32.0, 0.0, 0.0, 0.0, 1.67597544969178E9, 0.0, 2023-02-09 15:44:09.691
224.0, 5378.612027002815, 187500.0, 187500.0, -187500.02235174447, -187500.02235174447, -187500.02235174447, -187500.02235174447, -187500.02235174447, 0.016, 0.052000000000000005, 0.996, 192.0, 0.0, 0.0, 0.0, 0.0, 0.0, 0.0, 0.0, 0.0, 0.0, 1.675975449699185E9, 0.0, 2023-02-09 15:44:09.699
225.0, 5440.951042288666, 187500.0, 187500.0, -187500.02235174447, -187500.02235174447, -187500.02235174447, -187500.02235174447, -187500.02235174447, 0.016, 0.052000000000000005, 0.996, 192.0, 0.0, 0.0, 0.0, 0.0, 0.0, 0.0, 0.0, 0.0, 0.0, 1.675975449699204E9, 0.0, 2023-02-09 15:44:09.699
226.0, 6160.520751538366, 187500.0, 187500.0, -187500.02235174447, -187500.02235174447, -187500.02235174447, -187500.02235174447, -187500.02235174447, 0.016, 0.052000000000000005, 0.996, 192.0, 0.0, 0.0, 0.0, 0.0, 0.0, 0.0, 0.0, 0.0, 0.0, 1.675975449707109E9, 0.0, 2023-02-09 15:44:09.707
227.0, 5921.625306800045, 187500.0, 187500.0, -187500.02235174447, -187500.02235174447, -187500.02235174447, -187500.02235174447, -187500.02235174447, 0.016, 0.052000000000000005, 0.996, 192.0, 0.0, 0.0, 0.0, 0.0, 0.0, 0.0, 0.0, 0.0, 0.0, 1.675975449707134E9, 0.0, 2023-02-09 15:44:09.707
228.0, 5155.563969083306, 187500.0, 187500.0, -187500.02235174447, -187500.02235174447, -187500.02235174447, -187500.02235174447, -187500.02235174447, 0.016, 0.052000000000000005, 0.996, 192.0, 0.0, 0.0, 0.0, 0.0, 0.0, 0.0, 0.0, 0.0, 0.0, 1.675975449714271E9, 0.0, 2023-02-09 15:44:09.714
229.0, 5147.87496899068, 187500.0, 187500.0, -187500.02235174447, -187500.02235174447, -187500.02235174447, -187500.02235174447, -187500.02235174447, 0.016, 0.052000000000000005, 0.996, 192.0, 0.0, 0.0, 0.0, 0.0, 0.0, 0.0, 0.0, 0.0, 0.0, 1.675975449714288E9, 0.0, 2023-02-09 15:44:09.714
230.0, 5346.492570220539, 187500.0, 187500.0, -187500.02235174447, -187500.02235174447, -187500.02235174447, -187500.02235174447, -187500.02235174447, 0.016, 0.052000000000000005, 0.996, 192.0, 0.0, 0.0, 0.0, 0.0, 0.0, 0.0, 0.0, 0.0, 0.0, 1.67597544972184E9, 0.0, 2023-02-09 15:44:09.721
231.0, 6409.429777792666, 187500.0, 187500.0, -187500.02235174447, -187500.02235174447, -187500.02235174447, -187500.02235174447, -187500.02235174447, 0.016, 0.052000000000000005, 0.996, 192.0, 0.0, 0.0, 0.0, 0.0, 0.0, 0.0, 0.0, 0.0, 0.0, 1.675975449721871E9, 0.0, 2023-02-09 15:44:09.721
232.0, 5919.41248409897, 187500.0, 187500.0, -187500.02235174447, -187500.02235174447, -187500.02235174447, -187500.02235174447, -187500.02235174447, 0.016, 0.052000000000000005, 0.996, 192.0, 0.0, 0.0, 0.0, 0.0, 0.0, 0.0, 0.0, 0.0, 0.0, 1.67597544972881E9, 0.0, 2023-02-09 15:44:09.728
233.0, 5017.899574983069, 187500.0, 187500.0, -187500.02235174447, -187500.02235174447, -187500.02235174447, -187500.02235174447, -187500.02235174447, 0.016, 0.054, 1.0, 192.0, 0.0, 128.0, 1.0, 176.0, 31.0, 64.0, 0.0, 0.0, 0.0, 1.675975449736821E9, 0.0, 2023-02-09 15:44:09.736
234.0, 5074.740061132916, 187500.0, 187500.0, -187500.02235174447, -187500.02235174447, -187500.02235174447, -187500.02235174447, -187500.02235174447, 0.016, 0.054, 1.0, 192.0, 0.0, 0.0, 0.0, 0.0, 0.0, 0.0, 0.0, 0.0, 0.0, 1.675975449736834E9, 0.0, 2023-02-09 15:44:09.736
235.0, 4944.876425847581, 187500.0, 187500.0, -187500.02235174447, -187500.02235174447, -187500.02235174447, -187500.02235174447, -187500.02235174447, 0.016, 0.054, 1.0, 192.0, 0.0, 0.0, 0.0, 0.0, 0.0, 0.0, 0.0, 0.0, 0.0, 1.675975449744002E9, 0.0, 2023-02-09 15:44:09.744
236.0, 5443.990879534588, 187500.0, 187500.0, -187500.02235174447, -187500.02235174447, -187500.02235174447, -187500.02235174447, -187500.02235174447, 0.016, 0.054, 1.0, 192.0, 0.0, 0.0, 0.0, 0.0, 0.0, 0.0, 0.0, 0.0, 0.0, 1.675975449744033E9, 0.0, 2023-02-09 15:44:09.744
237.0, 7041.671221455482, 187500.0, 187500.0, -187500.02235174447, -187500.02235174447, -187500.02235174447, -187500.02235174447, -187500.02235174447, 0.016, 0.054, 1.0, 192.0, 0.0, 0.0, 0.0, 0.0, 0.0, 0.0, 0.0, 0.0, 0.0, 1.67597544975133E9, 0.0, 2023-02-09 15:44:09.751
238.0, 5407.177556416697, 187500.0, 187500.0, -187500.02235174447, -187500.02235174447, -187500.02235174447, -187500.02235174447, -187500.02235174447, 0.016, 0.054, 1.0, 192.0, 0.0, 0.0, 0.0, 0.0, 0.0, 0.0, 0.0, 0.0, 0.0, 1.675975449751351E9, 0.0, 2023-02-09 15:44:09.751
239.0, 4800.551211899664, 187500.0, 187500.0, -187500.02235174447, -187500.02235174447, -187500.02235174447, -187500.02235174447, -187500.02235174447, 0.016, 0.054, 1.0, 192.0, 0.0, 0.0, 0.0, 0.0, 0.0, 0.0, 0.0, 0.0, 0.0, 1.675975449759445E9, 0.0, 2023-02-09 15:44:09.759
240.0, 5619.854404908944, 187500.0, 187500.0, -187500.02235174447, -187500.02235174447, -187500.02235174447, -187500.02235174447, -187500.02235174447, 0.016, 0.054, 1.0, 192.0, 0.0, 0.0, 0.0, 0.0, 0.0, 0.0, 0.0, 0.0, 0.0, 1.675975449759462E9, 0.0, 2023-02-09 15:44:09.759
241.0, 5809.844232779054, 187500.0, 187500.0, -187500.02235174447, -187500.02235174447, -187500.02235174447, -187500.02235174447, -187500.02235174447, 0.016, 0.054, 1.0, 192.0, 0.0, 0.0, 0.0, 0.0, 0.0, 0.0, 0.0, 0.0, 0.0, 1.675975449767357E9, 0.0, 2023-02-09 15:44:09.767
242.0, 5188.041053776867, 187500.0, 187500.0, -187500.02235174447, -187500.02235174447, -187500.02235174447, -187500.02235174447, -187500.02235174447, 0.016, 0.054, 1.0, 192.0, 0.0, 0.0, 0.0, 0.0, 0.0, 0.0, 0.0, 0.0, 0.0, 1.675975449767417E9, 0.0, 2023-02-09 15:44:09.767
243.0, 5289.249752670497, 187500.0, 187500.0, -187500.02235174447, -187500.02235174447, -187500.02235174447, -187500.02235174447, -187500.02235174447, 0.016, 0.056, 0.998, 192.0, 0.0, 128.0, 1.0, 192.0, 31.0, 48.0, 0.0, 0.0, 0.0, 1.675975449774185E9, 0.0, 2023-02-09 15:44:09.774
244.0, 5809.553660101135, 187500.0, 187500.0, -187500.02235174447, -187500.02235174447, -187500.02235174447, -187500.02235174447, -187500.02235174447, 0.016, 0.056, 0.998, 192.0, 0.0, 0.0, 0.0, 0.0, 0.0, 0.0, 0.0, 0.0, 0.0, 1.675975449774201E9, 0.0, 2023-02-09 15:44:09.774
245.0, 6268.85965691324, 187500.0, 187500.0, -187500.02235174447, -187500.02235174447, -187500.02235174447, -187500.02235174447, -187500.02235174447, 0.016, 0.056, 0.998, 192.0, 0.0, 0.0, 0.0, 0.0, 0.0, 0.0, 0.0, 0.0, 0.0, 1.675975449782073E9, 0.0, 2023-02-09 15:44:09.782
246.0, 4862.934930674426, 187500.0, 187500.0, -187500.02235174447, -187500.02235174447, -187500.02235174447, -187500.02235174447, -187500.02235174447, 0.016, 0.056, 0.998, 192.0, 0.0, 0.0, 0.0, 0.0, 0.0, 0.0, 0.0, 0.0, 0.0, 1.67597544978209E9, 0.0, 2023-02-09 15:44:09.782
247.0, 4673.190971993324, 187500.0, 187500.0, -187500.02235174447, -187500.02235174447, -187500.02235174447, -187500.02235174447, -187500.02235174447, 0.016, 0.056, 0.998, 192.0, 0.0, 0.0, 0.0, 0.0, 0.0, 0.0, 0.0, 0.0, 0.0, 1.675975449789116E9, 0.0, 2023-02-09 15:44:09.789
248.0, 5404.852974993346, 187500.0, 187500.0, -187500.02235174447, -187500.02235174447, -187500.02235174447, -187500.02235174447, -187500.02235174447, 0.016, 0.056, 0.998, 192.0, 0.0, 0.0, 0.0, 0.0, 0.0, 0.0, 0.0, 0.0, 0.0, 1.675975449789136E9, 0.0, 2023-02-09 15:44:09.789
249.0, 6258.175523063604, 187500.0, 187500.0, -187500.02235174447, -187500.02235174447, -187500.02235174447, -187500.02235174447, -187500.02235174447, 0.016, 0.056, 0.998, 192.0, 0.0, 0.0, 0.0, 0.0, 0.0, 0.0, 0.0, 0.0, 0.0, 1.675975449797247E9, 0.0, 2023-02-09 15:44:09.797
250.0, 6028.3772383185915, 187500.0, 187500.0, -187500.02235174447, -187500.02235174447, -187500.02235174447, -187500.02235174447, -187500.02235174447, 0.016, 0.056, 0.998, 192.0, 0.0, 0.0, 0.0, 0.0, 0.0, 0.0, 0.0, 0.0, 0.0, 1.675975449803618E9, 0.0, 2023-02-09 15:44:09.803
251.0, 4790.738796083784, 187500.0, 187500.0, -187500.02235174447, -187500.02235174447, -187500.02235174447, -187500.02235174447, -187500.02235174447, 0.016, 0.056, 0.998, 192.0, 0.0, 0.0, 0.0, 0.0, 0.0, 0.0, 0.0, 0.0, 0.0, 1.675975449803631E9, 0.0, 2023-02-09 15:44:09.803
252.0, 5543.724363294168, 187500.0, 187500.0, -187500.02235174447, -187500.02235174447, -187500.02235174447, -187500.02235174447, -187500.02235174447, 0.016, 0.056, 0.998, 192.0, 0.0, 0.0, 0.0, 0.0, 0.0, 0.0, 0.0, 0.0, 0.0, 1.675975449811838E9, 0.0, 2023-02-09 15:44:09.811
253.0, 5896.993684410297, 187500.0, 187500.0, -187500.02235174447, -187500.02235174447, -187500.02235174447, -187500.02235174447, -187500.02235174447, 0.014, 0.05, 0.998, 192.0, 0.0, 112.0, 1.0, 144.0, 31.0, 48.0, 0.0, 0.0, 0.0, 1.675975449811901E9, 0.0, 2023-02-09 15:44:09.811
254.0, 6074.131259218605, 187500.0, 187500.0, -187500.02235174447, -187500.02235174447, -187500.02235174447, -187500.02235174447, -187500.02235174447, 0.014, 0.05, 0.998, 192.0, 0.0, 0.0, 0.0, 0.0, 0.0, 0.0, 0.0, 0.0, 0.0, 1.675975449819778E9, 0.0, 2023-02-09 15:44:09.819
255.0, 5554.028517488065, 187500.0, 187500.0, -187500.02235174447, -187500.02235174447, -187500.02235174447, -187500.02235174447, -187500.02235174447, 0.014, 0.05, 0.998, 192.0, 0.0, 0.0, 0.0, 0.0, 0.0, 0.0, 0.0, 0.0, 0.0, 1.675975449819797E9, 0.0, 2023-02-09 15:44:09.819
0.0, 4961.88610337807, 187500.0, 187500.0, -187500.02235174447, -187500.02235174447, -187500.02235174447, -187500.02235174447, -187500.02235174447, 0.014, 0.05, 0.998, 192.0, 0.0, 0.0, 0.0, 0.0, 0.0, 0.0, 0.0, 0.0, 0.0, 1.675975449826952E9, 0.0, 2023-02-09 15:44:09.826
1.0, 5630.0468003805645, 187500.0, 187500.0, -187500.02235174447, -187500.02235174447, -187500.02235174447, -187500.02235174447, -187500.02235174447, 0.014, 0.05, 0.998, 192.0, 0.0, 0.0, 0.0, 0.0, 0.0, 0.0, 0.0, 0.0, 0.0, 1.675975449826969E9, 0.0, 2023-02-09 15:44:09.826
2.0, 5685.970865007743, 187500.0, 187500.0, -187500.02235174447, -187500.02235174447, -187500.02235174447, -187500.02235174447, -187500.02235174447, 0.014, 0.05, 0.998, 192.0, 0.0, 0.0, 0.0, 0.0, 0.0, 0.0, 0.0, 0.0, 0.0, 1.675975449834402E9, 0.0, 2023-02-09 15:44:09.834
3.0, 5353.712183679603, 187500.0, 187500.0, -187500.02235174447, -187500.02235174447, -187500.02235174447, -187500.02235174447, -187500.02235174447, 0.014, 0.05, 0.998, 192.0, 0.0, 0.0, 0.0, 0.0, 0.0, 0.0, 0.0, 0.0, 0.0, 1.675975449834425E9, 0.0, 2023-02-09 15:44:09.834
4.0, 5693.637513355913, 187500.0, 187500.0, -187500.02235174447, -187500.02235174447, -187500.02235174447, -187500.02235174447, -187500.02235174447, 0.014, 0.05, 0.998, 192.0, 0.0, 0.0, 0.0, 0.0, 0.0, 0.0, 0.0, 0.0, 0.0, 1.675975449842322E9, 0.0, 2023-02-09 15:44:09.842
5.0, 5224.0273623499115, 187500.0, 187500.0, -187500.02235174447, -187500.02235174447, -187500.02235174447, -187500.02235174447, -187500.02235174447, 0.014, 0.05, 0.998, 192.0, 0.0, 0.0, 0.0, 0.0, 0.0, 0.0, 0.0, 0.0, 0.0, 1.675975449842344E9, 0.0, 2023-02-09 15:44:09.842
6.0, 4931.487730918852, 187500.0, 187500.0, -187500.02235174447, -187500.02235174447, -187500.02235174447, -187500.02235174447, -187500.02235174447, 0.014, 0.05, 0.998, 192.0, 0.0, 0.0, 0.0, 0.0, 0.0, 0.0, 0.0, 0.0, 0.0, 1.675975449850306E9, 0.0, 2023-02-09 15:44:09.850
7.0, 5147.182064912566, 187500.0, 187500.0, -187500.02235174447, -187500.02235174447, -187500.02235174447, -187500.02235174447, -187500.02235174447, 0.016, 0.05, 0.998, 192.0, 0.0, 128.0, 1.0, 144.0, 31.0, 48.0, 0.0, 0.0, 0.0, 1.675975449850323E9, 0.0, 2023-02-09 15:44:09.850
8.0, 6146.707373464987, 187500.0, 187500.0, -187500.02235174447, -187500.02235174447, -187500.02235174447, -187500.02235174447, -187500.02235174447, 0.016, 0.05, 0.998, 192.0, 0.0, 0.0, 0.0, 0.0, 0.0, 0.0, 0.0, 0.0, 0.0, 1.675975449856463E9, 0.0, 2023-02-09 15:44:09.856
9.0, 6339.357058925279, 187500.0, 187500.0, -187500.02235174447, -187500.02235174447, -187500.02235174447, -187500.02235174447, -187500.02235174447, 0.016, 0.05, 0.998, 192.0, 0.0, 0.0, 0.0, 0.0, 0.0, 0.0, 0.0, 0.0, 0.0, 1.675975449863988E9, 0.0, 2023-02-09 15:44:09.863
10.0, 5410.329152384896, 187500.0, 187500.0, -187500.02235174447, -187500.02235174447, -187500.02235174447, -187500.02235174447, -187500.02235174447, 0.016, 0.05, 0.998, 192.0, 0.0, 0.0, 0.0, 0.0, 0.0, 0.0, 0.0, 0.0, 0.0, 1.675975449864011E9, 0.0, 2023-02-09 15:44:09.864
11.0, 5239.673583468626, 187500.0, 187500.0, -187500.02235174447, -187500.02235174447, -187500.02235174447, -187500.02235174447, -187500.02235174447, 0.016, 0.05, 0.998, 192.0, 0.0, 0.0, 0.0, 0.0, 0.0, 0.0, 0.0, 0.0, 0.0, 1.675975449871899E9, 0.0, 2023-02-09 15:44:09.871
12.0, 5638.0934283844745, 187500.0, 187500.0, -187500.02235174447, -187500.02235174447, -187500.02235174447, -187500.02235174447, -187500.02235174447, 0.016, 0.05, 0.998, 192.0, 0.0, 0.0, 0.0, 0.0, 0.0, 0.0, 0.0, 0.0, 0.0, 1.675975449871964E9, 0.0, 2023-02-09 15:44:09.871
13.0, 5130.485311804451, 187500.0, 187500.0, -187500.02235174447, -187500.02235174447, -187500.02235174447, -187500.02235174447, -187500.02235174447, 0.016, 0.05, 0.998, 192.0, 0.0, 0.0, 0.0, 0.0, 0.0, 0.0, 0.0, 0.0, 0.0, 1.675975449879042E9, 0.0, 2023-02-09 15:44:09.879
14.0, 5214.84079537878, 187500.0, 187500.0, -187500.02235174447, -187500.02235174447, -187500.02235174447, -187500.02235174447, -187500.02235174447, 0.016, 0.05, 0.998, 192.0, 0.0, 0.0, 0.0, 0.0, 0.0, 0.0, 0.0, 0.0, 0.0, 1.675975449879057E9, 0.0, 2023-02-09 15:44:09.879
15.0, 5844.020050051218, 187500.0, 187500.0, -187500.02235174447, -187500.02235174447, -187500.02235174447, -187500.02235174447, -187500.02235174447, 0.016, 0.05, 0.998, 192.0, 0.0, 0.0, 0.0, 0.0, 0.0, 0.0, 0.0, 0.0, 0.0, 1.675975449886559E9, 0.0, 2023-02-09 15:44:09.886
16.0, 5561.33753792495, 187500.0, 187500.0, -187500.02235174447, -187500.02235174447, -187500.02235174447, -187500.02235174447, -187500.02235174447, 0.016, 0.05, 0.998, 192.0, 0.0, 0.0, 0.0, 0.0, 0.0, 0.0, 0.0, 0.0, 0.0, 1.675975449886589E9, 0.0, 2023-02-09 15:44:09.886
17.0, 6079.763898821342, 187500.0, 187500.0, -187500.02235174447, -187500.02235174447, -187500.02235174447, -187500.02235174447, -187500.02235174447, 0.016, 0.048, 0.996, 192.0, 0.0, 128.0, 1.0, 128.0, 31.0, 32.0, 0.0, 0.0, 0.0, 1.67597544989458E9, 0.0, 2023-02-09 15:44:09.894
18.0, 5591.735910384168, 187500.0, 187500.0, -187500.02235174447, -187500.02235174447, -187500.02235174447, -187500.02235174447, -187500.02235174447, 0.016, 0.048, 0.996, 192.0, 0.0, 0.0, 0.0, 0.0, 0.0, 0.0, 0.0, 0.0, 0.0, 1.675975449894598E9, 0.0, 2023-02-09 15:44:09.894
19.0, 4835.710505927862, 187500.0, 187500.0, -187500.02235174447, -187500.02235174447, -187500.02235174447, -187500.02235174447, -187500.02235174447, 0.016, 0.048, 0.996, 192.0, 0.0, 0.0, 0.0, 0.0, 0.0, 0.0, 0.0, 0.0, 0.0, 1.675975449902757E9, 0.0, 2023-02-09 15:44:09.902
20.0, 5030.774179789327, 187500.0, 187500.0, -187500.02235174447, -187500.02235174447, -187500.02235174447, -187500.02235174447, -187500.02235174447, 0.016, 0.048, 0.996, 192.0, 0.0, 0.0, 0.0, 0.0, 0.0, 0.0, 0.0, 0.0, 0.0, 1.675975449902773E9, 0.0, 2023-02-09 15:44:09.902
21.0, 5378.723785725091, 187500.0, 187500.0, -187500.02235174447, -187500.02235174447, -187500.02235174447, -187500.02235174447, -187500.02235174447, 0.016, 0.048, 0.996, 192.0, 0.0, 0.0, 0.0, 0.0, 0.0, 0.0, 0.0, 0.0, 0.0, 1.675975449909224E9, 0.0, 2023-02-09 15:44:09.909
22.0, 5579.420099189294, 187500.0, 187500.0, -187500.02235174447, -187500.02235174447, -187500.02235174447, -187500.02235174447, -187500.02235174447, 0.016, 0.048, 0.996, 192.0, 0.0, 0.0, 0.0, 0.0, 0.0, 0.0, 0.0, 0.0, 0.0, 1.675975449909238E9, 0.0, 2023-02-09 15:44:09.909
23.0, 5555.883712277855, 187500.0, 187500.0, -187500.02235174447, -187500.02235174447, -187500.02235174447, -187500.02235174447, -187500.02235174447, 0.016, 0.048, 0.996, 192.0, 0.0, 0.0, 0.0, 0.0, 0.0, 0.0, 0.0, 0.0, 0.0, 1.675975449916261E9, 0.0, 2023-02-09 15:44:09.916
24.0, 5614.3782275173935, 187500.0, 187500.0, -187500.02235174447, -187500.02235174447, -187500.02235174447, -187500.02235174447, -187500.02235174447, 0.016, 0.048, 0.996, 192.0, 0.0, 0.0, 0.0, 0.0, 0.0, 0.0, 0.0, 0.0, 0.0, 1.67597544992424E9, 0.0, 2023-02-09 15:44:09.924
25.0, 6615.199937248223, 187500.0, 187500.0, -187500.02235174447, -187500.02235174447, -187500.02235174447, -187500.02235174447, -187500.02235174447, 0.016, 0.048, 0.996, 192.0, 0.0, 0.0, 0.0, 0.0, 0.0, 0.0, 0.0, 0.0, 0.0, 1.675975449924262E9, 0.0, 2023-02-09 15:44:09.924
26.0, 5852.781933877699, 187500.0, 187500.0, -187500.02235174447, -187500.02235174447, -187500.02235174447, -187500.02235174447, -187500.02235174447, 0.012, 0.048, 0.996, 192.0, 0.0, 96.0, 1.0, 128.0, 31.0, 32.0, 0.0, 0.0, 0.0, 1.675975449932193E9, 0.0, 2023-02-09 15:44:09.932
27.0, 4920.691838346939, 187500.0, 187500.0, -187500.02235174447, -187500.02235174447, -187500.02235174447, -187500.02235174447, -187500.02235174447, 0.012, 0.048, 0.996, 192.0, 0.0, 0.0, 0.0, 0.0, 0.0, 0.0, 0.0, 0.0, 0.0, 1.675975449932262E9, 0.0, 2023-02-09 15:44:09.932
28.0, 5063.206560993977, 187500.0, 187500.0, -187500.02235174447, -187500.02235174447, -187500.02235174447, -187500.02235174447, -187500.02235174447, 0.012, 0.048, 0.996, 192.0, 0.0, 0.0, 0.0, 0.0, 0.0, 0.0, 0.0, 0.0, 0.0, 1.675975449938814E9, 0.0, 2023-02-09 15:44:09.938
29.0, 6178.737423269442, 187500.0, 187500.0, -187500.02235174447, -187500.02235174447, -187500.02235174447, -187500.02235174447, -187500.02235174447, 0.012, 0.048, 0.996, 192.0, 0.0, 0.0, 0.0, 0.0, 0.0, 0.0, 0.0, 0.0, 0.0, 1.675975449938832E9, 0.0, 2023-02-09 15:44:09.938
30.0, 5689.502440631681, 187500.0, 187500.0, -187500.02235174447, -187500.02235174447, -187500.02235174447, -187500.02235174447, -187500.02235174447, 0.012, 0.048, 0.996, 192.0, 0.0, 0.0, 0.0, 0.0, 0.0, 0.0, 0.0, 0.0, 0.0, 1.675975449946881E9, 0.0, 2023-02-09 15:44:09.946
31.0, 5459.2347692531075, 187500.0, 187500.0, -187500.02235174447, -187500.02235174447, -187500.02235174447, -187500.02235174447, -187500.02235174447, 0.012, 0.048, 0.996, 192.0, 0.0, 0.0, 0.0, 0.0, 0.0, 0.0, 0.0, 0.0, 0.0, 1.675975449946893E9, 0.0, 2023-02-09 15:44:09.946
32.0, 4977.599379730151, 187500.0, 187500.0, -187500.02235174447, -187500.02235174447, -187500.02235174447, -187500.02235174447, -187500.02235174447, 0.012, 0.048, 0.996, 192.0, 0.0, 0.0, 0.0, 0.0, 0.0, 0.0, 0.0, 0.0, 0.0, 1.675975449954828E9, 0.0, 2023-02-09 15:44:09.954
33.0, 4837.453941995375, 187500.0, 187500.0, -187500.02235174447, -187500.02235174447, -187500.02235174447, -187500.02235174447, -187500.02235174447, 0.012, 0.048, 0.996, 192.0, 0.0, 0.0, 0.0, 0.0, 0.0, 0.0, 0.0, 0.0, 0.0, 1.675975449954844E9, 0.0, 2023-02-09 15:44:09.954
34.0, 5309.925116291656, 187500.0, 187500.0, -187500.02235174447, -187500.02235174447, -187500.02235174447, -187500.02235174447, -187500.02235174447, 0.012, 0.048, 0.996, 192.0, 0.0, 0.0, 0.0, 0.0, 0.0, 0.0, 0.0, 0.0, 0.0, 1.675975449961976E9, 0.0, 2023-02-09 15:44:09.961
35.0, 5675.398489880382, 187500.0, 187500.0, -187500.02235174447, -187500.02235174447, -187500.02235174447, -187500.02235174447, -187500.02235174447, 0.012, 0.048, 0.996, 192.0, 0.0, 0.0, 0.0, 0.0, 0.0, 0.0, 0.0, 0.0, 0.0, 1.675975449961994E9, 0.0, 2023-02-09 15:44:09.961
36.0, 5801.194107674851, 187500.0, 187500.0, -187500.02235174447, -187500.02235174447, -187500.02235174447, -187500.02235174447, -187500.02235174447, 0.008, 0.046, 0.994, 192.0, 0.0, 64.0, 1.0, 112.0, 31.0, 16.0, 0.0, 0.0, 0.0, 1.675975449969401E9, 0.0, 2023-02-09 15:44:09.969
37.0, 5403.3554081148395, 187500.0, 187500.0, -187500.02235174447, -187500.02235174447, -187500.02235174447, -187500.02235174447, -187500.02235174447, 0.008, 0.046, 0.994, 192.0, 0.0, 0.0, 0.0, 0.0, 0.0, 0.0, 0.0, 0.0, 0.0, 1.675975449969465E9, 0.0, 2023-02-09 15:44:09.969
38.0, 5068.101593029689, 187500.0, 187500.0, -187500.02235174447, -187500.02235174447, -187500.02235174447, -187500.02235174447, -187500.02235174447, 0.008, 0.046, 0.994, 192.0, 0.0, 0.0, 0.0, 0.0, 0.0, 0.0, 0.0, 0.0, 0.0, 1.675975449976415E9, 0.0, 2023-02-09 15:44:09.976
39.0, 6399.952638143616, 187500.0, 187500.0, -187500.02235174447, -187500.02235174447, -187500.02235174447, -187500.02235174447, -187500.02235174447, 0.008, 0.046, 0.994, 192.0, 0.0, 0.0, 0.0, 0.0, 0.0, 0.0, 0.0, 0.0, 0.0, 1.675975449984361E9, 0.0, 2023-02-09 15:44:09.984
40.0, 6431.580356547875, 187500.0, 187500.0, -187500.02235174447, -187500.02235174447, -187500.02235174447, -187500.02235174447, -187500.02235174447, 0.008, 0.046, 0.994, 192.0, 0.0, 0.0, 0.0, 0.0, 0.0, 0.0, 0.0, 0.0, 0.0, 1.67597544998439E9, 0.0, 2023-02-09 15:44:09.984
41.0, 5304.001904011, 187500.0, 187500.0, -187500.02235174447, -187500.02235174447, -187500.02235174447, -187500.02235174447, -187500.02235174447, 0.008, 0.046, 0.994, 192.0, 0.0, 0.0, 0.0, 0.0, 0.0, 0.0, 0.0, 0.0, 0.0, 1.675975449991628E9, 0.0, 2023-02-09 15:44:09.991
42.0, 4549.317604222012, 187500.0, 187500.0, -187500.02235174447, -187500.02235174447, -187500.02235174447, -187500.02235174447, -187500.02235174447, 0.008, 0.046, 0.994, 192.0, 0.0, 0.0, 0.0, 0.0, 0.0, 0.0, 0.0, 0.0, 0.0, 1.675975449991682E9, 0.0, 2023-02-09 15:44:09.991
43.0, 4803.121662512024, 187500.0, 187500.0, -187500.02235174447, -187500.02235174447, -187500.02235174447, -187500.02235174447, -187500.02235174447, 0.008, 0.046, 0.994, 192.0, 0.0, 0.0, 0.0, 0.0, 0.0, 0.0, 0.0, 0.0, 0.0, 1.675975449999143E9, 0.0, 2023-02-09 15:44:09.999
44.0, 5829.044381266163, 187500.0, 187500.0, -187500.02235174447, -187500.02235174447, -187500.02235174447, -187500.02235174447, -187500.02235174447, 0.008, 0.046, 0.994, 192.0, 0.0, 0.0, 0.0, 0.0, 0.0, 0.0, 0.0, 0.0, 0.0, 1.675975449999161E9, 0.0, 2023-02-09 15:44:09.999
45.0, 5848.959785575841, 187500.0, 187500.0, -187500.02235174447, -187500.02235174447, -187500.02235174447, -187500.02235174447, -187500.02235174447, 0.008, 0.046, 0.994, 192.0, 0.0, 0.0, 0.0, 0.0, 0.0, 0.0, 0.0, 0.0, 0.0, 1.675975450007021E9, 0.0, 2023-02-09 15:44:10.007
46.0, 5509.705008233191, 187500.0, 187500.0, -187500.02235174447, -187500.02235174447, -187500.02235174447, -187500.02235174447, -187500.02235174447, 0.014, 0.048, 0.996, 192.0, 0.0, 112.0, 1.0, 128.0, 31.0, 32.0, 0.0, 0.0, 0.0, 1.675975450007076E9, 0.0, 2023-02-09 15:44:10.007
47.0, 6112.531556192823, 187500.0, 187500.0, -187500.02235174447, -187500.02235174447, -187500.02235174447, -187500.02235174447, -187500.02235174447, 0.014, 0.048, 0.996, 192.0, 0.0, 0.0, 0.0, 0.0, 0.0, 0.0, 0.0, 0.0, 0.0, 1.675975450014229E9, 0.0, 2023-02-09 15:44:10.014
48.0, 5222.350981515763, 187500.0, 187500.0, -187500.02235174447, -187500.02235174447, -187500.02235174447, -187500.02235174447, -187500.02235174447, 0.014, 0.048, 0.996, 192.0, 0.0, 0.0, 0.0, 0.0, 0.0, 0.0, 0.0, 0.0, 0.0, 1.675975450014284E9, 0.0, 2023-02-09 15:44:10.014
49.0, 5240.634708480205, 187500.0, 187500.0, -187500.02235174447, -187500.02235174447, -187500.02235174447, -187500.02235174447, -187500.02235174447, 0.014, 0.048, 0.996, 192.0, 0.0, 0.0, 0.0, 0.0, 0.0, 0.0, 0.0, 0.0, 0.0, 1.675975450021694E9, 0.0, 2023-02-09 15:44:10.021
50.0, 5590.797137117045, 187500.0, 187500.0, -187500.02235174447, -187500.02235174447, -187500.02235174447, -187500.02235174447, -187500.02235174447, 0.014, 0.048, 0.996, 192.0, 0.0, 0.0, 0.0, 0.0, 0.0, 0.0, 0.0, 0.0, 0.0, 1.675975450021752E9, 0.0, 2023-02-09 15:44:10.021
51.0, 5400.986123202578, 187500.0, 187500.0, -187500.02235174447, -187500.02235174447, -187500.02235174447, -187500.02235174447, -187500.02235174447, 0.014, 0.048, 0.996, 192.0, 0.0, 0.0, 0.0, 0.0, 0.0, 0.0, 0.0, 0.0, 0.0, 1.675975450029752E9, 0.0, 2023-02-09 15:44:10.029
52.0, 5224.988487361489, 187500.0, 187500.0, -187500.02235174447, -187500.02235174447, -187500.02235174447, -187500.02235174447, -187500.02235174447, 0.014, 0.048, 0.996, 192.0, 0.0, 0.0, 0.0, 0.0, 0.0, 0.0, 0.0, 0.0, 0.0, 1.675975450029773E9, 0.0, 2023-02-09 15:44:10.029
53.0, 5256.236226110009, 187500.0, 187500.0, -187500.02235174447, -187500.02235174447, -187500.02235174447, -187500.02235174447, -187500.02235174447, 0.014, 0.048, 0.996, 192.0, 0.0, 0.0, 0.0, 0.0, 0.0, 0.0, 0.0, 0.0, 0.0, 1.67597545003674E9, 0.0, 2023-02-09 15:44:10.036
54.0, 6222.300973212836, 187500.0, 187500.0, -187500.02235174447, -187500.02235174447, -187500.02235174447, -187500.02235174447, -187500.02235174447, 0.014, 0.048, 0.996, 192.0, 0.0, 0.0, 0.0, 0.0, 0.0, 0.0, 0.0, 0.0, 0.0, 1.675975450036758E9, 0.0, 2023-02-09 15:44:10.036
55.0, 6965.116496696055, 187500.0, 187500.0, -187500.02235174447, -187500.02235174447, -187500.02235174447, -187500.02235174447, -187500.02235174447, 0.014, 0.048, 0.996, 192.0, 0.0, 0.0, 0.0, 0.0, 0.0, 0.0, 0.0, 0.0, 0.0, 1.675975450044103E9, 0.0, 2023-02-09 15:44:10.044
56.0, 4924.268117459788, 187500.0, 187500.0, -187500.02235174447, -187500.02235174447, -187500.02235174447, -187500.02235174447, -187500.02235174447, 0.016, 0.044, 0.992, 192.0, 0.0, 128.0, 1.0, 96.0, 31.0, 0.0, 0.0, 0.0, 0.0, 1.675975450051455E9, 0.0, 2023-02-09 15:44:10.051
57.0, 4481.301245844513, 187500.0, 187500.0, -187500.02235174447, -187500.02235174447, -187500.02235174447, -187500.02235174447, -187500.02235174447, 0.016, 0.044, 0.992, 192.0, 0.0, 0.0, 0.0, 0.0, 0.0, 0.0, 0.0, 0.0, 0.0, 1.675975450051504E9, 0.0, 2023-02-09 15:44:10.051
58.0, 5126.104369891211, 187500.0, 187500.0, -187500.02235174447, -187500.02235174447, -187500.02235174447, -187500.02235174447, -187500.02235174447, 0.016, 0.044, 0.992, 192.0, 0.0, 0.0, 0.0, 0.0, 0.0, 0.0, 0.0, 0.0, 0.0, 1.675975450059511E9, 0.0, 2023-02-09 15:44:10.059
59.0, 5972.18495275795, 187500.0, 187500.0, -187500.02235174447, -187500.02235174447, -187500.02235174447, -187500.02235174447, -187500.02235174447, 0.016, 0.044, 0.992, 192.0, 0.0, 0.0, 0.0, 0.0, 0.0, 0.0, 0.0, 0.0, 0.0, 1.675975450059528E9, 0.0, 2023-02-09 15:44:10.059
60.0, 5914.539803807713, 187500.0, 187500.0, -187500.02235174447, -187500.02235174447, -187500.02235174447, -187500.02235174447, -187500.02235174447, 0.016, 0.044, 0.992, 192.0, 0.0, 0.0, 0.0, 0.0, 0.0, 0.0, 0.0, 0.0, 0.0, 1.675975450067434E9, 0.0, 2023-02-09 15:44:10.067
61.0, 4960.165019055012, 187500.0, 187500.0, -187500.02235174447, -187500.02235174447, -187500.02235174447, -187500.02235174447, -187500.02235174447, 0.016, 0.044, 0.992, 192.0, 0.0, 0.0, 0.0, 0.0, 0.0, 0.0, 0.0, 0.0, 0.0, 1.675975450067446E9, 0.0, 2023-02-09 15:44:10.067
62.0, 5499.490261017116, 187500.0, 187500.0, -187500.02235174447, -187500.02235174447, -187500.02235174447, -187500.02235174447, -187500.02235174447, 0.016, 0.044, 0.992, 192.0, 0.0, 0.0, 0.0, 0.0, 0.0, 0.0, 0.0, 0.0, 0.0, 1.675975450074062E9, 0.0, 2023-02-09 15:44:10.074
63.0, 5747.236996559739, 187500.0, 187500.0, -187500.02235174447, -187500.02235174447, -187500.02235174447, -187500.02235174447, -187500.02235174447, 0.016, 0.044, 0.992, 192.0, 0.0, 0.0, 0.0, 0.0, 0.0, 0.0, 0.0, 0.0, 0.0, 1.675975450074087E9, 0.0, 2023-02-09 15:44:10.074
64.0, 5603.604686689936, 187500.0, 187500.0, -187500.02235174447, -187500.02235174447, -187500.02235174447, -187500.02235174447, -187500.02235174447, 0.016, 0.044, 0.992, 192.0, 0.0, 0.0, 0.0, 0.0, 0.0, 0.0, 0.0, 0.0, 0.0, 1.67597545008263E9, 0.0, 2023-02-09 15:44:10.082
65.0, 5518.690409504225, 187500.0, 187500.0, -187500.02235174447, -187500.02235174447, -187500.02235174447, -187500.02235174447, -187500.02235174447, 0.016, 0.044, 0.992, 192.0, 0.0, 0.0, 0.0, 0.0, 0.0, 0.0, 0.0, 0.0, 0.0, 1.675975450082645E9, 0.0, 2023-02-09 15:44:10.082
66.0, 5489.074348100942, 187500.0, 187500.0, -187500.02235174447, -187500.02235174447, -187500.02235174447, -187500.02235174447, -187500.02235174447, 0.02, 0.048, 0.992, 192.0, 0.0, 160.0, 1.0, 128.0, 31.0, 0.0, 0.0, 0.0, 0.0, 1.675975450090139E9, 0.0, 2023-02-09 15:44:10.090
67.0, 6155.022222402361, 187500.0, 187500.0, -187500.02235174447, -187500.02235174447, -187500.02235174447, -187500.02235174447, -187500.02235174447, 0.02, 0.048, 0.992, 192.0, 0.0, 0.0, 0.0, 0.0, 0.0, 0.0, 0.0, 0.0, 0.0, 1.67597545009016E9, 0.0, 2023-02-09 15:44:10.090
68.0, 6023.437502793969, 187500.0, 187500.0, -187500.02235174447, -187500.02235174447, -187500.02235174447, -187500.02235174447, -187500.02235174447, 0.02, 0.048, 0.992, 192.0, 0.0, 0.0, 0.0, 0.0, 0.0, 0.0, 0.0, 0.0, 0.0, 1.675975450097277E9, 0.0, 2023-02-09 15:44:10.097
69.0, 5335.137884037243, 187500.0, 187500.0, -187500.02235174447, -187500.02235174447, -187500.02235174447, -187500.02235174447, -187500.02235174447, 0.02, 0.048, 0.992, 192.0, 0.0, 0.0, 0.0, 0.0, 0.0, 0.0, 0.0, 0.0, 0.0, 1.675975450097293E9, 0.0, 2023-02-09 15:44:10.097
70.0, 4564.539142196077, 187500.0, 187500.0, -187500.02235174447, -187500.02235174447, -187500.02235174447, -187500.02235174447, -187500.02235174447, 0.02, 0.048, 0.992, 192.0, 0.0, 0.0, 0.0, 0.0, 0.0, 0.0, 0.0, 0.0, 0.0, 1.675975450103649E9, 0.0, 2023-02-09 15:44:10.103
71.0, 5350.672346433681, 187500.0, 187500.0, -187500.02235174447, -187500.02235174447, -187500.02235174447, -187500.02235174447, -187500.02235174447, 0.02, 0.048, 0.992, 192.0, 0.0, 0.0, 0.0, 0.0, 0.0, 0.0, 0.0, 0.0, 0.0, 1.675975450111747E9, 0.0, 2023-02-09 15:44:10.111
72.0, 5814.560450859124, 187500.0, 187500.0, -187500.02235174447, -187500.02235174447, -187500.02235174447, -187500.02235174447, -187500.02235174447, 0.02, 0.048, 0.992, 192.0, 0.0, 0.0, 0.0, 0.0, 0.0, 0.0, 0.0, 0.0, 0.0, 1.675975450111795E9, 0.0, 2023-02-09 15:44:10.111
73.0, 5739.905624378398, 187500.0, 187500.0, -187500.02235174447, -187500.02235174447, -187500.02235174447, -187500.02235174447, -187500.02235174447, 0.02, 0.048, 0.992, 192.0, 0.0, 0.0, 0.0, 0.0, 0.0, 0.0, 0.0, 0.0, 0.0, 1.67597545011977E9, 0.0, 2023-02-09 15:44:10.119
74.0, 6181.330225626258, 187500.0, 187500.0, -187500.02235174447, -187500.02235174447, -187500.02235174447, -187500.02235174447, -187500.02235174447, 0.02, 0.048, 0.992, 192.0, 0.0, 0.0, 0.0, 0.0, 0.0, 0.0, 0.0, 0.0, 0.0, 1.675975450119795E9, 0.0, 2023-02-09 15:44:10.119
75.0, 5506.70987447618, 187500.0, 187500.0, -187500.02235174447, -187500.02235174447, -187500.02235174447, -187500.02235174447, -187500.02235174447, 0.018000000000000002, 0.048, 0.994, 192.0, 0.0, 144.0, 1.0, 128.0, 31.0, 16.0, 0.0, 0.0, 0.0, 1.67597545012695E9, 0.0, 2023-02-09 15:44:10.126
76.0, 5508.56506926597, 187500.0, 187500.0, -187500.02235174447, -187500.02235174447, -187500.02235174447, -187500.02235174447, -187500.02235174447, 0.018000000000000002, 0.048, 0.994, 192.0, 0.0, 0.0, 0.0, 0.0, 0.0, 0.0, 0.0, 0.0, 0.0, 1.675975450126967E9, 0.0, 2023-02-09 15:44:10.126
77.0, 5415.023018720511, 187500.0, 187500.0, -187500.02235174447, -187500.02235174447, -187500.02235174447, -187500.02235174447, -187500.02235174447, 0.018000000000000002, 0.048, 0.994, 192.0, 0.0, 0.0, 0.0, 0.0, 0.0, 0.0, 0.0, 0.0, 0.0, 1.675975450134375E9, 0.0, 2023-02-09 15:44:10.134
78.0, 4843.824189165138, 187500.0, 187500.0, -187500.02235174447, -187500.02235174447, -187500.02235174447, -187500.02235174447, -187500.02235174447, 0.018000000000000002, 0.048, 0.994, 192.0, 0.0, 0.0, 0.0, 0.0, 0.0, 0.0, 0.0, 0.0, 0.0, 1.675975450134391E9, 0.0, 2023-02-09 15:44:10.134
79.0, 5746.320575037072, 187500.0, 187500.0, -187500.02235174447, -187500.02235174447, -187500.02235174447, -187500.02235174447, -187500.02235174447, 0.018000000000000002, 0.048, 0.994, 192.0, 0.0, 0.0, 0.0, 0.0, 0.0, 0.0, 0.0, 0.0, 0.0, 1.675975450142405E9, 0.0, 2023-02-09 15:44:10.142
80.0, 6683.238647370177, 187500.0, 187500.0, -187500.02235174447, -187500.02235174447, -187500.02235174447, -187500.02235174447, -187500.02235174447, 0.018000000000000002, 0.048, 0.994, 192.0, 0.0, 0.0, 0.0, 0.0, 0.0, 0.0, 0.0, 0.0, 0.0, 1.675975450142424E9, 0.0, 2023-02-09 15:44:10.142
81.0, 5128.339544336742, 187500.0, 187500.0, -187500.02235174447, -187500.02235174447, -187500.02235174447, -187500.02235174447, -187500.02235174447, 0.018000000000000002, 0.048, 0.994, 192.0, 0.0, 0.0, 0.0, 0.0, 0.0, 0.0, 0.0, 0.0, 0.0, 1.675975450150413E9, 0.0, 2023-02-09 15:44:10.150
82.0, 5440.012269021544, 187500.0, 187500.0, -187500.02235174447, -187500.02235174447, -187500.02235174447, -187500.02235174447, -187500.02235174447, 0.018000000000000002, 0.048, 0.994, 192.0, 0.0, 0.0, 0.0, 0.0, 0.0, 0.0, 0.0, 0.0, 0.0, 1.675975450150432E9, 0.0, 2023-02-09 15:44:10.150
83.0, 5864.82952413911, 187500.0, 187500.0, -187500.02235174447, -187500.02235174447, -187500.02235174447, -187500.02235174447, -187500.02235174447, 0.018000000000000002, 0.048, 0.994, 192.0, 0.0, 0.0, 0.0, 0.0, 0.0, 0.0, 0.0, 0.0, 0.0, 1.675975450156976E9, 0.0, 2023-02-09 15:44:10.156
84.0, 5649.872797712422, 187500.0, 187500.0, -187500.02235174447, -187500.02235174447, -187500.02235174447, -187500.02235174447, -187500.02235174447, 0.018000000000000002, 0.048, 0.994, 192.0, 0.0, 0.0, 0.0, 0.0, 0.0, 0.0, 0.0, 0.0, 0.0, 1.675975450156993E9, 0.0, 2023-02-09 15:44:10.156
85.0, 5018.838348250192, 187500.0, 187500.0, -187500.02235174447, -187500.02235174447, -187500.02235174447, -187500.02235174447, -187500.02235174447, 0.012, 0.046, 0.994, 192.0, 0.0, 96.0, 1.0, 112.0, 31.0, 16.0, 0.0, 0.0, 0.0, 1.675975450163962E9, 0.0, 2023-02-09 15:44:10.163
86.0, 5720.549013680103, 187500.0, 187500.0, -187500.02235174447, -187500.02235174447, -187500.02235174447, -187500.02235174447, -187500.02235174447, 0.012, 0.046, 0.994, 192.0, 0.0, 0.0, 0.0, 0.0, 0.0, 0.0, 0.0, 0.0, 0.0, 1.675975450172025E9, 0.0, 2023-02-09 15:44:10.172
87.0, 5940.266661675771, 187500.0, 187500.0, -187500.02235174447, -187500.02235174447, -187500.02235174447, -187500.02235174447, -187500.02235174447, 0.012, 0.046, 0.994, 192.0, 0.0, 0.0, 0.0, 0.0, 0.0, 0.0, 0.0, 0.0, 0.0, 1.675975450172073E9, 0.0, 2023-02-09 15:44:10.172
88.0, 5522.669020017269, 187500.0, 187500.0, -187500.02235174447, -187500.02235174447, -187500.02235174447, -187500.02235174447, -187500.02235174447, 0.012, 0.046, 0.994, 192.0, 0.0, 0.0, 0.0, 0.0, 0.0, 0.0, 0.0, 0.0, 0.0, 1.675975450179284E9, 0.0, 2023-02-09 15:44:10.179
89.0, 5734.742371409223, 187500.0, 187500.0, -187500.02235174447, -187500.02235174447, -187500.02235174447, -187500.02235174447, -187500.02235174447, 0.012, 0.046, 0.994, 192.0, 0.0, 0.0, 0.0, 0.0, 0.0, 0.0, 0.0, 0.0, 0.0, 1.675975450179298E9, 0.0, 2023-02-09 15:44:10.179
90.0, 5639.076905140509, 187500.0, 187500.0, -187500.02235174447, -187500.02235174447, -187500.02235174447, -187500.02235174447, -187500.02235174447, 0.012, 0.046, 0.994, 192.0, 0.0, 0.0, 0.0, 0.0, 0.0, 0.0, 0.0, 0.0, 0.0, 1.67597545018662E9, 0.0, 2023-02-09 15:44:10.186
91.0, 5344.838541130846, 187500.0, 187500.0, -187500.02235174447, -187500.02235174447, -187500.02235174447, -187500.02235174447, -187500.02235174447, 0.012, 0.046, 0.994, 192.0, 0.0, 0.0, 0.0, 0.0, 0.0, 0.0, 0.0, 0.0, 0.0, 1.675975450186639E9, 0.0, 2023-02-09 15:44:10.186
92.0, 4929.431370428964, 187500.0, 187500.0, -187500.02235174447, -187500.02235174447, -187500.02235174447, -187500.02235174447, -187500.02235174447, 0.012, 0.046, 0.994, 192.0, 0.0, 0.0, 0.0, 0.0, 0.0, 0.0, 0.0, 0.0, 0.0, 1.675975450194709E9, 0.0, 2023-02-09 15:44:10.194
93.0, 5265.869827970246, 187500.0, 187500.0, -187500.02235174447, -187500.02235174447, -187500.02235174447, -187500.02235174447, -187500.02235174447, 0.012, 0.046, 0.994, 192.0, 0.0, 0.0, 0.0, 0.0, 0.0, 0.0, 0.0, 0.0, 0.0, 1.67597545019473E9, 0.0, 2023-02-09 15:44:10.194
94.0, 5886.197791838383, 187500.0, 187500.0, -187500.02235174447, -187500.02235174447, -187500.02235174447, -187500.02235174447, -187500.02235174447, 0.012, 0.046, 0.994, 192.0, 0.0, 0.0, 0.0, 0.0, 0.0, 0.0, 0.0, 0.0, 0.0, 1.675975450202619E9, 0.0, 2023-02-09 15:44:10.202
95.0, 6501.138985292791, 187500.0, 187500.0, -187500.02235174447, -187500.02235174447, -187500.02235174447, -187500.02235174447, -187500.02235174447, 0.014, 0.048, 1.0, 192.0, 0.0, 112.0, 1.0, 128.0, 31.0, 64.0, 0.0, 0.0, 0.0, 1.675975450202639E9, 0.0, 2023-02-09 15:44:10.202
96.0, 5767.174752613873, 187500.0, 187500.0, -187500.02235174447, -187500.02235174447, -187500.02235174447, -187500.02235174447, -187500.02235174447, 0.014, 0.048, 1.0, 192.0, 0.0, 0.0, 0.0, 0.0, 0.0, 0.0, 0.0, 0.0, 0.0, 1.675975450209257E9, 0.0, 2023-02-09 15:44:10.209
97.0, 5260.974795934534, 187500.0, 187500.0, -187500.02235174447, -187500.02235174447, -187500.02235174447, -187500.02235174447, -187500.02235174447, 0.014, 0.048, 1.0, 192.0, 0.0, 0.0, 0.0, 0.0, 0.0, 0.0, 0.0, 0.0, 0.0, 1.675975450209339E9, 0.0, 2023-02-09 15:44:10.209
98.0, 5655.237216381695, 187500.0, 187500.0, -187500.02235174447, -187500.02235174447, -187500.02235174447, -187500.02235174447, -187500.02235174447, 0.014, 0.048, 1.0, 192.0, 0.0, 0.0, 0.0, 0.0, 0.0, 0.0, 0.0, 0.0, 0.0, 1.675975450217208E9, 0.0, 2023-02-09 15:44:10.217
99.0, 5401.254344136041, 187500.0, 187500.0, -187500.02235174447, -187500.02235174447, -187500.02235174447, -187500.02235174447, -187500.02235174447, 0.014, 0.048, 1.0, 192.0, 0.0, 0.0, 0.0, 0.0, 0.0, 0.0, 0.0, 0.0, 0.0, 1.675975450217226E9, 0.0, 2023-02-09 15:44:10.217
100.0, 5213.119711055721, 187500.0, 187500.0, -187500.02235174447, -187500.02235174447, -187500.02235174447, -187500.02235174447, -187500.02235174447, 0.014, 0.048, 1.0, 192.0, 0.0, 0.0, 0.0, 0.0, 0.0, 0.0, 0.0, 0.0, 0.0, 1.675975450224359E9, 0.0, 2023-02-09 15:44:10.224
101.0, 6757.334680239521, 187500.0, 187500.0, -187500.02235174447, -187500.02235174447, -187500.02235174447, -187500.02235174447, -187500.02235174447, 0.014, 0.048, 1.0, 192.0, 0.0, 0.0, 0.0, 0.0, 0.0, 0.0, 0.0, 0.0, 0.0, 1.675975450232252E9, 0.0, 2023-02-09 15:44:10.232
102.0, 5767.219456102784, 187500.0, 187500.0, -187500.02235174447, -187500.02235174447, -187500.02235174447, -187500.02235174447, -187500.02235174447, 0.014, 0.048, 1.0, 192.0, 0.0, 0.0, 0.0, 0.0, 0.0, 0.0, 0.0, 0.0, 0.0, 1.675975450232298E9, 0.0, 2023-02-09 15:44:10.232
103.0, 4946.731620637372, 187500.0, 187500.0, -187500.02235174447, -187500.02235174447, -187500.02235174447, -187500.02235174447, -187500.02235174447, 0.014, 0.048, 1.0, 192.0, 0.0, 0.0, 0.0, 0.0, 0.0, 0.0, 0.0, 0.0, 0.0, 1.675975450238868E9, 0.0, 2023-02-09 15:44:10.238
104.0, 5571.015843274098, 187500.0, 187500.0, -187500.02235174447, -187500.02235174447, -187500.02235174447, -187500.02235174447, -187500.02235174447, 0.014, 0.048, 1.0, 192.0, 0.0, 0.0, 0.0, 0.0, 0.0, 0.0, 0.0, 0.0, 0.0, 1.675975450238887E9, 0.0, 2023-02-09 15:44:10.238
105.0, 4927.464416916897, 187500.0, 187500.0, -187500.02235174447, -187500.02235174447, -187500.02235174447, -187500.02235174447, -187500.02235174447, 0.014, 0.046, 1.0, 192.0, 0.0, 112.0, 1.0, 112.0, 31.0, 64.0, 0.0, 0.0, 0.0, 1.675975450246997E9, 0.0, 2023-02-09 15:44:10.246
106.0, 5305.0300842559445, 187500.0, 187500.0, -187500.02235174447, -187500.02235174447, -187500.02235174447, -187500.02235174447, -187500.02235174447, 0.014, 0.046, 1.0, 192.0, 0.0, 0.0, 0.0, 0.0, 0.0, 0.0, 0.0, 0.0, 0.0, 1.675975450247017E9, 0.0, 2023-02-09 15:44:10.247
107.0, 6120.309963263269, 187500.0, 187500.0, -187500.02235174447, -187500.02235174447, -187500.02235174447, -187500.02235174447, -187500.02235174447, 0.014, 0.046, 1.0, 192.0, 0.0, 0.0, 0.0, 0.0, 0.0, 0.0, 0.0, 0.0, 0.0, 1.675975450255019E9, 0.0, 2023-02-09 15:44:10.255
108.0, 6214.142586486649, 187500.0, 187500.0, -187500.02235174447, -187500.02235174447, -187500.02235174447, -187500.02235174447, -187500.02235174447, 0.014, 0.046, 1.0, 192.0, 0.0, 0.0, 0.0, 0.0, 0.0, 0.0, 0.0, 0.0, 0.0, 1.675975450255044E9, 0.0, 2023-02-09 15:44:10.255
109.0, 6302.163756151647, 187500.0, 187500.0, -187500.02235174447, -187500.02235174447, -187500.02235174447, -187500.02235174447, -187500.02235174447, 0.014, 0.046, 1.0, 192.0, 0.0, 0.0, 0.0, 0.0, 0.0, 0.0, 0.0, 0.0, 0.0, 1.675975450261923E9, 0.0, 2023-02-09 15:44:10.261
110.0, 5040.027801993823, 187500.0, 187500.0, -187500.02235174447, -187500.02235174447, -187500.02235174447, -187500.02235174447, -187500.02235174447, 0.014, 0.046, 1.0, 192.0, 0.0, 0.0, 0.0, 0.0, 0.0, 0.0, 0.0, 0.0, 0.0, 1.675975450261943E9, 0.0, 2023-02-09 15:44:10.261
111.0, 4974.8501151621485, 187500.0, 187500.0, -187500.02235174447, -187500.02235174447, -187500.02235174447, -187500.02235174447, -187500.02235174447, 0.014, 0.046, 1.0, 192.0, 0.0, 0.0, 0.0, 0.0, 0.0, 0.0, 0.0, 0.0, 0.0, 1.67597545026955E9, 0.0, 2023-02-09 15:44:10.269
112.0, 5731.344906252016, 187500.0, 187500.0, -187500.02235174447, -187500.02235174447, -187500.02235174447, -187500.02235174447, -187500.02235174447, 0.014, 0.046, 1.0, 192.0, 0.0, 0.0, 0.0, 0.0, 0.0, 0.0, 0.0, 0.0, 0.0, 1.675975450269562E9, 0.0, 2023-02-09 15:44:10.269
113.0, 5529.553357309504, 187500.0, 187500.0, -187500.02235174447, -187500.02235174447, -187500.02235174447, -187500.02235174447, -187500.02235174447, 0.014, 0.046, 1.0, 192.0, 0.0, 0.0, 0.0, 0.0, 0.0, 0.0, 0.0, 0.0, 0.0, 1.675975450277551E9, 0.0, 2023-02-09 15:44:10.277
114.0, 5325.6383926437375, 187500.0, 187500.0, -187500.02235174447, -187500.02235174447, -187500.02235174447, -187500.02235174447, -187500.02235174447, 0.014, 0.046, 1.0, 192.0, 0.0, 0.0, 0.0, 0.0, 0.0, 0.0, 0.0, 0.0, 0.0, 1.675975450277566E9, 0.0, 2023-02-09 15:44:10.277
115.0, 6073.371299907124, 187500.0, 187500.0, -187500.02235174447, -187500.02235174447, -187500.02235174447, -187500.02235174447, -187500.02235174447, 0.016, 0.048, 0.996, 192.0, 0.0, 128.0, 1.0, 128.0, 31.0, 32.0, 0.0, 0.0, 0.0, 1.675975450284523E9, 0.0, 2023-02-09 15:44:10.284
116.0, 5634.11481787143, 187500.0, 187500.0, -187500.02235174447, -187500.02235174447, -187500.02235174447, -187500.02235174447, -187500.02235174447, 0.016, 0.048, 0.996, 192.0, 0.0, 0.0, 0.0, 0.0, 0.0, 0.0, 0.0, 0.0, 0.0, 1.675975450284542E9, 0.0, 2023-02-09 15:44:10.284
117.0, 4982.8967431660585, 187500.0, 187500.0, -187500.02235174447, -187500.02235174447, -187500.02235174447, -187500.02235174447, -187500.02235174447, 0.016, 0.048, 0.996, 192.0, 0.0, 0.0, 0.0, 0.0, 0.0, 0.0, 0.0, 0.0, 0.0, 1.675975450291648E9, 0.0, 2023-02-09 15:44:10.291
118.0, 5153.2393876599535, 187500.0, 187500.0, -187500.02235174447, -187500.02235174447, -187500.02235174447, -187500.02235174447, -187500.02235174447, 0.016, 0.048, 0.996, 192.0, 0.0, 0.0, 0.0, 0.0, 0.0, 0.0, 0.0, 0.0, 0.0, 1.675975450299077E9, 0.0, 2023-02-09 15:44:10.299
119.0, 5935.237519173327, 187500.0, 187500.0, -187500.02235174447, -187500.02235174447, -187500.02235174447, -187500.02235174447, -187500.02235174447, 0.016, 0.048, 0.996, 192.0, 0.0, 0.0, 0.0, 0.0, 0.0, 0.0, 0.0, 0.0, 0.0, 1.675975450299092E9, 0.0, 2023-02-09 15:44:10.299
120.0, 6254.040450339371, 187500.0, 187500.0, -187500.02235174447, -187500.02235174447, -187500.02235174447, -187500.02235174447, -187500.02235174447, 0.016, 0.048, 0.996, 192.0, 0.0, 0.0, 0.0, 0.0, 0.0, 0.0, 0.0, 0.0, 0.0, 1.675975450307135E9, 0.0, 2023-02-09 15:44:10.307
121.0, 5568.62420661738, 187500.0, 187500.0, -187500.02235174447, -187500.02235174447, -187500.02235174447, -187500.02235174447, -187500.02235174447, 0.016, 0.048, 0.996, 192.0, 0.0, 0.0, 0.0, 0.0, 0.0, 0.0, 0.0, 0.0, 0.0, 1.675975450307163E9, 0.0, 2023-02-09 15:44:10.307
122.0, 5756.3118048085935, 187500.0, 187500.0, -187500.02235174447, -187500.02235174447, -187500.02235174447, -187500.02235174447, -187500.02235174447, 0.016, 0.048, 0.996, 192.0, 0.0, 0.0, 0.0, 0.0, 0.0, 0.0, 0.0, 0.0, 0.0, 1.675975450314253E9, 0.0, 2023-02-09 15:44:10.314
123.0, 5174.115916981211, 187500.0, 187500.0, -187500.02235174447, -187500.02235174447, -187500.02235174447, -187500.02235174447, -187500.02235174447, 0.016, 0.048, 0.996, 192.0, 0.0, 0.0, 0.0, 0.0, 0.0, 0.0, 0.0, 0.0, 0.0, 1.675975450314271E9, 0.0, 2023-02-09 15:44:10.314
124.0, 5622.1789863322965, 187500.0, 187500.0, -187500.02235174447, -187500.02235174447, -187500.02235174447, -187500.02235174447, -187500.02235174447, 0.016, 0.048, 0.996, 192.0, 0.0, 0.0, 0.0, 0.0, 0.0, 0.0, 0.0, 0.0, 0.0, 1.675975450321871E9, 0.0, 2023-02-09 15:44:10.321
125.0, 6022.81165394922, 187500.0, 187500.0, -187500.02235174447, -187500.02235174447, -187500.02235174447, -187500.02235174447, -187500.02235174447, 0.02, 0.052000000000000005, 0.994, 192.0, 0.0, 160.0, 1.0, 160.0, 31.0, 16.0, 0.0, 0.0, 0.0, 1.675975450321885E9, 0.0, 2023-02-09 15:44:10.321
126.0, 5895.07143438714, 187500.0, 187500.0, -187500.02235174447, -187500.02235174447, -187500.02235174447, -187500.02235174447, -187500.02235174447, 0.02, 0.052000000000000005, 0.994, 192.0, 0.0, 0.0, 0.0, 0.0, 0.0, 0.0, 0.0, 0.0, 0.0, 1.675975450329779E9, 0.0, 2023-02-09 15:44:10.329
127.0, 5425.21541419213, 187500.0, 187500.0, -187500.02235174447, -187500.02235174447, -187500.02235174447, -187500.02235174447, -187500.02235174447, 0.02, 0.052000000000000005, 0.994, 192.0, 0.0, 0.0, 0.0, 0.0, 0.0, 0.0, 0.0, 0.0, 0.0, 1.675975450329804E9, 0.0, 2023-02-09 15:44:10.329
128.0, 5322.509148419995, 187500.0, 187500.0, -187500.02235174447, -187500.02235174447, -187500.02235174447, -187500.02235174447, -187500.02235174447, 0.02, 0.052000000000000005, 0.994, 192.0, 0.0, 0.0, 0.0, 0.0, 0.0, 0.0, 0.0, 0.0, 0.0, 1.675975450337805E9, 0.0, 2023-02-09 15:44:10.337
129.0, 5304.0913109888215, 187500.0, 187500.0, -187500.02235174447, -187500.02235174447, -187500.02235174447, -187500.02235174447, -187500.02235174447, 0.02, 0.052000000000000005, 0.994, 192.0, 0.0, 0.0, 0.0, 0.0, 0.0, 0.0, 0.0, 0.0, 0.0, 1.675975450337819E9, 0.0, 2023-02-09 15:44:10.337
130.0, 5836.509863914235, 187500.0, 187500.0, -187500.02235174447, -187500.02235174447, -187500.02235174447, -187500.02235174447, -187500.02235174447, 0.02, 0.052000000000000005, 0.994, 192.0, 0.0, 0.0, 0.0, 0.0, 0.0, 0.0, 0.0, 0.0, 0.0, 1.675975450344379E9, 0.0, 2023-02-09 15:44:10.344
131.0, 5810.514785112713, 187500.0, 187500.0, -187500.02235174447, -187500.02235174447, -187500.02235174447, -187500.02235174447, -187500.02235174447, 0.02, 0.052000000000000005, 0.994, 192.0, 0.0, 0.0, 0.0, 0.0, 0.0, 0.0, 0.0, 0.0, 0.0, 1.675975450344399E9, 0.0, 2023-02-09 15:44:10.344
132.0, 5254.984528420512, 187500.0, 187500.0, -187500.02235174447, -187500.02235174447, -187500.02235174447, -187500.02235174447, -187500.02235174447, 0.02, 0.052000000000000005, 0.994, 192.0, 0.0, 0.0, 0.0, 0.0, 0.0, 0.0, 0.0, 0.0, 0.0, 1.675975450351492E9, 0.0, 2023-02-09 15:44:10.351
133.0, 5514.600040268903, 187500.0, 187500.0, -187500.02235174447, -187500.02235174447, -187500.02235174447, -187500.02235174447, -187500.02235174447, 0.02, 0.052000000000000005, 0.994, 192.0, 0.0, 0.0, 0.0, 0.0, 0.0, 0.0, 0.0, 0.0, 0.0, 1.675975450359383E9, 0.0, 2023-02-09 15:44:10.359
134.0, 6103.412044455057, 187500.0, 187500.0, -187500.02235174447, -187500.02235174447, -187500.02235174447, -187500.02235174447, -187500.02235174447, 0.02, 0.056, 0.994, 192.0, 0.0, 160.0, 1.0, 192.0, 31.0, 16.0, 0.0, 0.0, 0.0, 1.675975450359403E9, 0.0, 2023-02-09 15:44:10.359
135.0, 5926.989725469319, 187500.0, 187500.0, -187500.02235174447, -187500.02235174447, -187500.02235174447, -187500.02235174447, -187500.02235174447, 0.02, 0.056, 0.994, 192.0, 0.0, 0.0, 0.0, 0.0, 0.0, 0.0, 0.0, 0.0, 0.0, 1.67597545036753E9, 0.0, 2023-02-09 15:44:10.367
136.0, 5635.321812072017, 187500.0, 187500.0, -187500.02235174447, -187500.02235174447, -187500.02235174447, -187500.02235174447, -187500.02235174447, 0.02, 0.056, 0.994, 192.0, 0.0, 0.0, 0.0, 0.0, 0.0, 0.0, 0.0, 0.0, 0.0, 1.675975450367554E9, 0.0, 2023-02-09 15:44:10.367
137.0, 4962.288434778266, 187500.0, 187500.0, -187500.02235174447, -187500.02235174447, -187500.02235174447, -187500.02235174447, -187500.02235174447, 0.02, 0.056, 0.994, 192.0, 0.0, 0.0, 0.0, 0.0, 0.0, 0.0, 0.0, 0.0, 0.0, 1.675975450374034E9, 0.0, 2023-02-09 15:44:10.374
138.0, 5270.206066394576, 187500.0, 187500.0, -187500.02235174447, -187500.02235174447, -187500.02235174447, -187500.02235174447, -187500.02235174447, 0.02, 0.056, 0.994, 192.0, 0.0, 0.0, 0.0, 0.0, 0.0, 0.0, 0.0, 0.0, 0.0, 1.675975450374052E9, 0.0, 2023-02-09 15:44:10.374
139.0, 5393.6100475323265, 187500.0, 187500.0, -187500.02235174447, -187500.02235174447, -187500.02235174447, -187500.02235174447, -187500.02235174447, 0.02, 0.056, 0.994, 192.0, 0.0, 0.0, 0.0, 0.0, 0.0, 0.0, 0.0, 0.0, 0.0, 1.675975450382085E9, 0.0, 2023-02-09 15:44:10.382
140.0, 5579.2189334891955, 187500.0, 187500.0, -187500.02235174447, -187500.02235174447, -187500.02235174447, -187500.02235174447, -187500.02235174447, 0.02, 0.056, 0.994, 192.0, 0.0, 0.0, 0.0, 0.0, 0.0, 0.0, 0.0, 0.0, 0.0, 1.675975450382104E9, 0.0, 2023-02-09 15:44:10.382
141.0, 6177.9998157024165, 187500.0, 187500.0, -187500.02235174447, -187500.02235174447, -187500.02235174447, -187500.02235174447, -187500.02235174447, 0.02, 0.056, 0.994, 192.0, 0.0, 0.0, 0.0, 0.0, 0.0, 0.0, 0.0, 0.0, 0.0, 1.675975450390013E9, 0.0, 2023-02-09 15:44:10.390
142.0, 5923.45814984538, 187500.0, 187500.0, -187500.02235174447, -187500.02235174447, -187500.02235174447, -187500.02235174447, -187500.02235174447, 0.02, 0.056, 0.994, 192.0, 0.0, 0.0, 0.0, 0.0, 0.0, 0.0, 0.0, 0.0, 0.0, 1.675975450390075E9, 0.0, 2023-02-09 15:44:10.390
143.0, 5306.348837178807, 187500.0, 187500.0, -187500.02235174447, -187500.02235174447, -187500.02235174447, -187500.02235174447, -187500.02235174447, 0.02, 0.056, 0.994, 192.0, 0.0, 0.0, 0.0, 0.0, 0.0, 0.0, 0.0, 0.0, 0.0, 1.675975450397192E9, 0.0, 2023-02-09 15:44:10.397
144.0, 5759.731621710256, 187500.0, 187500.0, -187500.02235174447, -187500.02235174447, -187500.02235174447, -187500.02235174447, -187500.02235174447, 0.016, 0.05, 0.998, 192.0, 0.0, 128.0, 1.0, 144.0, 31.0, 48.0, 0.0, 0.0, 0.0, 1.675975450397266E9, 0.0, 2023-02-09 15:44:10.397
145.0, 6132.335201780224, 187500.0, 187500.0, -187500.02235174447, -187500.02235174447, -187500.02235174447, -187500.02235174447, -187500.02235174447, 0.016, 0.05, 0.998, 192.0, 0.0, 0.0, 0.0, 0.0, 0.0, 0.0, 0.0, 0.0, 0.0, 1.675975450404715E9, 0.0, 2023-02-09 15:44:10.404
146.0, 5408.138681428276, 187500.0, 187500.0, -187500.02235174447, -187500.02235174447, -187500.02235174447, -187500.02235174447, -187500.02235174447, 0.016, 0.05, 0.998, 192.0, 0.0, 0.0, 0.0, 0.0, 0.0, 0.0, 0.0, 0.0, 0.0, 1.675975450404738E9, 0.0, 2023-02-09 15:44:10.404
147.0, 5189.628027633194, 187500.0, 187500.0, -187500.02235174447, -187500.02235174447, -187500.02235174447, -187500.02235174447, -187500.02235174447, 0.016, 0.05, 0.998, 192.0, 0.0, 0.0, 0.0, 0.0, 0.0, 0.0, 0.0, 0.0, 0.0, 1.675975450411694E9, 0.0, 2023-02-09 15:44:10.411
148.0, 6175.9434552125285, 187500.0, 187500.0, -187500.02235174447, -187500.02235174447, -187500.02235174447, -187500.02235174447, -187500.02235174447, 0.016, 0.05, 0.998, 192.0, 0.0, 0.0, 0.0, 0.0, 0.0, 0.0, 0.0, 0.0, 0.0, 1.675975450419763E9, 0.0, 2023-02-09 15:44:10.419
149.0, 5810.939468257364, 187500.0, 187500.0, -187500.02235174447, -187500.02235174447, -187500.02235174447, -187500.02235174447, -187500.02235174447, 0.016, 0.05, 0.998, 192.0, 0.0, 0.0, 0.0, 0.0, 0.0, 0.0, 0.0, 0.0, 0.0, 1.67597545041978E9, 0.0, 2023-02-09 15:44:10.419
150.0, 5365.044518118443, 187500.0, 187500.0, -187500.02235174447, -187500.02235174447, -187500.02235174447, -187500.02235174447, -187500.02235174447, 0.016, 0.05, 0.998, 192.0, 0.0, 0.0, 0.0, 0.0, 0.0, 0.0, 0.0, 0.0, 0.0, 1.675975450426868E9, 0.0, 2023-02-09 15:44:10.426
151.0, 5535.3648108678835, 187500.0, 187500.0, -187500.02235174447, -187500.02235174447, -187500.02235174447, -187500.02235174447, -187500.02235174447, 0.016, 0.05, 0.998, 192.0, 0.0, 0.0, 0.0, 0.0, 0.0, 0.0, 0.0, 0.0, 0.0, 1.675975450426887E9, 0.0, 2023-02-09 15:44:10.426
152.0, 5459.592397164392, 187500.0, 187500.0, -187500.02235174447, -187500.02235174447, -187500.02235174447, -187500.02235174447, -187500.02235174447, 0.016, 0.05, 0.998, 192.0, 0.0, 0.0, 0.0, 0.0, 0.0, 0.0, 0.0, 0.0, 0.0, 1.675975450434369E9, 0.0, 2023-02-09 15:44:10.434
153.0, 5046.889787541603, 187500.0, 187500.0, -187500.02235174447, -187500.02235174447, -187500.02235174447, -187500.02235174447, -187500.02235174447, 0.016, 0.05, 0.998, 192.0, 0.0, 0.0, 0.0, 0.0, 0.0, 0.0, 0.0, 0.0, 0.0, 1.675975450434391E9, 0.0, 2023-02-09 15:44:10.434
154.0, 5878.866419657043, 187500.0, 187500.0, -187500.02235174447, -187500.02235174447, -187500.02235174447, -187500.02235174447, -187500.02235174447, 0.014, 0.052000000000000005, 0.998, 192.0, 0.0, 112.0, 1.0, 160.0, 31.0, 48.0, 0.0, 0.0, 0.0, 1.675975450442224E9, 0.0, 2023-02-09 15:44:10.442
155.0, 5934.969298239863, 187500.0, 187500.0, -187500.02235174447, -187500.02235174447, -187500.02235174447, -187500.02235174447, -187500.02235174447, 0.014, 0.052000000000000005, 0.998, 192.0, 0.0, 0.0, 0.0, 0.0, 0.0, 0.0, 0.0, 0.0, 0.0, 1.675975450442249E9, 0.0, 2023-02-09 15:44:10.442
156.0, 5921.334734122126, 187500.0, 187500.0, -187500.02235174447, -187500.02235174447, -187500.02235174447, -187500.02235174447, -187500.02235174447, 0.014, 0.052000000000000005, 0.998, 192.0, 0.0, 0.0, 0.0, 0.0, 0.0, 0.0, 0.0, 0.0, 0.0, 1.675975450450318E9, 0.0, 2023-02-09 15:44:10.450
157.0, 6135.509149492878, 187500.0, 187500.0, -187500.02235174447, -187500.02235174447, -187500.02235174447, -187500.02235174447, -187500.02235174447, 0.014, 0.052000000000000005, 0.998, 192.0, 0.0, 0.0, 0.0, 0.0, 0.0, 0.0, 0.0, 0.0, 0.0, 1.675975450450347E9, 0.0, 2023-02-09 15:44:10.450
158.0, 5033.076409468224, 187500.0, 187500.0, -187500.02235174447, -187500.02235174447, -187500.02235174447, -187500.02235174447, -187500.02235174447, 0.014, 0.052000000000000005, 0.998, 192.0, 0.0, 0.0, 0.0, 0.0, 0.0, 0.0, 0.0, 0.0, 0.0, 1.675975450456826E9, 0.0, 2023-02-09 15:44:10.456
159.0, 5351.342898767341, 187500.0, 187500.0, -187500.02235174447, -187500.02235174447, -187500.02235174447, -187500.02235174447, -187500.02235174447, 0.014, 0.052000000000000005, 0.998, 192.0, 0.0, 0.0, 0.0, 0.0, 0.0, 0.0, 0.0, 0.0, 0.0, 1.675975450456837E9, 0.0, 2023-02-09 15:44:10.456
160.0, 6052.651232797055, 187500.0, 187500.0, -187500.02235174447, -187500.02235174447, -187500.02235174447, -187500.02235174447, -187500.02235174447, 0.014, 0.052000000000000005, 0.998, 192.0, 0.0, 0.0, 0.0, 0.0, 0.0, 0.0, 0.0, 0.0, 0.0, 1.675975450465052E9, 0.0, 2023-02-09 15:44:10.465
161.0, 6439.157597918224, 187500.0, 187500.0, -187500.02235174447, -187500.02235174447, -187500.02235174447, -187500.02235174447, -187500.02235174447, 0.014, 0.052000000000000005, 0.998, 192.0, 0.0, 0.0, 0.0, 0.0, 0.0, 0.0, 0.0, 0.0, 0.0, 1.675975450465076E9, 0.0, 2023-02-09 15:44:10.465
162.0, 5281.985435722522, 187500.0, 187500.0, -187500.02235174447, -187500.02235174447, -187500.02235174447, -187500.02235174447, -187500.02235174447, 0.014, 0.052000000000000005, 0.998, 192.0, 0.0, 0.0, 0.0, 0.0, 0.0, 0.0, 0.0, 0.0, 0.0, 1.675975450471962E9, 0.0, 2023-02-09 15:44:10.471
163.0, 5858.124000802517, 187500.0, 187500.0, -187500.02235174447, -187500.02235174447, -187500.02235174447, -187500.02235174447, -187500.02235174447, 0.014, 0.052000000000000005, 0.998, 192.0, 0.0, 0.0, 0.0, 0.0, 0.0, 0.0, 0.0, 0.0, 0.0, 1.675975450479054E9, 0.0, 2023-02-09 15:44:10.479
164.0, 5815.4768723817915, 187500.0, 187500.0, -187500.02235174447, -187500.02235174447, -187500.02235174447, -187500.02235174447, -187500.02235174447, 0.012, 0.05, 1.002, 192.0, 0.0, 96.0, 1.0, 144.0, 31.0, 80.0, 0.0, 0.0, 0.0, 1.675975450479075E9, 0.0, 2023-02-09 15:44:10.479
165.0, 4900.821137526172, 187500.0, 187500.0, -187500.02235174447, -187500.02235174447, -187500.02235174447, -187500.02235174447, -187500.02235174447, 0.012, 0.05, 1.002, 192.0, 0.0, 0.0, 0.0, 0.0, 0.0, 0.0, 0.0, 0.0, 0.0, 1.675975450486616E9, 0.0, 2023-02-09 15:44:10.486
166.0, 5237.0360776229, 187500.0, 187500.0, -187500.02235174447, -187500.02235174447, -187500.02235174447, -187500.02235174447, -187500.02235174447, 0.012, 0.05, 1.002, 192.0, 0.0, 0.0, 0.0, 0.0, 0.0, 0.0, 0.0, 0.0, 0.0, 1.675975450486693E9, 0.0, 2023-02-09 15:44:10.486
167.0, 5473.472830471138, 187500.0, 187500.0, -187500.02235174447, -187500.02235174447, -187500.02235174447, -187500.02235174447, -187500.02235174447, 0.012, 0.05, 1.002, 192.0, 0.0, 0.0, 0.0, 0.0, 0.0, 0.0, 0.0, 0.0, 0.0, 1.67597545049453E9, 0.0, 2023-02-09 15:44:10.494
168.0, 5314.216651227075, 187500.0, 187500.0, -187500.02235174447, -187500.02235174447, -187500.02235174447, -187500.02235174447, -187500.02235174447, 0.012, 0.05, 1.002, 192.0, 0.0, 0.0, 0.0, 0.0, 0.0, 0.0, 0.0, 0.0, 0.0, 1.675975450494599E9, 0.0, 2023-02-09 15:44:10.494
169.0, 5581.007073045621, 187500.0, 187500.0, -187500.02235174447, -187500.02235174447, -187500.02235174447, -187500.02235174447, -187500.02235174447, 0.012, 0.05, 1.002, 192.0, 0.0, 0.0, 0.0, 0.0, 0.0, 0.0, 0.0, 0.0, 0.0, 1.675975450502639E9, 0.0, 2023-02-09 15:44:10.502
170.0, 6202.139699714148, 187500.0, 187500.0, -187500.02235174447, -187500.02235174447, -187500.02235174447, -187500.02235174447, -187500.02235174447, 0.012, 0.05, 1.002, 192.0, 0.0, 0.0, 0.0, 0.0, 0.0, 0.0, 0.0, 0.0, 0.0, 1.67597545050266E9, 0.0, 2023-02-09 15:44:10.502
171.0, 6435.044876938448, 187500.0, 187500.0, -187500.02235174447, -187500.02235174447, -187500.02235174447, -187500.02235174447, -187500.02235174447, 0.012, 0.05, 1.002, 192.0, 0.0, 0.0, 0.0, 0.0, 0.0, 0.0, 0.0, 0.0, 0.0, 1.675975450509205E9, 0.0, 2023-02-09 15:44:10.509
172.0, 6463.56570286342, 187500.0, 187500.0, -187500.02235174447, -187500.02235174447, -187500.02235174447, -187500.02235174447, -187500.02235174447, 0.012, 0.05, 1.002, 192.0, 0.0, 0.0, 0.0, 0.0, 0.0, 0.0, 0.0, 0.0, 0.0, 1.675975450509221E9, 0.0, 2023-02-09 15:44:10.509
173.0, 4919.596602868629, 187500.0, 187500.0, -187500.02235174447, -187500.02235174447, -187500.02235174447, -187500.02235174447, -187500.02235174447, 0.012, 0.05, 1.002, 192.0, 0.0, 0.0, 0.0, 0.0, 0.0, 0.0, 0.0, 0.0, 0.0, 1.675975450517286E9, 0.0, 2023-02-09 15:44:10.517
