%OpenBCI Raw EEG Data
%Number of channels = 8
%Sample Rate = 250 Hz
%Board = OpenBCI_GUI$BoardCytonSerial
Sample Index, EXG Channel 0, EXG Channel 1, EXG Channel 2, EXG Channel 3, EXG Channel 4, EXG Channel 5, EXG Channel 6, EXG Channel 7, Accel Channel 0, Accel Channel 1, Accel Channel 2, Other, Other, Other, Other, Other, Other, Other, Analog Channel 0, Analog Channel 1, Analog Channel 2, Timestamp, Other, Timestamp (Formatted)
62.0, 308.96816360570955, 187500.0, -187500.02235174447, -187500.02235174447, -187500.02235174447, -187500.02235174447, -187500.02235174447, -187500.02235174447, 0.0, 0.0, 0.0, 192.0, 0.0, 0.0, 0.0, 0.0, 0.0, 0.0, 0.0, 0.0, 0.0, 1.676046561418141E9, 0.0, 2023-02-10 11:29:21.418
63.0, 454.2545025652054, 187500.0, -187500.02235174447, -187500.02235174447, -187500.02235174447, -187500.02235174447, -187500.02235174447, -187500.02235174447, 0.0, 0.0, 0.0, 192.0, 0.0, 0.0, 0.0, 0.0, 0.0, 0.0, 0.0, 0.0, 0.0, 1.676046561418171E9, 0.0, 2023-02-10 11:29:21.418
64.0, 840.380888030635, 187500.0, -187500.02235174447, -187500.02235174447, -187500.02235174447, -187500.02235174447, -187500.02235174447, -187500.02235174447, 0.0, 0.0, 0.0, 192.0, 0.0, 0.0, 0.0, 0.0, 0.0, 0.0, 0.0, 0.0, 0.0, 1.676046561418184E9, 0.0, 2023-02-10 11:29:21.418
65.0, 999.8829364637062, 187500.0, -187500.02235174447, -187500.02235174447, -187500.02235174447, -187500.02235174447, -187500.02235174447, -187500.02235174447, 0.0, 0.0, 0.0, 192.0, 0.0, 0.0, 0.0, 0.0, 0.0, 0.0, 0.0, 0.0, 0.0, 1.676046561418202E9, 0.0, 2023-02-10 11:29:21.418
0.0, 0.0, 0.0, 0.0, 0.0, 0.0, 0.0, 0.0, 0.0, 0.018000000000000002, 0.044, 1.004, 192.0, 0.0, 144.0, 1.0, 96.0, 31.0, 96.0, 0.0, 0.0, 0.0, 1.676046561537403E9, 0.0, 2023-02-10 11:29:21.537
1.0, 11508.041502003849, 187500.0, -187500.02235174447, -187500.02235174447, -187500.02235174447, -187500.02235174447, -187500.02235174447, -187500.02235174447, 0.018000000000000002, 0.044, 1.004, 192.0, 0.0, 0.0, 0.0, 0.0, 0.0, 0.0, 0.0, 0.0, 0.0, 1.676046561548336E9, 0.0, 2023-02-10 11:29:21.548
2.0, 12075.596997213006, 187500.0, -187500.02235174447, -187500.02235174447, -187500.02235174447, -187500.02235174447, -187500.02235174447, -187500.02235174447, 0.018000000000000002, 0.044, 1.004, 192.0, 0.0, 0.0, 0.0, 0.0, 0.0, 0.0, 0.0, 0.0, 0.0, 1.676046561554384E9, 0.0, 2023-02-10 11:29:21.554
3.0, 12223.632600740506, 187500.0, -187500.02235174447, -187500.02235174447, -187500.02235174447, -187500.02235174447, -187500.02235174447, -187500.02235174447, 0.018000000000000002, 0.044, 1.004, 192.0, 0.0, 0.0, 0.0, 0.0, 0.0, 0.0, 0.0, 0.0, 0.0, 1.676046561554411E9, 0.0, 2023-02-10 11:29:21.554
4.0, 12423.725417104413, 187500.0, -187500.02235174447, -187500.02235174447, -187500.02235174447, -187500.02235174447, -187500.02235174447, -187500.02235174447, 0.018000000000000002, 0.044, 1.004, 192.0, 0.0, 0.0, 0.0, 0.0, 0.0, 0.0, 0.0, 0.0, 0.0, 1.67604656156074E9, 0.0, 2023-02-10 11:29:21.560
5.0, 11763.633699850287, 187500.0, -187500.02235174447, -187500.02235174447, -187500.02235174447, -187500.02235174447, -187500.02235174447, -187500.02235174447, 0.018000000000000002, 0.044, 1.004, 192.0, 0.0, 0.0, 0.0, 0.0, 0.0, 0.0, 0.0, 0.0, 0.0, 1.676046561560763E9, 0.0, 2023-02-10 11:29:21.560
6.0, 10668.957015151622, 187500.0, -187500.02235174447, -187500.02235174447, -187500.02235174447, -187500.02235174447, -187500.02235174447, -187500.02235174447, 0.018000000000000002, 0.044, 1.004, 192.0, 0.0, 0.0, 0.0, 0.0, 0.0, 0.0, 0.0, 0.0, 0.0, 1.67604656156866E9, 0.0, 2023-02-10 11:29:21.568
7.0, 11387.051509267272, 187500.0, -187500.02235174447, -187500.02235174447, -187500.02235174447, -187500.02235174447, -187500.02235174447, -187500.02235174447, 0.016, 0.042, 1.002, 192.0, 0.0, 128.0, 1.0, 80.0, 31.0, 80.0, 0.0, 0.0, 0.0, 1.676046561568776E9, 0.0, 2023-02-10 11:29:21.568
8.0, 11812.360502762855, 187500.0, -187500.02235174447, -187500.02235174447, -187500.02235174447, -187500.02235174447, -187500.02235174447, -187500.02235174447, 0.016, 0.042, 1.002, 192.0, 0.0, 0.0, 0.0, 0.0, 0.0, 0.0, 0.0, 0.0, 0.0, 1.676046561576816E9, 0.0, 2023-02-10 11:29:21.576
9.0, 11701.115870608792, 187500.0, -187500.02235174447, -187500.02235174447, -187500.02235174447, -187500.02235174447, -187500.02235174447, -187500.02235174447, 0.016, 0.042, 1.002, 192.0, 0.0, 0.0, 0.0, 0.0, 0.0, 0.0, 0.0, 0.0, 0.0, 1.67604656157686E9, 0.0, 2023-02-10 11:29:21.576
10.0, 11485.577998826266, 187500.0, -187500.02235174447, -187500.02235174447, -187500.02235174447, -187500.02235174447, -187500.02235174447, -187500.02235174447, 0.016, 0.042, 1.002, 192.0, 0.0, 0.0, 0.0, 0.0, 0.0, 0.0, 0.0, 0.0, 0.0, 1.676046561583805E9, 0.0, 2023-02-10 11:29:21.583
11.0, 11713.006998659015, 187500.0, -187500.02235174447, -187500.02235174447, -187500.02235174447, -187500.02235174447, -187500.02235174447, -187500.02235174447, 0.016, 0.042, 1.002, 192.0, 0.0, 0.0, 0.0, 0.0, 0.0, 0.0, 0.0, 0.0, 0.0, 1.676046561583823E9, 0.0, 2023-02-10 11:29:21.583
12.0, 11937.485568223665, 187500.0, -187500.02235174447, -187500.02235174447, -187500.02235174447, -187500.02235174447, -187500.02235174447, -187500.02235174447, 0.016, 0.042, 1.002, 192.0, 0.0, 0.0, 0.0, 0.0, 0.0, 0.0, 0.0, 0.0, 0.0, 1.676046561591299E9, 0.0, 2023-02-10 11:29:21.591
13.0, 11685.670815190175, 187500.0, -187500.02235174447, -187500.02235174447, -187500.02235174447, -187500.02235174447, -187500.02235174447, -187500.02235174447, 0.016, 0.042, 1.002, 192.0, 0.0, 0.0, 0.0, 0.0, 0.0, 0.0, 0.0, 0.0, 0.0, 1.676046561591319E9, 0.0, 2023-02-10 11:29:21.591
14.0, 11740.499644339043, 187500.0, -187500.02235174447, -187500.02235174447, -187500.02235174447, -187500.02235174447, -187500.02235174447, -187500.02235174447, 0.016, 0.042, 1.002, 192.0, 0.0, 0.0, 0.0, 0.0, 0.0, 0.0, 0.0, 0.0, 0.0, 1.676046561599315E9, 0.0, 2023-02-10 11:29:21.599
15.0, 12074.926444879347, 187500.0, -187500.02235174447, -187500.02235174447, -187500.02235174447, -187500.02235174447, -187500.02235174447, -187500.02235174447, 0.016, 0.042, 1.002, 192.0, 0.0, 0.0, 0.0, 0.0, 0.0, 0.0, 0.0, 0.0, 0.0, 1.676046561599332E9, 0.0, 2023-02-10 11:29:21.599
16.0, 12043.879871830926, 187500.0, -187500.02235174447, -187500.02235174447, -187500.02235174447, -187500.02235174447, -187500.02235174447, -187500.02235174447, 0.016, 0.042, 1.002, 192.0, 0.0, 0.0, 0.0, 0.0, 0.0, 0.0, 0.0, 0.0, 0.0, 1.676046561606369E9, 0.0, 2023-02-10 11:29:21.606
17.0, 11475.6091207992, 187500.0, -187500.02235174447, -187500.02235174447, -187500.02235174447, -187500.02235174447, -187500.02235174447, -187500.02235174447, 0.012, 0.04, 1.0, 192.0, 0.0, 96.0, 1.0, 64.0, 31.0, 64.0, 0.0, 0.0, 0.0, 1.676046561613389E9, 0.0, 2023-02-10 11:29:21.613
18.0, 11331.90975569603, 187500.0, -187500.02235174447, -187500.02235174447, -187500.02235174447, -187500.02235174447, -187500.02235174447, -187500.02235174447, 0.012, 0.04, 1.0, 192.0, 0.0, 0.0, 0.0, 0.0, 0.0, 0.0, 0.0, 0.0, 0.0, 1.676046561613419E9, 0.0, 2023-02-10 11:29:21.613
19.0, 11399.143803017594, 187500.0, -187500.02235174447, -187500.02235174447, -187500.02235174447, -187500.02235174447, -187500.02235174447, -187500.02235174447, 0.012, 0.04, 1.0, 192.0, 0.0, 0.0, 0.0, 0.0, 0.0, 0.0, 0.0, 0.0, 0.0, 1.67604656162106E9, 0.0, 2023-02-10 11:29:21.621
20.0, 11756.816417791417, 187500.0, -187500.02235174447, -187500.02235174447, -187500.02235174447, -187500.02235174447, -187500.02235174447, -187500.02235174447, 0.012, 0.04, 1.0, 192.0, 0.0, 0.0, 0.0, 0.0, 0.0, 0.0, 0.0, 0.0, 0.0, 1.676046561621104E9, 0.0, 2023-02-10 11:29:21.621
21.0, 12250.074714431134, 187500.0, -187500.02235174447, -187500.02235174447, -187500.02235174447, -187500.02235174447, -187500.02235174447, -187500.02235174447, 0.012, 0.04, 1.0, 192.0, 0.0, 0.0, 0.0, 0.0, 0.0, 0.0, 0.0, 0.0, 0.0, 1.676046561629139E9, 0.0, 2023-02-10 11:29:21.629
22.0, 12222.805586195658, 187500.0, -187500.02235174447, -187500.02235174447, -187500.02235174447, -187500.02235174447, -187500.02235174447, -187500.02235174447, 0.012, 0.04, 1.0, 192.0, 0.0, 0.0, 0.0, 0.0, 0.0, 0.0, 0.0, 0.0, 0.0, 1.67604656162916E9, 0.0, 2023-02-10 11:29:21.629
23.0, 11562.356241030246, 187500.0, -187500.02235174447, -187500.02235174447, -187500.02235174447, -187500.02235174447, -187500.02235174447, -187500.02235174447, 0.012, 0.04, 1.0, 192.0, 0.0, 0.0, 0.0, 0.0, 0.0, 0.0, 0.0, 0.0, 0.0, 1.67604656163702E9, 0.0, 2023-02-10 11:29:21.637
24.0, 11517.250420719436, 187500.0, -187500.02235174447, -187500.02235174447, -187500.02235174447, -187500.02235174447, -187500.02235174447, -187500.02235174447, 0.012, 0.04, 1.0, 192.0, 0.0, 0.0, 0.0, 0.0, 0.0, 0.0, 0.0, 0.0, 0.0, 1.676046561637066E9, 0.0, 2023-02-10 11:29:21.637
25.0, 11693.292760049435, 187500.0, -187500.02235174447, -187500.02235174447, -187500.02235174447, -187500.02235174447, -187500.02235174447, -187500.02235174447, 0.012, 0.04, 1.0, 192.0, 0.0, 0.0, 0.0, 0.0, 0.0, 0.0, 0.0, 0.0, 0.0, 1.676046561643586E9, 0.0, 2023-02-10 11:29:21.643
26.0, 11599.214267637048, 187500.0, -187500.02235174447, -187500.02235174447, -187500.02235174447, -187500.02235174447, -187500.02235174447, -187500.02235174447, 0.012, 0.04, 1.0, 192.0, 0.0, 0.0, 0.0, 0.0, 0.0, 0.0, 0.0, 0.0, 0.0, 1.676046561643608E9, 0.0, 2023-02-10 11:29:21.643
27.0, 11816.3391132759, 187500.0, -187500.02235174447, -187500.02235174447, -187500.02235174447, -187500.02235174447, -187500.02235174447, -187500.02235174447, 0.02, 0.038, 1.002, 192.0, 0.0, 160.0, 1.0, 48.0, 31.0, 80.0, 0.0, 0.0, 0.0, 1.676046561651685E9, 0.0, 2023-02-10 11:29:21.651
28.0, 11762.091429482869, 187500.0, -187500.02235174447, -187500.02235174447, -187500.02235174447, -187500.02235174447, -187500.02235174447, -187500.02235174447, 0.02, 0.038, 1.002, 192.0, 0.0, 0.0, 0.0, 0.0, 0.0, 0.0, 0.0, 0.0, 0.0, 1.676046561651712E9, 0.0, 2023-02-10 11:29:21.651
29.0, 11526.302877223836, 187500.0, -187500.02235174447, -187500.02235174447, -187500.02235174447, -187500.02235174447, -187500.02235174447, -187500.02235174447, 0.02, 0.038, 1.002, 192.0, 0.0, 0.0, 0.0, 0.0, 0.0, 0.0, 0.0, 0.0, 0.0, 1.676046561659624E9, 0.0, 2023-02-10 11:29:21.659
30.0, 11484.84039125924, 187500.0, -187500.02235174447, -187500.02235174447, -187500.02235174447, -187500.02235174447, -187500.02235174447, -187500.02235174447, 0.02, 0.038, 1.002, 192.0, 0.0, 0.0, 0.0, 0.0, 0.0, 0.0, 0.0, 0.0, 0.0, 1.676046561659647E9, 0.0, 2023-02-10 11:29:21.659
31.0, 11708.536649767953, 187500.0, -187500.02235174447, -187500.02235174447, -187500.02235174447, -187500.02235174447, -187500.02235174447, -187500.02235174447, 0.02, 0.038, 1.002, 192.0, 0.0, 0.0, 0.0, 0.0, 0.0, 0.0, 0.0, 0.0, 0.0, 1.676046561665742E9, 0.0, 2023-02-10 11:29:21.665
32.0, 12252.689868532405, 187500.0, -187500.02235174447, -187500.02235174447, -187500.02235174447, -187500.02235174447, -187500.02235174447, -187500.02235174447, 0.02, 0.038, 1.002, 192.0, 0.0, 0.0, 0.0, 0.0, 0.0, 0.0, 0.0, 0.0, 0.0, 1.676046561673247E9, 0.0, 2023-02-10 11:29:21.673
33.0, 11903.846192818428, 187500.0, -187500.02235174447, -187500.02235174447, -187500.02235174447, -187500.02235174447, -187500.02235174447, -187500.02235174447, 0.02, 0.038, 1.002, 192.0, 0.0, 0.0, 0.0, 0.0, 0.0, 0.0, 0.0, 0.0, 0.0, 1.676046561673266E9, 0.0, 2023-02-10 11:29:21.673
34.0, 11483.365176125191, 187500.0, -187500.02235174447, -187500.02235174447, -187500.02235174447, -187500.02235174447, -187500.02235174447, -187500.02235174447, 0.02, 0.038, 1.002, 192.0, 0.0, 0.0, 0.0, 0.0, 0.0, 0.0, 0.0, 0.0, 0.0, 1.676046561681228E9, 0.0, 2023-02-10 11:29:21.681
35.0, 11489.534257594856, 187500.0, -187500.02235174447, -187500.02235174447, -187500.02235174447, -187500.02235174447, -187500.02235174447, -187500.02235174447, 0.02, 0.038, 1.002, 192.0, 0.0, 0.0, 0.0, 0.0, 0.0, 0.0, 0.0, 0.0, 0.0, 1.676046561681266E9, 0.0, 2023-02-10 11:29:21.681
36.0, 11714.772786470985, 187500.0, -187500.02235174447, -187500.02235174447, -187500.02235174447, -187500.02235174447, -187500.02235174447, -187500.02235174447, 0.02, 0.038, 1.002, 192.0, 0.0, 0.0, 0.0, 0.0, 0.0, 0.0, 0.0, 0.0, 0.0, 1.676046561689351E9, 0.0, 2023-02-10 11:29:21.689
37.0, 11917.413701702799, 187500.0, -187500.02235174447, -187500.02235174447, -187500.02235174447, -187500.02235174447, -187500.02235174447, -187500.02235174447, 0.014, 0.042, 0.996, 192.0, 0.0, 112.0, 1.0, 80.0, 31.0, 32.0, 0.0, 0.0, 0.0, 1.67604656168941E9, 0.0, 2023-02-10 11:29:21.689
38.0, 11945.845120649949, 187500.0, -187500.02235174447, -187500.02235174447, -187500.02235174447, -187500.02235174447, -187500.02235174447, -187500.02235174447, 0.014, 0.042, 0.996, 192.0, 0.0, 0.0, 0.0, 0.0, 0.0, 0.0, 0.0, 0.0, 0.0, 1.676046561695955E9, 0.0, 2023-02-10 11:29:21.695
39.0, 11614.391102122201, 187500.0, -187500.02235174447, -187500.02235174447, -187500.02235174447, -187500.02235174447, -187500.02235174447, -187500.02235174447, 0.014, 0.042, 0.996, 192.0, 0.0, 0.0, 0.0, 0.0, 0.0, 0.0, 0.0, 0.0, 0.0, 1.676046561695978E9, 0.0, 2023-02-10 11:29:21.695
40.0, 11546.441798978067, 187500.0, -187500.02235174447, -187500.02235174447, -187500.02235174447, -187500.02235174447, -187500.02235174447, -187500.02235174447, 0.014, 0.042, 0.996, 192.0, 0.0, 0.0, 0.0, 0.0, 0.0, 0.0, 0.0, 0.0, 0.0, 1.67604656170395E9, 0.0, 2023-02-10 11:29:21.703
41.0, 11784.532580915999, 187500.0, -187500.02235174447, -187500.02235174447, -187500.02235174447, -187500.02235174447, -187500.02235174447, -187500.02235174447, 0.014, 0.042, 0.996, 192.0, 0.0, 0.0, 0.0, 0.0, 0.0, 0.0, 0.0, 0.0, 0.0, 1.676046561703976E9, 0.0, 2023-02-10 11:29:21.703
42.0, 11723.579373786375, 187500.0, -187500.02235174447, -187500.02235174447, -187500.02235174447, -187500.02235174447, -187500.02235174447, -187500.02235174447, 0.014, 0.042, 0.996, 192.0, 0.0, 0.0, 0.0, 0.0, 0.0, 0.0, 0.0, 0.0, 0.0, 1.676046561711949E9, 0.0, 2023-02-10 11:29:21.711
43.0, 11943.252318293133, 187500.0, -187500.02235174447, -187500.02235174447, -187500.02235174447, -187500.02235174447, -187500.02235174447, -187500.02235174447, 0.014, 0.042, 0.996, 192.0, 0.0, 0.0, 0.0, 0.0, 0.0, 0.0, 0.0, 0.0, 0.0, 1.676046561711971E9, 0.0, 2023-02-10 11:29:21.711
44.0, 11488.081394205261, 187500.0, -187500.02235174447, -187500.02235174447, -187500.02235174447, -187500.02235174447, -187500.02235174447, -187500.02235174447, 0.014, 0.042, 0.996, 192.0, 0.0, 0.0, 0.0, 0.0, 0.0, 0.0, 0.0, 0.0, 0.0, 1.676046561718991E9, 0.0, 2023-02-10 11:29:21.718
45.0, 11683.681509933653, 187500.0, -187500.02235174447, -187500.02235174447, -187500.02235174447, -187500.02235174447, -187500.02235174447, -187500.02235174447, 0.014, 0.042, 0.996, 192.0, 0.0, 0.0, 0.0, 0.0, 0.0, 0.0, 0.0, 0.0, 0.0, 1.676046561719012E9, 0.0, 2023-02-10 11:29:21.719
46.0, 11826.017418625048, 187500.0, -187500.02235174447, -187500.02235174447, -187500.02235174447, -187500.02235174447, -187500.02235174447, -187500.02235174447, 0.014, 0.042, 0.996, 192.0, 0.0, 0.0, 0.0, 0.0, 0.0, 0.0, 0.0, 0.0, 0.0, 1.676046561725475E9, 0.0, 2023-02-10 11:29:21.725
47.0, 11723.735835997562, 187500.0, -187500.02235174447, -187500.02235174447, -187500.02235174447, -187500.02235174447, -187500.02235174447, -187500.02235174447, 0.014, 0.042, 0.996, 192.0, 0.0, 112.0, 1.0, 80.0, 31.0, 32.0, 0.0, 0.0, 0.0, 1.67604656173344E9, 0.0, 2023-02-10 11:29:21.733
48.0, 11605.986846207004, 187500.0, -187500.02235174447, -187500.02235174447, -187500.02235174447, -187500.02235174447, -187500.02235174447, -187500.02235174447, 0.014, 0.042, 0.996, 192.0, 0.0, 0.0, 0.0, 0.0, 0.0, 0.0, 0.0, 0.0, 0.0, 1.67604656173346E9, 0.0, 2023-02-10 11:29:21.733
49.0, 12146.1167509695, 187500.0, -187500.02235174447, -187500.02235174447, -187500.02235174447, -187500.02235174447, -187500.02235174447, -187500.02235174447, 0.014, 0.042, 0.996, 192.0, 0.0, 0.0, 0.0, 0.0, 0.0, 0.0, 0.0, 0.0, 0.0, 1.676046561741592E9, 0.0, 2023-02-10 11:29:21.741
50.0, 12588.34601501775, 187500.0, -187500.02235174447, -187500.02235174447, -187500.02235174447, -187500.02235174447, -187500.02235174447, -187500.02235174447, 0.014, 0.042, 0.996, 192.0, 0.0, 0.0, 0.0, 0.0, 0.0, 0.0, 0.0, 0.0, 0.0, 1.676046561741616E9, 0.0, 2023-02-10 11:29:21.741
51.0, 12522.922458997067, 187500.0, -187500.02235174447, -187500.02235174447, -187500.02235174447, -187500.02235174447, -187500.02235174447, -187500.02235174447, 0.014, 0.042, 0.996, 192.0, 0.0, 0.0, 0.0, 0.0, 0.0, 0.0, 0.0, 0.0, 0.0, 1.676046561748547E9, 0.0, 2023-02-10 11:29:21.748
52.0, 11156.82854137761, 187500.0, -187500.02235174447, -187500.02235174447, -187500.02235174447, -187500.02235174447, -187500.02235174447, -187500.02235174447, 0.014, 0.042, 0.996, 192.0, 0.0, 0.0, 0.0, 0.0, 0.0, 0.0, 0.0, 0.0, 0.0, 1.676046561748565E9, 0.0, 2023-02-10 11:29:21.748
53.0, 11200.056815154174, 187500.0, -187500.02235174447, -187500.02235174447, -187500.02235174447, -187500.02235174447, -187500.02235174447, -187500.02235174447, 0.014, 0.042, 0.996, 192.0, 0.0, 0.0, 0.0, 0.0, 0.0, 0.0, 0.0, 0.0, 0.0, 1.676046561756092E9, 0.0, 2023-02-10 11:29:21.756
54.0, 11573.599168491266, 187500.0, -187500.02235174447, -187500.02235174447, -187500.02235174447, -187500.02235174447, -187500.02235174447, -187500.02235174447, 0.014, 0.042, 0.996, 192.0, 0.0, 0.0, 0.0, 0.0, 0.0, 0.0, 0.0, 0.0, 0.0, 1.676046561756115E9, 0.0, 2023-02-10 11:29:21.756
55.0, 11681.73690816604, 187500.0, -187500.02235174447, -187500.02235174447, -187500.02235174447, -187500.02235174447, -187500.02235174447, -187500.02235174447, 0.014, 0.042, 0.996, 192.0, 0.0, 0.0, 0.0, 0.0, 0.0, 0.0, 0.0, 0.0, 0.0, 1.676046561764072E9, 0.0, 2023-02-10 11:29:21.764
56.0, 12117.618276788984, 187500.0, -187500.02235174447, -187500.02235174447, -187500.02235174447, -187500.02235174447, -187500.02235174447, -187500.02235174447, 0.014, 0.042, 0.996, 192.0, 0.0, 0.0, 0.0, 0.0, 0.0, 0.0, 0.0, 0.0, 0.0, 1.676046561764098E9, 0.0, 2023-02-10 11:29:21.764
57.0, 12343.683820209959, 187500.0, -187500.02235174447, -187500.02235174447, -187500.02235174447, -187500.02235174447, -187500.02235174447, -187500.02235174447, 0.022, 0.044, 0.996, 192.0, 0.0, 176.0, 1.0, 96.0, 31.0, 32.0, 0.0, 0.0, 0.0, 1.676046561772243E9, 0.0, 2023-02-10 11:29:21.772
58.0, 11467.562492795289, 187500.0, -187500.02235174447, -187500.02235174447, -187500.02235174447, -187500.02235174447, -187500.02235174447, -187500.02235174447, 0.022, 0.044, 0.996, 192.0, 0.0, 0.0, 0.0, 0.0, 0.0, 0.0, 0.0, 0.0, 0.0, 1.676046561772271E9, 0.0, 2023-02-10 11:29:21.772
59.0, 11267.737897364843, 187500.0, -187500.02235174447, -187500.02235174447, -187500.02235174447, -187500.02235174447, -187500.02235174447, -187500.02235174447, 0.022, 0.044, 0.996, 192.0, 0.0, 0.0, 0.0, 0.0, 0.0, 0.0, 0.0, 0.0, 0.0, 1.676046561778856E9, 0.0, 2023-02-10 11:29:21.778
60.0, 11456.185454867536, 187500.0, -187500.02235174447, -187500.02235174447, -187500.02235174447, -187500.02235174447, -187500.02235174447, -187500.02235174447, 0.022, 0.044, 0.996, 192.0, 0.0, 0.0, 0.0, 0.0, 0.0, 0.0, 0.0, 0.0, 0.0, 1.676046561778896E9, 0.0, 2023-02-10 11:29:21.778
61.0, 12213.641370968982, 187500.0, -187500.02235174447, -187500.02235174447, -187500.02235174447, -187500.02235174447, -187500.02235174447, -187500.02235174447, 0.022, 0.044, 0.996, 192.0, 0.0, 0.0, 0.0, 0.0, 0.0, 0.0, 0.0, 0.0, 0.0, 1.676046561785854E9, 0.0, 2023-02-10 11:29:21.785
62.0, 13431.431464127478, 187500.0, -187500.02235174447, -187500.02235174447, -187500.02235174447, -187500.02235174447, -187500.02235174447, -187500.02235174447, 0.022, 0.044, 0.996, 192.0, 0.0, 0.0, 0.0, 0.0, 0.0, 0.0, 0.0, 0.0, 0.0, 1.676046561785876E9, 0.0, 2023-02-10 11:29:21.785
63.0, 11512.042464261349, 187500.0, -187500.02235174447, -187500.02235174447, -187500.02235174447, -187500.02235174447, -187500.02235174447, -187500.02235174447, 0.022, 0.044, 0.996, 192.0, 0.0, 0.0, 0.0, 0.0, 0.0, 0.0, 0.0, 0.0, 0.0, 1.676046561793808E9, 0.0, 2023-02-10 11:29:21.793
64.0, 10856.979889509665, 187500.0, -187500.02235174447, -187500.02235174447, -187500.02235174447, -187500.02235174447, -187500.02235174447, -187500.02235174447, 0.022, 0.044, 0.996, 192.0, 0.0, 0.0, 0.0, 0.0, 0.0, 0.0, 0.0, 0.0, 0.0, 1.676046561801978E9, 0.0, 2023-02-10 11:29:21.801
65.0, 11666.291852747423, 187500.0, -187500.02235174447, -187500.02235174447, -187500.02235174447, -187500.02235174447, -187500.02235174447, -187500.02235174447, 0.022, 0.044, 0.996, 192.0, 0.0, 0.0, 0.0, 0.0, 0.0, 0.0, 0.0, 0.0, 0.0, 1.676046561802005E9, 0.0, 2023-02-10 11:29:21.802
66.0, 11988.402842092853, 187500.0, -187500.02235174447, -187500.02235174447, -187500.02235174447, -187500.02235174447, -187500.02235174447, -187500.02235174447, 0.016, 0.044, 1.0, 192.0, 0.0, 128.0, 1.0, 96.0, 31.0, 64.0, 0.0, 0.0, 0.0, 1.676046561808526E9, 0.0, 2023-02-10 11:29:21.808
67.0, 11964.88880692587, 187500.0, -187500.02235174447, -187500.02235174447, -187500.02235174447, -187500.02235174447, -187500.02235174447, -187500.02235174447, 0.016, 0.044, 1.0, 192.0, 0.0, 0.0, 0.0, 0.0, 0.0, 0.0, 0.0, 0.0, 0.0, 1.676046561808551E9, 0.0, 2023-02-10 11:29:21.808
68.0, 11668.862303359783, 187500.0, -187500.02235174447, -187500.02235174447, -187500.02235174447, -187500.02235174447, -187500.02235174447, -187500.02235174447, 0.016, 0.044, 1.0, 192.0, 0.0, 0.0, 0.0, 0.0, 0.0, 0.0, 0.0, 0.0, 0.0, 1.676046561816316E9, 0.0, 2023-02-10 11:29:21.816
69.0, 11687.302492535413, 187500.0, -187500.02235174447, -187500.02235174447, -187500.02235174447, -187500.02235174447, -187500.02235174447, -187500.02235174447, 0.016, 0.044, 1.0, 192.0, 0.0, 0.0, 0.0, 0.0, 0.0, 0.0, 0.0, 0.0, 0.0, 1.676046561816335E9, 0.0, 2023-02-10 11:29:21.816
70.0, 11962.854798180439, 187500.0, -187500.02235174447, -187500.02235174447, -187500.02235174447, -187500.02235174447, -187500.02235174447, -187500.02235174447, 0.016, 0.044, 1.0, 192.0, 0.0, 0.0, 0.0, 0.0, 0.0, 0.0, 0.0, 0.0, 0.0, 1.676046561824344E9, 0.0, 2023-02-10 11:29:21.824
71.0, 11789.584075162897, 187500.0, -187500.02235174447, -187500.02235174447, -187500.02235174447, -187500.02235174447, -187500.02235174447, -187500.02235174447, 0.016, 0.044, 1.0, 192.0, 0.0, 0.0, 0.0, 0.0, 0.0, 0.0, 0.0, 0.0, 0.0, 1.676046561824364E9, 0.0, 2023-02-10 11:29:21.824
72.0, 11512.020112516895, 187500.0, -187500.02235174447, -187500.02235174447, -187500.02235174447, -187500.02235174447, -187500.02235174447, -187500.02235174447, 0.016, 0.044, 1.0, 192.0, 0.0, 0.0, 0.0, 0.0, 0.0, 0.0, 0.0, 0.0, 0.0, 1.676046561831397E9, 0.0, 2023-02-10 11:29:21.831
73.0, 11734.46467333611, 187500.0, -187500.02235174447, -187500.02235174447, -187500.02235174447, -187500.02235174447, -187500.02235174447, -187500.02235174447, 0.016, 0.044, 1.0, 192.0, 0.0, 0.0, 0.0, 0.0, 0.0, 0.0, 0.0, 0.0, 0.0, 1.676046561831456E9, 0.0, 2023-02-10 11:29:21.831
74.0, 12087.73399445224, 187500.0, -187500.02235174447, -187500.02235174447, -187500.02235174447, -187500.02235174447, -187500.02235174447, -187500.02235174447, 0.016, 0.044, 1.0, 192.0, 0.0, 0.0, 0.0, 0.0, 0.0, 0.0, 0.0, 0.0, 0.0, 1.676046561840529E9, 0.0, 2023-02-10 11:29:21.840
75.0, 11896.827745059461, 187500.0, -187500.02235174447, -187500.02235174447, -187500.02235174447, -187500.02235174447, -187500.02235174447, -187500.02235174447, 0.016, 0.044, 1.0, 192.0, 0.0, 0.0, 0.0, 0.0, 0.0, 0.0, 0.0, 0.0, 0.0, 1.676046561840549E9, 0.0, 2023-02-10 11:29:21.840
76.0, 11589.044223909883, 187500.0, -187500.02235174447, -187500.02235174447, -187500.02235174447, -187500.02235174447, -187500.02235174447, -187500.02235174447, 0.016, 0.044, 0.998, 192.0, 0.0, 128.0, 1.0, 96.0, 31.0, 48.0, 0.0, 0.0, 0.0, 1.676046561847073E9, 0.0, 2023-02-10 11:29:21.847
77.0, 11858.516855063064, 187500.0, -187500.02235174447, -187500.02235174447, -187500.02235174447, -187500.02235174447, -187500.02235174447, -187500.02235174447, 0.016, 0.044, 0.998, 192.0, 0.0, 0.0, 0.0, 0.0, 0.0, 0.0, 0.0, 0.0, 0.0, 1.676046561847096E9, 0.0, 2023-02-10 11:29:21.847
78.0, 12476.095554363199, 187500.0, -187500.02235174447, -187500.02235174447, -187500.02235174447, -187500.02235174447, -187500.02235174447, -187500.02235174447, 0.016, 0.044, 0.998, 192.0, 0.0, 0.0, 0.0, 0.0, 0.0, 0.0, 0.0, 0.0, 0.0, 1.676046561854151E9, 0.0, 2023-02-10 11:29:21.854
79.0, 12298.086261521134, 187500.0, -187500.02235174447, -187500.02235174447, -187500.02235174447, -187500.02235174447, -187500.02235174447, -187500.02235174447, 0.016, 0.044, 0.998, 192.0, 0.0, 0.0, 0.0, 0.0, 0.0, 0.0, 0.0, 0.0, 0.0, 1.676046561860569E9, 0.0, 2023-02-10 11:29:21.860
80.0, 11340.515177311323, 187500.0, -187500.02235174447, -187500.02235174447, -187500.02235174447, -187500.02235174447, -187500.02235174447, -187500.02235174447, 0.016, 0.044, 0.998, 192.0, 0.0, 0.0, 0.0, 0.0, 0.0, 0.0, 0.0, 0.0, 0.0, 1.676046561860589E9, 0.0, 2023-02-10 11:29:21.860
81.0, 11347.444218092469, 187500.0, -187500.02235174447, -187500.02235174447, -187500.02235174447, -187500.02235174447, -187500.02235174447, -187500.02235174447, 0.016, 0.044, 0.998, 192.0, 0.0, 0.0, 0.0, 0.0, 0.0, 0.0, 0.0, 0.0, 0.0, 1.676046561868777E9, 0.0, 2023-02-10 11:29:21.868
82.0, 11750.669688066208, 187500.0, -187500.02235174447, -187500.02235174447, -187500.02235174447, -187500.02235174447, -187500.02235174447, -187500.02235174447, 0.016, 0.044, 0.998, 192.0, 0.0, 0.0, 0.0, 0.0, 0.0, 0.0, 0.0, 0.0, 0.0, 1.676046561868805E9, 0.0, 2023-02-10 11:29:21.868
83.0, 12031.988743780703, 187500.0, -187500.02235174447, -187500.02235174447, -187500.02235174447, -187500.02235174447, -187500.02235174447, -187500.02235174447, 0.016, 0.044, 0.998, 192.0, 0.0, 0.0, 0.0, 0.0, 0.0, 0.0, 0.0, 0.0, 0.0, 1.676046561876639E9, 0.0, 2023-02-10 11:29:21.876
84.0, 11762.13613297178, 187500.0, -187500.02235174447, -187500.02235174447, -187500.02235174447, -187500.02235174447, -187500.02235174447, -187500.02235174447, 0.016, 0.044, 0.998, 192.0, 0.0, 0.0, 0.0, 0.0, 0.0, 0.0, 0.0, 0.0, 0.0, 1.67604656187668E9, 0.0, 2023-02-10 11:29:21.876
85.0, 11608.53494507491, 187500.0, -187500.02235174447, -187500.02235174447, -187500.02235174447, -187500.02235174447, -187500.02235174447, -187500.02235174447, 0.016, 0.044, 0.998, 192.0, 0.0, 0.0, 0.0, 0.0, 0.0, 0.0, 0.0, 0.0, 0.0, 1.676046561883766E9, 0.0, 2023-02-10 11:29:21.883
86.0, 11846.066933401458, 187500.0, -187500.02235174447, -187500.02235174447, -187500.02235174447, -187500.02235174447, -187500.02235174447, -187500.02235174447, 0.014, 0.046, 1.0, 192.0, 0.0, 112.0, 1.0, 112.0, 31.0, 64.0, 0.0, 0.0, 0.0, 1.676046561883793E9, 0.0, 2023-02-10 11:29:21.883
87.0, 12023.986819265703, 187500.0, -187500.02235174447, -187500.02235174447, -187500.02235174447, -187500.02235174447, -187500.02235174447, -187500.02235174447, 0.014, 0.046, 1.0, 192.0, 0.0, 0.0, 0.0, 0.0, 0.0, 0.0, 0.0, 0.0, 0.0, 1.676046561891245E9, 0.0, 2023-02-10 11:29:21.891
88.0, 12095.44534628932, 187500.0, -187500.02235174447, -187500.02235174447, -187500.02235174447, -187500.02235174447, -187500.02235174447, -187500.02235174447, 0.014, 0.046, 1.0, 192.0, 0.0, 0.0, 0.0, 0.0, 0.0, 0.0, 0.0, 0.0, 0.0, 1.676046561891264E9, 0.0, 2023-02-10 11:29:21.891
89.0, 11805.833793381906, 187500.0, -187500.02235174447, -187500.02235174447, -187500.02235174447, -187500.02235174447, -187500.02235174447, -187500.02235174447, 0.014, 0.046, 1.0, 192.0, 0.0, 0.0, 0.0, 0.0, 0.0, 0.0, 0.0, 0.0, 0.0, 1.676046561899405E9, 0.0, 2023-02-10 11:29:21.899
90.0, 12367.242558865853, 187500.0, -187500.02235174447, -187500.02235174447, -187500.02235174447, -187500.02235174447, -187500.02235174447, -187500.02235174447, 0.014, 0.046, 1.0, 192.0, 0.0, 0.0, 0.0, 0.0, 0.0, 0.0, 0.0, 0.0, 0.0, 1.676046561899425E9, 0.0, 2023-02-10 11:29:21.899
91.0, 12914.03328347603, 187500.0, -187500.02235174447, -187500.02235174447, -187500.02235174447, -187500.02235174447, -187500.02235174447, -187500.02235174447, 0.014, 0.046, 1.0, 192.0, 0.0, 0.0, 0.0, 0.0, 0.0, 0.0, 0.0, 0.0, 0.0, 1.676046561907366E9, 0.0, 2023-02-10 11:29:21.907
92.0, 11526.101711523737, 187500.0, -187500.02235174447, -187500.02235174447, -187500.02235174447, -187500.02235174447, -187500.02235174447, -187500.02235174447, 0.014, 0.046, 1.0, 192.0, 0.0, 0.0, 0.0, 0.0, 0.0, 0.0, 0.0, 0.0, 0.0, 1.67604656190739E9, 0.0, 2023-02-10 11:29:21.907
93.0, 11227.594164323113, 187500.0, -187500.02235174447, -187500.02235174447, -187500.02235174447, -187500.02235174447, -187500.02235174447, -187500.02235174447, 0.014, 0.046, 1.0, 192.0, 0.0, 0.0, 0.0, 0.0, 0.0, 0.0, 0.0, 0.0, 0.0, 1.676046561913601E9, 0.0, 2023-02-10 11:29:21.913
94.0, 11876.778230283051, 187500.0, -187500.02235174447, -187500.02235174447, -187500.02235174447, -187500.02235174447, -187500.02235174447, -187500.02235174447, 0.014, 0.046, 1.0, 192.0, 0.0, 0.0, 0.0, 0.0, 0.0, 0.0, 0.0, 0.0, 0.0, 1.676046561921122E9, 0.0, 2023-02-10 11:29:21.921
95.0, 12569.30232874183, 187500.0, -187500.02235174447, -187500.02235174447, -187500.02235174447, -187500.02235174447, -187500.02235174447, -187500.02235174447, 0.014, 0.046, 1.0, 192.0, 0.0, 0.0, 0.0, 0.0, 0.0, 0.0, 0.0, 0.0, 0.0, 1.676046561921153E9, 0.0, 2023-02-10 11:29:21.921
96.0, 12216.99413263728, 187500.0, -187500.02235174447, -187500.02235174447, -187500.02235174447, -187500.02235174447, -187500.02235174447, -187500.02235174447, 0.012, 0.044, 1.002, 192.0, 0.0, 96.0, 1.0, 96.0, 31.0, 80.0, 0.0, 0.0, 0.0, 1.676046561929063E9, 0.0, 2023-02-10 11:29:21.929
97.0, 11380.413041164047, 187500.0, -187500.02235174447, -187500.02235174447, -187500.02235174447, -187500.02235174447, -187500.02235174447, -187500.02235174447, 0.012, 0.044, 1.002, 192.0, 0.0, 0.0, 0.0, 0.0, 0.0, 0.0, 0.0, 0.0, 0.0, 1.676046561929084E9, 0.0, 2023-02-10 11:29:21.929
98.0, 11555.829531649297, 187500.0, -187500.02235174447, -187500.02235174447, -187500.02235174447, -187500.02235174447, -187500.02235174447, -187500.02235174447, 0.012, 0.044, 1.002, 192.0, 0.0, 0.0, 0.0, 0.0, 0.0, 0.0, 0.0, 0.0, 0.0, 1.676046561936282E9, 0.0, 2023-02-10 11:29:21.936
99.0, 12121.574535557573, 187500.0, -187500.02235174447, -187500.02235174447, -187500.02235174447, -187500.02235174447, -187500.02235174447, -187500.02235174447, 0.012, 0.044, 1.002, 192.0, 0.0, 0.0, 0.0, 0.0, 0.0, 0.0, 0.0, 0.0, 0.0, 1.676046561936318E9, 0.0, 2023-02-10 11:29:21.936
100.0, 12320.862689121092, 187500.0, -187500.02235174447, -187500.02235174447, -187500.02235174447, -187500.02235174447, -187500.02235174447, -187500.02235174447, 0.012, 0.044, 1.002, 192.0, 0.0, 0.0, 0.0, 0.0, 0.0, 0.0, 0.0, 0.0, 0.0, 1.676046561943657E9, 0.0, 2023-02-10 11:29:21.943
101.0, 11585.333834330302, 187500.0, -187500.02235174447, -187500.02235174447, -187500.02235174447, -187500.02235174447, -187500.02235174447, -187500.02235174447, 0.012, 0.044, 1.002, 192.0, 0.0, 0.0, 0.0, 0.0, 0.0, 0.0, 0.0, 0.0, 0.0, 1.676046561943678E9, 0.0, 2023-02-10 11:29:21.943
102.0, 11799.95528459016, 187500.0, -187500.02235174447, -187500.02235174447, -187500.02235174447, -187500.02235174447, -187500.02235174447, -187500.02235174447, 0.012, 0.044, 1.002, 192.0, 0.0, 0.0, 0.0, 0.0, 0.0, 0.0, 0.0, 0.0, 0.0, 1.676046561951704E9, 0.0, 2023-02-10 11:29:21.951
103.0, 12323.544898455728, 187500.0, -187500.02235174447, -187500.02235174447, -187500.02235174447, -187500.02235174447, -187500.02235174447, -187500.02235174447, 0.012, 0.044, 1.002, 192.0, 0.0, 0.0, 0.0, 0.0, 0.0, 0.0, 0.0, 0.0, 0.0, 1.676046561951728E9, 0.0, 2023-02-10 11:29:21.951
104.0, 13560.401029634599, 187500.0, -187500.02235174447, -187500.02235174447, -187500.02235174447, -187500.02235174447, -187500.02235174447, -187500.02235174447, 0.012, 0.044, 1.002, 192.0, 0.0, 0.0, 0.0, 0.0, 0.0, 0.0, 0.0, 0.0, 0.0, 1.676046561959675E9, 0.0, 2023-02-10 11:29:21.959
105.0, 12525.604668331704, 187500.0, -187500.02235174447, -187500.02235174447, -187500.02235174447, -187500.02235174447, -187500.02235174447, -187500.02235174447, 0.012, 0.044, 1.002, 192.0, 0.0, 0.0, 0.0, 0.0, 0.0, 0.0, 0.0, 0.0, 0.0, 1.676046561959698E9, 0.0, 2023-02-10 11:29:21.959
106.0, 11004.41199593687, 187500.0, -187500.02235174447, -187500.02235174447, -187500.02235174447, -187500.02235174447, -187500.02235174447, -187500.02235174447, 0.012, 0.042, 1.004, 192.0, 0.0, 96.0, 1.0, 80.0, 31.0, 96.0, 0.0, 0.0, 0.0, 1.676046561966118E9, 0.0, 2023-02-10 11:29:21.966
107.0, 11675.746640652018, 187500.0, -187500.02235174447, -187500.02235174447, -187500.02235174447, -187500.02235174447, -187500.02235174447, -187500.02235174447, 0.012, 0.042, 1.004, 192.0, 0.0, 0.0, 0.0, 0.0, 0.0, 0.0, 0.0, 0.0, 0.0, 1.676046561966137E9, 0.0, 2023-02-10 11:29:21.966
108.0, 12044.706886375772, 187500.0, -187500.02235174447, -187500.02235174447, -187500.02235174447, -187500.02235174447, -187500.02235174447, -187500.02235174447, 0.012, 0.042, 1.004, 192.0, 0.0, 0.0, 0.0, 0.0, 0.0, 0.0, 0.0, 0.0, 0.0, 1.676046561973184E9, 0.0, 2023-02-10 11:29:21.973
109.0, 12005.52427834562, 187500.0, -187500.02235174447, -187500.02235174447, -187500.02235174447, -187500.02235174447, -187500.02235174447, -187500.02235174447, 0.012, 0.042, 1.004, 192.0, 0.0, 0.0, 0.0, 0.0, 0.0, 0.0, 0.0, 0.0, 0.0, 1.676046561981301E9, 0.0, 2023-02-10 11:29:21.981
110.0, 11413.873602613641, 187500.0, -187500.02235174447, -187500.02235174447, -187500.02235174447, -187500.02235174447, -187500.02235174447, -187500.02235174447, 0.012, 0.042, 1.004, 192.0, 0.0, 0.0, 0.0, 0.0, 0.0, 0.0, 0.0, 0.0, 0.0, 1.676046561981319E9, 0.0, 2023-02-10 11:29:21.981
111.0, 11823.804595923972, 187500.0, -187500.02235174447, -187500.02235174447, -187500.02235174447, -187500.02235174447, -187500.02235174447, -187500.02235174447, 0.012, 0.042, 1.004, 192.0, 0.0, 0.0, 0.0, 0.0, 0.0, 0.0, 0.0, 0.0, 0.0, 1.676046561989224E9, 0.0, 2023-02-10 11:29:21.989
112.0, 12528.420988133072, 187500.0, -187500.02235174447, -187500.02235174447, -187500.02235174447, -187500.02235174447, -187500.02235174447, -187500.02235174447, 0.012, 0.042, 1.004, 192.0, 0.0, 0.0, 0.0, 0.0, 0.0, 0.0, 0.0, 0.0, 0.0, 1.676046561989247E9, 0.0, 2023-02-10 11:29:21.989
113.0, 12642.616050555236, 187500.0, -187500.02235174447, -187500.02235174447, -187500.02235174447, -187500.02235174447, -187500.02235174447, -187500.02235174447, 0.012, 0.042, 1.004, 192.0, 0.0, 0.0, 0.0, 0.0, 0.0, 0.0, 0.0, 0.0, 0.0, 1.676046561995765E9, 0.0, 2023-02-10 11:29:21.995
114.0, 11952.505940497631, 187500.0, -187500.02235174447, -187500.02235174447, -187500.02235174447, -187500.02235174447, -187500.02235174447, -187500.02235174447, 0.012, 0.042, 1.004, 192.0, 0.0, 0.0, 0.0, 0.0, 0.0, 0.0, 0.0, 0.0, 0.0, 1.676046561995781E9, 0.0, 2023-02-10 11:29:21.995
115.0, 11516.401054430135, 187500.0, -187500.02235174447, -187500.02235174447, -187500.02235174447, -187500.02235174447, -187500.02235174447, -187500.02235174447, 0.01, 0.044, 1.002, 192.0, 0.0, 80.0, 1.0, 96.0, 31.0, 80.0, 0.0, 0.0, 0.0, 1.676046562005328E9, 0.0, 2023-02-10 11:29:22.005
116.0, 12011.715711559738, 187500.0, -187500.02235174447, -187500.02235174447, -187500.02235174447, -187500.02235174447, -187500.02235174447, -187500.02235174447, 0.01, 0.044, 1.002, 192.0, 0.0, 0.0, 0.0, 0.0, 0.0, 0.0, 0.0, 0.0, 0.0, 1.676046562005466E9, 0.0, 2023-02-10 11:29:22.005
117.0, 12147.502559125729, 187500.0, -187500.02235174447, -187500.02235174447, -187500.02235174447, -187500.02235174447, -187500.02235174447, -187500.02235174447, 0.01, 0.044, 1.002, 192.0, 0.0, 0.0, 0.0, 0.0, 0.0, 0.0, 0.0, 0.0, 0.0, 1.676046562011939E9, 0.0, 2023-02-10 11:29:22.011
118.0, 11646.778779837941, 187500.0, -187500.02235174447, -187500.02235174447, -187500.02235174447, -187500.02235174447, -187500.02235174447, -187500.02235174447, 0.01, 0.044, 1.002, 192.0, 0.0, 0.0, 0.0, 0.0, 0.0, 0.0, 0.0, 0.0, 0.0, 1.676046562011967E9, 0.0, 2023-02-10 11:29:22.011
119.0, 11831.225375083135, 187500.0, -187500.02235174447, -187500.02235174447, -187500.02235174447, -187500.02235174447, -187500.02235174447, -187500.02235174447, 0.01, 0.044, 1.002, 192.0, 0.0, 0.0, 0.0, 0.0, 0.0, 0.0, 0.0, 0.0, 0.0, 1.676046562019057E9, 0.0, 2023-02-10 11:29:22.019
120.0, 12124.100282681024, 187500.0, -187500.02235174447, -187500.02235174447, -187500.02235174447, -187500.02235174447, -187500.02235174447, -187500.02235174447, 0.01, 0.044, 1.002, 192.0, 0.0, 0.0, 0.0, 0.0, 0.0, 0.0, 0.0, 0.0, 0.0, 1.676046562019082E9, 0.0, 2023-02-10 11:29:22.019
121.0, 12101.212096358788, 187500.0, -187500.02235174447, -187500.02235174447, -187500.02235174447, -187500.02235174447, -187500.02235174447, -187500.02235174447, 0.01, 0.044, 1.002, 192.0, 0.0, 0.0, 0.0, 0.0, 0.0, 0.0, 0.0, 0.0, 0.0, 1.676046562026558E9, 0.0, 2023-02-10 11:29:22.026
122.0, 11922.219326760689, 187500.0, -187500.02235174447, -187500.02235174447, -187500.02235174447, -187500.02235174447, -187500.02235174447, -187500.02235174447, 0.01, 0.044, 1.002, 192.0, 0.0, 0.0, 0.0, 0.0, 0.0, 0.0, 0.0, 0.0, 0.0, 1.67604656202658E9, 0.0, 2023-02-10 11:29:22.026
123.0, 11969.828542450494, 187500.0, -187500.02235174447, -187500.02235174447, -187500.02235174447, -187500.02235174447, -187500.02235174447, -187500.02235174447, 0.01, 0.044, 1.002, 192.0, 0.0, 0.0, 0.0, 0.0, 0.0, 0.0, 0.0, 0.0, 0.0, 1.676046562033523E9, 0.0, 2023-02-10 11:29:22.033
124.0, 11819.96009587766, 187500.0, -187500.02235174447, -187500.02235174447, -187500.02235174447, -187500.02235174447, -187500.02235174447, -187500.02235174447, 0.01, 0.044, 1.002, 192.0, 0.0, 0.0, 0.0, 0.0, 0.0, 0.0, 0.0, 0.0, 0.0, 1.676046562033542E9, 0.0, 2023-02-10 11:29:22.033
125.0, 11966.475780782197, 187500.0, -187500.02235174447, -187500.02235174447, -187500.02235174447, -187500.02235174447, -187500.02235174447, -187500.02235174447, 0.018000000000000002, 0.042, 1.004, 192.0, 0.0, 144.0, 1.0, 80.0, 31.0, 96.0, 0.0, 0.0, 0.0, 1.676046562041708E9, 0.0, 2023-02-10 11:29:22.041
126.0, 11818.015494110048, 187500.0, -187500.02235174447, -187500.02235174447, -187500.02235174447, -187500.02235174447, -187500.02235174447, -187500.02235174447, 0.018000000000000002, 0.042, 1.004, 192.0, 0.0, 0.0, 0.0, 0.0, 0.0, 0.0, 0.0, 0.0, 0.0, 1.676046562048729E9, 0.0, 2023-02-10 11:29:22.048
127.0, 11873.82780001495, 187500.0, -187500.02235174447, -187500.02235174447, -187500.02235174447, -187500.02235174447, -187500.02235174447, -187500.02235174447, 0.018000000000000002, 0.042, 1.004, 192.0, 0.0, 0.0, 0.0, 0.0, 0.0, 0.0, 0.0, 0.0, 0.0, 1.676046562048752E9, 0.0, 2023-02-10 11:29:22.048
128.0, 12485.639749245614, 187500.0, -187500.02235174447, -187500.02235174447, -187500.02235174447, -187500.02235174447, -187500.02235174447, -187500.02235174447, 0.018000000000000002, 0.042, 1.004, 192.0, 0.0, 0.0, 0.0, 0.0, 0.0, 0.0, 0.0, 0.0, 0.0, 1.676046562056291E9, 0.0, 2023-02-10 11:29:22.056
129.0, 12547.039991264342, 187500.0, -187500.02235174447, -187500.02235174447, -187500.02235174447, -187500.02235174447, -187500.02235174447, -187500.02235174447, 0.018000000000000002, 0.042, 1.004, 192.0, 0.0, 0.0, 0.0, 0.0, 0.0, 0.0, 0.0, 0.0, 0.0, 1.676046562056317E9, 0.0, 2023-02-10 11:29:22.056
130.0, 11721.634772018764, 187500.0, -187500.02235174447, -187500.02235174447, -187500.02235174447, -187500.02235174447, -187500.02235174447, -187500.02235174447, 0.018000000000000002, 0.042, 1.004, 192.0, 0.0, 0.0, 0.0, 0.0, 0.0, 0.0, 0.0, 0.0, 0.0, 1.676046562064177E9, 0.0, 2023-02-10 11:29:22.064
131.0, 11539.71392389702, 187500.0, -187500.02235174447, -187500.02235174447, -187500.02235174447, -187500.02235174447, -187500.02235174447, -187500.02235174447, 0.018000000000000002, 0.042, 1.004, 192.0, 0.0, 0.0, 0.0, 0.0, 0.0, 0.0, 0.0, 0.0, 0.0, 1.676046562064291E9, 0.0, 2023-02-10 11:29:22.064
132.0, 11906.59545738643, 187500.0, -187500.02235174447, -187500.02235174447, -187500.02235174447, -187500.02235174447, -187500.02235174447, -187500.02235174447, 0.018000000000000002, 0.042, 1.004, 192.0, 0.0, 0.0, 0.0, 0.0, 0.0, 0.0, 0.0, 0.0, 0.0, 1.676046562071191E9, 0.0, 2023-02-10 11:29:22.071
133.0, 12011.939229004292, 187500.0, -187500.02235174447, -187500.02235174447, -187500.02235174447, -187500.02235174447, -187500.02235174447, -187500.02235174447, 0.018000000000000002, 0.042, 1.004, 192.0, 0.0, 0.0, 0.0, 0.0, 0.0, 0.0, 0.0, 0.0, 0.0, 1.676046562071211E9, 0.0, 2023-02-10 11:29:22.071
134.0, 11930.735341398162, 187500.0, -187500.02235174447, -187500.02235174447, -187500.02235174447, -187500.02235174447, -187500.02235174447, -187500.02235174447, 0.018000000000000002, 0.042, 1.004, 192.0, 0.0, 0.0, 0.0, 0.0, 0.0, 0.0, 0.0, 0.0, 0.0, 1.676046562078703E9, 0.0, 2023-02-10 11:29:22.078
135.0, 12112.097395908522, 187500.0, -187500.02235174447, -187500.02235174447, -187500.02235174447, -187500.02235174447, -187500.02235174447, -187500.02235174447, 0.022, 0.042, 0.994, 192.0, 0.0, 176.0, 1.0, 80.0, 31.0, 16.0, 0.0, 0.0, 0.0, 1.67604656207872E9, 0.0, 2023-02-10 11:29:22.078
136.0, 11745.305269396935, 187500.0, -187500.02235174447, -187500.02235174447, -187500.02235174447, -187500.02235174447, -187500.02235174447, -187500.02235174447, 0.022, 0.042, 0.994, 192.0, 0.0, 0.0, 0.0, 0.0, 0.0, 0.0, 0.0, 0.0, 0.0, 1.67604656208672E9, 0.0, 2023-02-10 11:29:22.086
137.0, 11912.384559200354, 187500.0, -187500.02235174447, -187500.02235174447, -187500.02235174447, -187500.02235174447, -187500.02235174447, -187500.02235174447, 0.022, 0.042, 0.994, 192.0, 0.0, 0.0, 0.0, 0.0, 0.0, 0.0, 0.0, 0.0, 0.0, 1.676046562086749E9, 0.0, 2023-02-10 11:29:22.086
138.0, 11829.638401226808, 187500.0, -187500.02235174447, -187500.02235174447, -187500.02235174447, -187500.02235174447, -187500.02235174447, -187500.02235174447, 0.022, 0.042, 0.994, 192.0, 0.0, 0.0, 0.0, 0.0, 0.0, 0.0, 0.0, 0.0, 0.0, 1.67604656209483E9, 0.0, 2023-02-10 11:29:22.094
139.0, 11577.823648193318, 187500.0, -187500.02235174447, -187500.02235174447, -187500.02235174447, -187500.02235174447, -187500.02235174447, -187500.02235174447, 0.022, 0.042, 0.994, 192.0, 0.0, 0.0, 0.0, 0.0, 0.0, 0.0, 0.0, 0.0, 0.0, 1.676046562094852E9, 0.0, 2023-02-10 11:29:22.094
140.0, 12145.222681191288, 187500.0, -187500.02235174447, -187500.02235174447, -187500.02235174447, -187500.02235174447, -187500.02235174447, -187500.02235174447, 0.022, 0.042, 0.994, 192.0, 0.0, 0.0, 0.0, 0.0, 0.0, 0.0, 0.0, 0.0, 0.0, 1.676046562101534E9, 0.0, 2023-02-10 11:29:22.101
141.0, 12737.812130190388, 187500.0, -187500.02235174447, -187500.02235174447, -187500.02235174447, -187500.02235174447, -187500.02235174447, -187500.02235174447, 0.022, 0.042, 0.994, 192.0, 0.0, 0.0, 0.0, 0.0, 0.0, 0.0, 0.0, 0.0, 0.0, 1.676046562108492E9, 0.0, 2023-02-10 11:29:22.108
142.0, 12061.515398206164, 187500.0, -187500.02235174447, -187500.02235174447, -187500.02235174447, -187500.02235174447, -187500.02235174447, -187500.02235174447, 0.022, 0.042, 0.994, 192.0, 0.0, 0.0, 0.0, 0.0, 0.0, 0.0, 0.0, 0.0, 0.0, 1.676046562108513E9, 0.0, 2023-02-10 11:29:22.108
143.0, 11503.459394390511, 187500.0, -187500.02235174447, -187500.02235174447, -187500.02235174447, -187500.02235174447, -187500.02235174447, -187500.02235174447, 0.022, 0.042, 0.994, 192.0, 0.0, 0.0, 0.0, 0.0, 0.0, 0.0, 0.0, 0.0, 0.0, 1.676046562116475E9, 0.0, 2023-02-10 11:29:22.116
144.0, 11531.488481937467, 187500.0, -187500.02235174447, -187500.02235174447, -187500.02235174447, -187500.02235174447, -187500.02235174447, -187500.02235174447, 0.022, 0.042, 0.994, 192.0, 0.0, 0.0, 0.0, 0.0, 0.0, 0.0, 0.0, 0.0, 0.0, 1.676046562116497E9, 0.0, 2023-02-10 11:29:22.116
145.0, 11922.778120372071, 187500.0, -187500.02235174447, -187500.02235174447, -187500.02235174447, -187500.02235174447, -187500.02235174447, -187500.02235174447, 0.02, 0.044, 1.0, 192.0, 0.0, 160.0, 1.0, 96.0, 31.0, 64.0, 0.0, 0.0, 0.0, 1.676046562124589E9, 0.0, 2023-02-10 11:29:22.124
146.0, 12298.823869088159, 187500.0, -187500.02235174447, -187500.02235174447, -187500.02235174447, -187500.02235174447, -187500.02235174447, -187500.02235174447, 0.02, 0.044, 1.0, 192.0, 0.0, 0.0, 0.0, 0.0, 0.0, 0.0, 0.0, 0.0, 0.0, 1.676046562124724E9, 0.0, 2023-02-10 11:29:22.124
147.0, 11584.216247107535, 187500.0, -187500.02235174447, -187500.02235174447, -187500.02235174447, -187500.02235174447, -187500.02235174447, -187500.02235174447, 0.02, 0.044, 1.0, 192.0, 0.0, 0.0, 0.0, 0.0, 0.0, 0.0, 0.0, 0.0, 0.0, 1.676046562131054E9, 0.0, 2023-02-10 11:29:22.131
148.0, 11436.314754046769, 187500.0, -187500.02235174447, -187500.02235174447, -187500.02235174447, -187500.02235174447, -187500.02235174447, -187500.02235174447, 0.02, 0.044, 1.0, 192.0, 0.0, 0.0, 0.0, 0.0, 0.0, 0.0, 0.0, 0.0, 0.0, 1.676046562131073E9, 0.0, 2023-02-10 11:29:22.131
149.0, 12020.52229887513, 187500.0, -187500.02235174447, -187500.02235174447, -187500.02235174447, -187500.02235174447, -187500.02235174447, -187500.02235174447, 0.02, 0.044, 1.0, 192.0, 0.0, 0.0, 0.0, 0.0, 0.0, 0.0, 0.0, 0.0, 0.0, 1.676046562139117E9, 0.0, 2023-02-10 11:29:22.139
150.0, 12596.705567444036, 187500.0, -187500.02235174447, -187500.02235174447, -187500.02235174447, -187500.02235174447, -187500.02235174447, -187500.02235174447, 0.02, 0.044, 1.0, 192.0, 0.0, 0.0, 0.0, 0.0, 0.0, 0.0, 0.0, 0.0, 0.0, 1.676046562139142E9, 0.0, 2023-02-10 11:29:22.139
151.0, 12044.416313697853, 187500.0, -187500.02235174447, -187500.02235174447, -187500.02235174447, -187500.02235174447, -187500.02235174447, -187500.02235174447, 0.02, 0.044, 1.0, 192.0, 0.0, 0.0, 0.0, 0.0, 0.0, 0.0, 0.0, 0.0, 0.0, 1.676046562147036E9, 0.0, 2023-02-10 11:29:22.147
152.0, 11168.317338027637, 187500.0, -187500.02235174447, -187500.02235174447, -187500.02235174447, -187500.02235174447, -187500.02235174447, -187500.02235174447, 0.02, 0.044, 1.0, 192.0, 0.0, 0.0, 0.0, 0.0, 0.0, 0.0, 0.0, 0.0, 0.0, 1.676046562147066E9, 0.0, 2023-02-10 11:29:22.147
153.0, 11843.876462444838, 187500.0, -187500.02235174447, -187500.02235174447, -187500.02235174447, -187500.02235174447, -187500.02235174447, -187500.02235174447, 0.02, 0.044, 1.0, 192.0, 0.0, 0.0, 0.0, 0.0, 0.0, 0.0, 0.0, 0.0, 0.0, 1.676046562154127E9, 0.0, 2023-02-10 11:29:22.154
154.0, 12003.289103900088, 187500.0, -187500.02235174447, -187500.02235174447, -187500.02235174447, -187500.02235174447, -187500.02235174447, -187500.02235174447, 0.02, 0.044, 1.0, 192.0, 0.0, 0.0, 0.0, 0.0, 0.0, 0.0, 0.0, 0.0, 0.0, 1.676046562154156E9, 0.0, 2023-02-10 11:29:22.154
155.0, 11822.687008701207, 187500.0, -187500.02235174447, -187500.02235174447, -187500.02235174447, -187500.02235174447, -187500.02235174447, -187500.02235174447, 0.014, 0.044, 0.996, 192.0, 0.0, 112.0, 1.0, 96.0, 31.0, 32.0, 0.0, 0.0, 0.0, 1.676046562160607E9, 0.0, 2023-02-10 11:29:22.160
156.0, 11810.080624828413, 187500.0, -187500.02235174447, -187500.02235174447, -187500.02235174447, -187500.02235174447, -187500.02235174447, -187500.02235174447, 0.014, 0.044, 0.996, 192.0, 0.0, 0.0, 0.0, 0.0, 0.0, 0.0, 0.0, 0.0, 0.0, 1.676046562168665E9, 0.0, 2023-02-10 11:29:22.168
157.0, 12025.931421033314, 187500.0, -187500.02235174447, -187500.02235174447, -187500.02235174447, -187500.02235174447, -187500.02235174447, -187500.02235174447, 0.014, 0.044, 0.996, 192.0, 0.0, 0.0, 0.0, 0.0, 0.0, 0.0, 0.0, 0.0, 0.0, 1.676046562168687E9, 0.0, 2023-02-10 11:29:22.168
158.0, 11938.446693235242, 187500.0, -187500.02235174447, -187500.02235174447, -187500.02235174447, -187500.02235174447, -187500.02235174447, -187500.02235174447, 0.014, 0.044, 0.996, 192.0, 0.0, 0.0, 0.0, 0.0, 0.0, 0.0, 0.0, 0.0, 0.0, 1.676046562176684E9, 0.0, 2023-02-10 11:29:22.176
159.0, 11975.79645822006, 187500.0, -187500.02235174447, -187500.02235174447, -187500.02235174447, -187500.02235174447, -187500.02235174447, -187500.02235174447, 0.014, 0.044, 0.996, 192.0, 0.0, 0.0, 0.0, 0.0, 0.0, 0.0, 0.0, 0.0, 0.0, 1.676046562176773E9, 0.0, 2023-02-10 11:29:22.176
160.0, 12064.354069751987, 187500.0, -187500.02235174447, -187500.02235174447, -187500.02235174447, -187500.02235174447, -187500.02235174447, -187500.02235174447, 0.014, 0.044, 0.996, 192.0, 0.0, 0.0, 0.0, 0.0, 0.0, 0.0, 0.0, 0.0, 0.0, 1.676046562183684E9, 0.0, 2023-02-10 11:29:22.183
161.0, 11799.888229356793, 187500.0, -187500.02235174447, -187500.02235174447, -187500.02235174447, -187500.02235174447, -187500.02235174447, -187500.02235174447, 0.014, 0.044, 0.996, 192.0, 0.0, 0.0, 0.0, 0.0, 0.0, 0.0, 0.0, 0.0, 0.0, 1.676046562183799E9, 0.0, 2023-02-10 11:29:22.183
162.0, 12055.234558014221, 187500.0, -187500.02235174447, -187500.02235174447, -187500.02235174447, -187500.02235174447, -187500.02235174447, -187500.02235174447, 0.014, 0.044, 0.996, 192.0, 0.0, 0.0, 0.0, 0.0, 0.0, 0.0, 0.0, 0.0, 0.0, 1.676046562191499E9, 0.0, 2023-02-10 11:29:22.191
163.0, 11882.992015241625, 187500.0, -187500.02235174447, -187500.02235174447, -187500.02235174447, -187500.02235174447, -187500.02235174447, -187500.02235174447, 0.014, 0.044, 0.996, 192.0, 0.0, 0.0, 0.0, 0.0, 0.0, 0.0, 0.0, 0.0, 0.0, 1.676046562191525E9, 0.0, 2023-02-10 11:29:22.191
164.0, 11506.32041768079, 187500.0, -187500.02235174447, -187500.02235174447, -187500.02235174447, -187500.02235174447, -187500.02235174447, -187500.02235174447, 0.018000000000000002, 0.04, 0.994, 192.0, 0.0, 144.0, 1.0, 64.0, 31.0, 16.0, 0.0, 0.0, 0.0, 1.676046562199483E9, 0.0, 2023-02-10 11:29:22.199
165.0, 12029.440644912798, 187500.0, -187500.02235174447, -187500.02235174447, -187500.02235174447, -187500.02235174447, -187500.02235174447, -187500.02235174447, 0.018000000000000002, 0.04, 0.994, 192.0, 0.0, 0.0, 0.0, 0.0, 0.0, 0.0, 0.0, 0.0, 0.0, 1.676046562199515E9, 0.0, 2023-02-10 11:29:22.199
166.0, 11815.601505708875, 187500.0, -187500.02235174447, -187500.02235174447, -187500.02235174447, -187500.02235174447, -187500.02235174447, -187500.02235174447, 0.018000000000000002, 0.04, 0.994, 192.0, 0.0, 0.0, 0.0, 0.0, 0.0, 0.0, 0.0, 0.0, 0.0, 1.676046562206506E9, 0.0, 2023-02-10 11:29:22.206
167.0, 11757.978708503093, 187500.0, -187500.02235174447, -187500.02235174447, -187500.02235174447, -187500.02235174447, -187500.02235174447, -187500.02235174447, 0.018000000000000002, 0.04, 0.994, 192.0, 0.0, 0.0, 0.0, 0.0, 0.0, 0.0, 0.0, 0.0, 0.0, 1.676046562206533E9, 0.0, 2023-02-10 11:29:22.206
168.0, 11826.687970958707, 187500.0, -187500.02235174447, -187500.02235174447, -187500.02235174447, -187500.02235174447, -187500.02235174447, -187500.02235174447, 0.018000000000000002, 0.04, 0.994, 192.0, 0.0, 0.0, 0.0, 0.0, 0.0, 0.0, 0.0, 0.0, 0.0, 1.676046562214042E9, 0.0, 2023-02-10 11:29:22.214
169.0, 11623.018875481948, 187500.0, -187500.02235174447, -187500.02235174447, -187500.02235174447, -187500.02235174447, -187500.02235174447, -187500.02235174447, 0.018000000000000002, 0.04, 0.994, 192.0, 0.0, 0.0, 0.0, 0.0, 0.0, 0.0, 0.0, 0.0, 0.0, 1.676046562214065E9, 0.0, 2023-02-10 11:29:22.214
170.0, 11743.003039718038, 187500.0, -187500.02235174447, -187500.02235174447, -187500.02235174447, -187500.02235174447, -187500.02235174447, -187500.02235174447, 0.018000000000000002, 0.04, 0.994, 192.0, 0.0, 0.0, 0.0, 0.0, 0.0, 0.0, 0.0, 0.0, 0.0, 1.676046562221038E9, 0.0, 2023-02-10 11:29:22.221
171.0, 11875.012442471081, 187500.0, -187500.02235174447, -187500.02235174447, -187500.02235174447, -187500.02235174447, -187500.02235174447, -187500.02235174447, 0.018000000000000002, 0.04, 0.994, 192.0, 0.0, 0.0, 0.0, 0.0, 0.0, 0.0, 0.0, 0.0, 0.0, 1.676046562229033E9, 0.0, 2023-02-10 11:29:22.229
172.0, 11587.703119242564, 187500.0, -187500.02235174447, -187500.02235174447, -187500.02235174447, -187500.02235174447, -187500.02235174447, -187500.02235174447, 0.018000000000000002, 0.04, 0.994, 192.0, 0.0, 0.0, 0.0, 0.0, 0.0, 0.0, 0.0, 0.0, 0.0, 1.676046562229054E9, 0.0, 2023-02-10 11:29:22.229
173.0, 11539.065723307816, 187500.0, -187500.02235174447, -187500.02235174447, -187500.02235174447, -187500.02235174447, -187500.02235174447, -187500.02235174447, 0.018000000000000002, 0.04, 0.994, 192.0, 0.0, 0.0, 0.0, 0.0, 0.0, 0.0, 0.0, 0.0, 0.0, 1.676046562236059E9, 0.0, 2023-02-10 11:29:22.236
174.0, 11918.933620325759, 187500.0, -187500.02235174447, -187500.02235174447, -187500.02235174447, -187500.02235174447, -187500.02235174447, -187500.02235174447, 0.016, 0.044, 0.998, 192.0, 0.0, 128.0, 1.0, 96.0, 31.0, 48.0, 0.0, 0.0, 0.0, 1.676046562236092E9, 0.0, 2023-02-10 11:29:22.236
175.0, 12016.141356961889, 187500.0, -187500.02235174447, -187500.02235174447, -187500.02235174447, -187500.02235174447, -187500.02235174447, -187500.02235174447, 0.016, 0.044, 0.998, 192.0, 0.0, 0.0, 0.0, 0.0, 0.0, 0.0, 0.0, 0.0, 0.0, 1.676046562243634E9, 0.0, 2023-02-10 11:29:22.243
176.0, 11845.731657234628, 187500.0, -187500.02235174447, -187500.02235174447, -187500.02235174447, -187500.02235174447, -187500.02235174447, -187500.02235174447, 0.016, 0.044, 0.998, 192.0, 0.0, 0.0, 0.0, 0.0, 0.0, 0.0, 0.0, 0.0, 0.0, 1.676046562243741E9, 0.0, 2023-02-10 11:29:22.243
177.0, 11756.414086391222, 187500.0, -187500.02235174447, -187500.02235174447, -187500.02235174447, -187500.02235174447, -187500.02235174447, -187500.02235174447, 0.016, 0.044, 0.998, 192.0, 0.0, 0.0, 0.0, 0.0, 0.0, 0.0, 0.0, 0.0, 0.0, 1.676046562251734E9, 0.0, 2023-02-10 11:29:22.251
178.0, 12167.194445990855, 187500.0, -187500.02235174447, -187500.02235174447, -187500.02235174447, -187500.02235174447, -187500.02235174447, -187500.02235174447, 0.016, 0.044, 0.998, 192.0, 0.0, 0.0, 0.0, 0.0, 0.0, 0.0, 0.0, 0.0, 0.0, 1.67604656225177E9, 0.0, 2023-02-10 11:29:22.251
179.0, 11783.370290204322, 187500.0, -187500.02235174447, -187500.02235174447, -187500.02235174447, -187500.02235174447, -187500.02235174447, -187500.02235174447, 0.016, 0.044, 0.998, 192.0, 0.0, 0.0, 0.0, 0.0, 0.0, 0.0, 0.0, 0.0, 0.0, 1.676046562259642E9, 0.0, 2023-02-10 11:29:22.259
180.0, 11349.500578582356, 187500.0, -187500.02235174447, -187500.02235174447, -187500.02235174447, -187500.02235174447, -187500.02235174447, -187500.02235174447, 0.016, 0.044, 0.998, 192.0, 0.0, 0.0, 0.0, 0.0, 0.0, 0.0, 0.0, 0.0, 0.0, 1.676046562259664E9, 0.0, 2023-02-10 11:29:22.259
181.0, 11410.654951412076, 187500.0, -187500.02235174447, -187500.02235174447, -187500.02235174447, -187500.02235174447, -187500.02235174447, -187500.02235174447, 0.016, 0.044, 0.998, 192.0, 0.0, 0.0, 0.0, 0.0, 0.0, 0.0, 0.0, 0.0, 0.0, 1.676046562266236E9, 0.0, 2023-02-10 11:29:22.266
182.0, 11878.141686694824, 187500.0, -187500.02235174447, -187500.02235174447, -187500.02235174447, -187500.02235174447, -187500.02235174447, -187500.02235174447, 0.016, 0.044, 0.998, 192.0, 0.0, 0.0, 0.0, 0.0, 0.0, 0.0, 0.0, 0.0, 0.0, 1.676046562266255E9, 0.0, 2023-02-10 11:29:22.266
183.0, 12057.067401059558, 187500.0, -187500.02235174447, -187500.02235174447, -187500.02235174447, -187500.02235174447, -187500.02235174447, -187500.02235174447, 0.016, 0.044, 0.998, 192.0, 0.0, 0.0, 0.0, 0.0, 0.0, 0.0, 0.0, 0.0, 0.0, 1.676046562274391E9, 0.0, 2023-02-10 11:29:22.274
184.0, 11844.01057291157, 187500.0, -187500.02235174447, -187500.02235174447, -187500.02235174447, -187500.02235174447, -187500.02235174447, -187500.02235174447, 0.014, 0.044, 1.008, 192.0, 0.0, 112.0, 1.0, 96.0, 31.0, 128.0, 0.0, 0.0, 0.0, 1.676046562274419E9, 0.0, 2023-02-10 11:29:22.274
185.0, 11679.41232674269, 187500.0, -187500.02235174447, -187500.02235174447, -187500.02235174447, -187500.02235174447, -187500.02235174447, -187500.02235174447, 0.014, 0.044, 1.008, 192.0, 0.0, 0.0, 0.0, 0.0, 0.0, 0.0, 0.0, 0.0, 0.0, 1.676046562281381E9, 0.0, 2023-02-10 11:29:22.281
186.0, 11861.422581842255, 187500.0, -187500.02235174447, -187500.02235174447, -187500.02235174447, -187500.02235174447, -187500.02235174447, -187500.02235174447, 0.014, 0.044, 1.008, 192.0, 0.0, 0.0, 0.0, 0.0, 0.0, 0.0, 0.0, 0.0, 0.0, 1.676046562281412E9, 0.0, 2023-02-10 11:29:22.281
187.0, 11735.984591959072, 187500.0, -187500.02235174447, -187500.02235174447, -187500.02235174447, -187500.02235174447, -187500.02235174447, -187500.02235174447, 0.014, 0.044, 1.008, 192.0, 0.0, 0.0, 0.0, 0.0, 0.0, 0.0, 0.0, 0.0, 0.0, 1.676046562289624E9, 0.0, 2023-02-10 11:29:22.289
188.0, 11537.590508173766, 187500.0, -187500.02235174447, -187500.02235174447, -187500.02235174447, -187500.02235174447, -187500.02235174447, -187500.02235174447, 0.014, 0.044, 1.008, 192.0, 0.0, 0.0, 0.0, 0.0, 0.0, 0.0, 0.0, 0.0, 0.0, 1.676046562295948E9, 0.0, 2023-02-10 11:29:22.295
189.0, 11452.989155410429, 187500.0, -187500.02235174447, -187500.02235174447, -187500.02235174447, -187500.02235174447, -187500.02235174447, -187500.02235174447, 0.014, 0.044, 1.008, 192.0, 0.0, 0.0, 0.0, 0.0, 0.0, 0.0, 0.0, 0.0, 0.0, 1.676046562295969E9, 0.0, 2023-02-10 11:29:22.295
190.0, 12211.160327334444, 187500.0, -187500.02235174447, -187500.02235174447, -187500.02235174447, -187500.02235174447, -187500.02235174447, -187500.02235174447, 0.014, 0.044, 1.008, 192.0, 0.0, 0.0, 0.0, 0.0, 0.0, 0.0, 0.0, 0.0, 0.0, 1.676046562303925E9, 0.0, 2023-02-10 11:29:22.303
191.0, 12161.338288943565, 187500.0, -187500.02235174447, -187500.02235174447, -187500.02235174447, -187500.02235174447, -187500.02235174447, -187500.02235174447, 0.014, 0.044, 1.008, 192.0, 0.0, 0.0, 0.0, 0.0, 0.0, 0.0, 0.0, 0.0, 0.0, 1.676046562304048E9, 0.0, 2023-02-10 11:29:22.304
192.0, 11553.90728162614, 187500.0, -187500.02235174447, -187500.02235174447, -187500.02235174447, -187500.02235174447, -187500.02235174447, -187500.02235174447, 0.014, 0.044, 1.008, 192.0, 0.0, 0.0, 0.0, 0.0, 0.0, 0.0, 0.0, 0.0, 0.0, 1.676046562311988E9, 0.0, 2023-02-10 11:29:22.311
193.0, 11808.426595738722, 187500.0, -187500.02235174447, -187500.02235174447, -187500.02235174447, -187500.02235174447, -187500.02235174447, -187500.02235174447, 0.014, 0.044, 1.008, 192.0, 0.0, 0.0, 0.0, 0.0, 0.0, 0.0, 0.0, 0.0, 0.0, 1.676046562312014E9, 0.0, 2023-02-10 11:29:22.312
194.0, 11605.450404340078, 187500.0, -187500.02235174447, -187500.02235174447, -187500.02235174447, -187500.02235174447, -187500.02235174447, -187500.02235174447, 0.012, 0.04, 1.004, 192.0, 0.0, 96.0, 1.0, 64.0, 31.0, 96.0, 0.0, 0.0, 0.0, 1.676046562319082E9, 0.0, 2023-02-10 11:29:22.319
195.0, 12056.374496981442, 187500.0, -187500.02235174447, -187500.02235174447, -187500.02235174447, -187500.02235174447, -187500.02235174447, -187500.02235174447, 0.012, 0.04, 1.004, 192.0, 0.0, 0.0, 0.0, 0.0, 0.0, 0.0, 0.0, 0.0, 0.0, 1.676046562319114E9, 0.0, 2023-02-10 11:29:22.319
196.0, 12139.83591077756, 187500.0, -187500.02235174447, -187500.02235174447, -187500.02235174447, -187500.02235174447, -187500.02235174447, -187500.02235174447, 0.012, 0.04, 1.004, 192.0, 0.0, 0.0, 0.0, 0.0, 0.0, 0.0, 0.0, 0.0, 0.0, 1.676046562326605E9, 0.0, 2023-02-10 11:29:22.326
197.0, 11580.639967994686, 187500.0, -187500.02235174447, -187500.02235174447, -187500.02235174447, -187500.02235174447, -187500.02235174447, -187500.02235174447, 0.012, 0.04, 1.004, 192.0, 0.0, 0.0, 0.0, 0.0, 0.0, 0.0, 0.0, 0.0, 0.0, 1.676046562326627E9, 0.0, 2023-02-10 11:29:22.326
198.0, 11333.072046407706, 187500.0, -187500.02235174447, -187500.02235174447, -187500.02235174447, -187500.02235174447, -187500.02235174447, -187500.02235174447, 0.012, 0.04, 1.004, 192.0, 0.0, 0.0, 0.0, 0.0, 0.0, 0.0, 0.0, 0.0, 0.0, 1.676046562334548E9, 0.0, 2023-02-10 11:29:22.334
199.0, 11699.305379307913, 187500.0, -187500.02235174447, -187500.02235174447, -187500.02235174447, -187500.02235174447, -187500.02235174447, -187500.02235174447, 0.012, 0.04, 1.004, 192.0, 0.0, 0.0, 0.0, 0.0, 0.0, 0.0, 0.0, 0.0, 0.0, 1.676046562334569E9, 0.0, 2023-02-10 11:29:22.334
200.0, 11864.261253388078, 187500.0, -187500.02235174447, -187500.02235174447, -187500.02235174447, -187500.02235174447, -187500.02235174447, -187500.02235174447, 0.012, 0.04, 1.004, 192.0, 0.0, 0.0, 0.0, 0.0, 0.0, 0.0, 0.0, 0.0, 0.0, 1.67604656234303E9, 0.0, 2023-02-10 11:29:22.343
201.0, 11832.141796605802, 187500.0, -187500.02235174447, -187500.02235174447, -187500.02235174447, -187500.02235174447, -187500.02235174447, -187500.02235174447, 0.012, 0.04, 1.004, 192.0, 0.0, 0.0, 0.0, 0.0, 0.0, 0.0, 0.0, 0.0, 0.0, 1.676046562343061E9, 0.0, 2023-02-10 11:29:22.343
202.0, 11916.743149369138, 187500.0, -187500.02235174447, -187500.02235174447, -187500.02235174447, -187500.02235174447, -187500.02235174447, -187500.02235174447, 0.012, 0.04, 1.004, 192.0, 0.0, 0.0, 0.0, 0.0, 0.0, 0.0, 0.0, 0.0, 0.0, 1.676046562348749E9, 0.0, 2023-02-10 11:29:22.348
203.0, 11947.633260206374, 187500.0, -187500.02235174447, -187500.02235174447, -187500.02235174447, -187500.02235174447, -187500.02235174447, -187500.02235174447, 0.012, 0.04, 1.004, 192.0, 0.0, 0.0, 0.0, 0.0, 0.0, 0.0, 0.0, 0.0, 0.0, 1.676046562356331E9, 0.0, 2023-02-10 11:29:22.356
204.0, 11669.801076626907, 187500.0, -187500.02235174447, -187500.02235174447, -187500.02235174447, -187500.02235174447, -187500.02235174447, -187500.02235174447, 0.01, 0.044, 1.004, 192.0, 0.0, 80.0, 1.0, 96.0, 31.0, 96.0, 0.0, 0.0, 0.0, 1.67604656235636E9, 0.0, 2023-02-10 11:29:22.356
205.0, 11527.264002235413, 187500.0, -187500.02235174447, -187500.02235174447, -187500.02235174447, -187500.02235174447, -187500.02235174447, -187500.02235174447, 0.01, 0.044, 1.004, 192.0, 0.0, 0.0, 0.0, 0.0, 0.0, 0.0, 0.0, 0.0, 0.0, 1.676046562364277E9, 0.0, 2023-02-10 11:29:22.364
206.0, 11486.27090290438, 187500.0, -187500.02235174447, -187500.02235174447, -187500.02235174447, -187500.02235174447, -187500.02235174447, -187500.02235174447, 0.01, 0.044, 1.004, 192.0, 0.0, 0.0, 0.0, 0.0, 0.0, 0.0, 0.0, 0.0, 0.0, 1.676046562364397E9, 0.0, 2023-02-10 11:29:22.364
207.0, 11867.301090634, 187500.0, -187500.02235174447, -187500.02235174447, -187500.02235174447, -187500.02235174447, -187500.02235174447, -187500.02235174447, 0.01, 0.044, 1.004, 192.0, 0.0, 0.0, 0.0, 0.0, 0.0, 0.0, 0.0, 0.0, 0.0, 1.676046562371455E9, 0.0, 2023-02-10 11:29:22.371
208.0, 12323.477843222361, 187500.0, -187500.02235174447, -187500.02235174447, -187500.02235174447, -187500.02235174447, -187500.02235174447, -187500.02235174447, 0.01, 0.044, 1.004, 192.0, 0.0, 0.0, 0.0, 0.0, 0.0, 0.0, 0.0, 0.0, 0.0, 1.676046562371479E9, 0.0, 2023-02-10 11:29:22.371
209.0, 11657.30645147639, 187500.0, -187500.02235174447, -187500.02235174447, -187500.02235174447, -187500.02235174447, -187500.02235174447, -187500.02235174447, 0.01, 0.044, 1.004, 192.0, 0.0, 0.0, 0.0, 0.0, 0.0, 0.0, 0.0, 0.0, 0.0, 1.676046562379478E9, 0.0, 2023-02-10 11:29:22.379
210.0, 11143.216329004328, 187500.0, -187500.02235174447, -187500.02235174447, -187500.02235174447, -187500.02235174447, -187500.02235174447, -187500.02235174447, 0.01, 0.044, 1.004, 192.0, 0.0, 0.0, 0.0, 0.0, 0.0, 0.0, 0.0, 0.0, 0.0, 1.676046562379498E9, 0.0, 2023-02-10 11:29:22.379
211.0, 11506.834507803263, 187500.0, -187500.02235174447, -187500.02235174447, -187500.02235174447, -187500.02235174447, -187500.02235174447, -187500.02235174447, 0.01, 0.044, 1.004, 192.0, 0.0, 0.0, 0.0, 0.0, 0.0, 0.0, 0.0, 0.0, 0.0, 1.676046562386718E9, 0.0, 2023-02-10 11:29:22.386
212.0, 11807.800746893972, 187500.0, -187500.02235174447, -187500.02235174447, -187500.02235174447, -187500.02235174447, -187500.02235174447, -187500.02235174447, 0.01, 0.044, 1.004, 192.0, 0.0, 0.0, 0.0, 0.0, 0.0, 0.0, 0.0, 0.0, 0.0, 1.676046562386739E9, 0.0, 2023-02-10 11:29:22.386
213.0, 11833.952287906683, 187500.0, -187500.02235174447, -187500.02235174447, -187500.02235174447, -187500.02235174447, -187500.02235174447, -187500.02235174447, 0.012, 0.046, 1.0, 192.0, 0.0, 96.0, 1.0, 112.0, 31.0, 64.0, 0.0, 0.0, 0.0, 1.676046562394182E9, 0.0, 2023-02-10 11:29:22.394
214.0, 11567.05010736586, 187500.0, -187500.02235174447, -187500.02235174447, -187500.02235174447, -187500.02235174447, -187500.02235174447, -187500.02235174447, 0.012, 0.046, 1.0, 192.0, 0.0, 0.0, 0.0, 0.0, 0.0, 0.0, 0.0, 0.0, 0.0, 1.676046562394207E9, 0.0, 2023-02-10 11:29:22.394
215.0, 11568.122991099715, 187500.0, -187500.02235174447, -187500.02235174447, -187500.02235174447, -187500.02235174447, -187500.02235174447, -187500.02235174447, 0.012, 0.046, 1.0, 192.0, 0.0, 0.0, 0.0, 0.0, 0.0, 0.0, 0.0, 0.0, 0.0, 1.676046562402246E9, 0.0, 2023-02-10 11:29:22.402
216.0, 12239.859967215058, 187500.0, -187500.02235174447, -187500.02235174447, -187500.02235174447, -187500.02235174447, -187500.02235174447, -187500.02235174447, 0.012, 0.046, 1.0, 192.0, 0.0, 0.0, 0.0, 0.0, 0.0, 0.0, 0.0, 0.0, 0.0, 1.67604656240228E9, 0.0, 2023-02-10 11:29:22.402
217.0, 12481.862304432667, 187500.0, -187500.02235174447, -187500.02235174447, -187500.02235174447, -187500.02235174447, -187500.02235174447, -187500.02235174447, 0.012, 0.046, 1.0, 192.0, 0.0, 0.0, 0.0, 0.0, 0.0, 0.0, 0.0, 0.0, 0.0, 1.676046562409326E9, 0.0, 2023-02-10 11:29:22.409
218.0, 12085.945854895814, 187500.0, -187500.02235174447, -187500.02235174447, -187500.02235174447, -187500.02235174447, -187500.02235174447, -187500.02235174447, 0.012, 0.046, 1.0, 192.0, 0.0, 0.0, 0.0, 0.0, 0.0, 0.0, 0.0, 0.0, 0.0, 1.676046562415876E9, 0.0, 2023-02-10 11:29:22.415
219.0, 11693.002187371516, 187500.0, -187500.02235174447, -187500.02235174447, -187500.02235174447, -187500.02235174447, -187500.02235174447, -187500.02235174447, 0.012, 0.046, 1.0, 192.0, 0.0, 0.0, 0.0, 0.0, 0.0, 0.0, 0.0, 0.0, 0.0, 1.676046562415896E9, 0.0, 2023-02-10 11:29:22.415
220.0, 11045.405095267904, 187500.0, -187500.02235174447, -187500.02235174447, -187500.02235174447, -187500.02235174447, -187500.02235174447, -187500.02235174447, 0.012, 0.046, 1.0, 192.0, 0.0, 0.0, 0.0, 0.0, 0.0, 0.0, 0.0, 0.0, 0.0, 1.676046562423845E9, 0.0, 2023-02-10 11:29:22.423
221.0, 11353.367430373124, 187500.0, -187500.02235174447, -187500.02235174447, -187500.02235174447, -187500.02235174447, -187500.02235174447, -187500.02235174447, 0.012, 0.046, 1.0, 192.0, 0.0, 0.0, 0.0, 0.0, 0.0, 0.0, 0.0, 0.0, 0.0, 1.676046562423999E9, 0.0, 2023-02-10 11:29:22.423
222.0, 11706.972027656082, 187500.0, -187500.02235174447, -187500.02235174447, -187500.02235174447, -187500.02235174447, -187500.02235174447, -187500.02235174447, 0.012, 0.046, 1.0, 192.0, 0.0, 0.0, 0.0, 0.0, 0.0, 0.0, 0.0, 0.0, 0.0, 1.676046562431787E9, 0.0, 2023-02-10 11:29:22.431
223.0, 11876.375898882854, 187500.0, -187500.02235174447, -187500.02235174447, -187500.02235174447, -187500.02235174447, -187500.02235174447, -187500.02235174447, 0.016, 0.044, 1.0, 192.0, 0.0, 128.0, 1.0, 96.0, 31.0, 64.0, 0.0, 0.0, 0.0, 1.676046562431808E9, 0.0, 2023-02-10 11:29:22.431
224.0, 11673.98085284005, 187500.0, -187500.02235174447, -187500.02235174447, -187500.02235174447, -187500.02235174447, -187500.02235174447, -187500.02235174447, 0.016, 0.044, 1.0, 192.0, 0.0, 0.0, 0.0, 0.0, 0.0, 0.0, 0.0, 0.0, 0.0, 1.67604656243885E9, 0.0, 2023-02-10 11:29:22.438
225.0, 11632.741884320008, 187500.0, -187500.02235174447, -187500.02235174447, -187500.02235174447, -187500.02235174447, -187500.02235174447, -187500.02235174447, 0.016, 0.044, 1.0, 192.0, 0.0, 0.0, 0.0, 0.0, 0.0, 0.0, 0.0, 0.0, 0.0, 1.676046562438869E9, 0.0, 2023-02-10 11:29:22.438
226.0, 11420.713236416965, 187500.0, -187500.02235174447, -187500.02235174447, -187500.02235174447, -187500.02235174447, -187500.02235174447, -187500.02235174447, 0.016, 0.044, 1.0, 192.0, 0.0, 0.0, 0.0, 0.0, 0.0, 0.0, 0.0, 0.0, 0.0, 1.676046562446373E9, 0.0, 2023-02-10 11:29:22.446
227.0, 11302.830136159675, 187500.0, -187500.02235174447, -187500.02235174447, -187500.02235174447, -187500.02235174447, -187500.02235174447, -187500.02235174447, 0.016, 0.044, 1.0, 192.0, 0.0, 0.0, 0.0, 0.0, 0.0, 0.0, 0.0, 0.0, 0.0, 1.676046562446389E9, 0.0, 2023-02-10 11:29:22.446
228.0, 12001.635074810396, 187500.0, -187500.02235174447, -187500.02235174447, -187500.02235174447, -187500.02235174447, -187500.02235174447, -187500.02235174447, 0.016, 0.044, 1.0, 192.0, 0.0, 0.0, 0.0, 0.0, 0.0, 0.0, 0.0, 0.0, 0.0, 1.676046562454405E9, 0.0, 2023-02-10 11:29:22.454
229.0, 12272.918197264456, 187500.0, -187500.02235174447, -187500.02235174447, -187500.02235174447, -187500.02235174447, -187500.02235174447, -187500.02235174447, 0.016, 0.044, 1.0, 192.0, 0.0, 0.0, 0.0, 0.0, 0.0, 0.0, 0.0, 0.0, 0.0, 1.676046562454424E9, 0.0, 2023-02-10 11:29:22.454
230.0, 11408.911515344564, 187500.0, -187500.02235174447, -187500.02235174447, -187500.02235174447, -187500.02235174447, -187500.02235174447, -187500.02235174447, 0.016, 0.044, 1.0, 192.0, 0.0, 0.0, 0.0, 0.0, 0.0, 0.0, 0.0, 0.0, 0.0, 1.676046562462395E9, 0.0, 2023-02-10 11:29:22.462
231.0, 11217.133547918029, 187500.0, -187500.02235174447, -187500.02235174447, -187500.02235174447, -187500.02235174447, -187500.02235174447, -187500.02235174447, 0.016, 0.044, 1.0, 192.0, 0.0, 0.0, 0.0, 0.0, 0.0, 0.0, 0.0, 0.0, 0.0, 1.676046562462417E9, 0.0, 2023-02-10 11:29:22.462
232.0, 11318.47635727839, 187500.0, -187500.02235174447, -187500.02235174447, -187500.02235174447, -187500.02235174447, -187500.02235174447, -187500.02235174447, 0.016, 0.044, 1.0, 192.0, 0.0, 0.0, 0.0, 0.0, 0.0, 0.0, 0.0, 0.0, 0.0, 1.676046562468632E9, 0.0, 2023-02-10 11:29:22.468
233.0, 11939.832501391471, 187500.0, -187500.02235174447, -187500.02235174447, -187500.02235174447, -187500.02235174447, -187500.02235174447, -187500.02235174447, 0.018000000000000002, 0.042, 1.0, 192.0, 0.0, 144.0, 1.0, 80.0, 31.0, 64.0, 0.0, 0.0, 0.0, 1.676046562476204E9, 0.0, 2023-02-10 11:29:22.476
234.0, 11961.89367316886, 187500.0, -187500.02235174447, -187500.02235174447, -187500.02235174447, -187500.02235174447, -187500.02235174447, -187500.02235174447, 0.018000000000000002, 0.042, 1.0, 192.0, 0.0, 0.0, 0.0, 0.0, 0.0, 0.0, 0.0, 0.0, 0.0, 1.676046562476238E9, 0.0, 2023-02-10 11:29:22.476
235.0, 11313.178993842483, 187500.0, -187500.02235174447, -187500.02235174447, -187500.02235174447, -187500.02235174447, -187500.02235174447, -187500.02235174447, 0.018000000000000002, 0.042, 1.0, 192.0, 0.0, 0.0, 0.0, 0.0, 0.0, 0.0, 0.0, 0.0, 0.0, 1.676046562484046E9, 0.0, 2023-02-10 11:29:22.484
236.0, 11640.54264313491, 187500.0, -187500.02235174447, -187500.02235174447, -187500.02235174447, -187500.02235174447, -187500.02235174447, -187500.02235174447, 0.018000000000000002, 0.042, 1.0, 192.0, 0.0, 0.0, 0.0, 0.0, 0.0, 0.0, 0.0, 0.0, 0.0, 1.67604656248416E9, 0.0, 2023-02-10 11:29:22.484
237.0, 12295.560514397683, 187500.0, -187500.02235174447, -187500.02235174447, -187500.02235174447, -187500.02235174447, -187500.02235174447, -187500.02235174447, 0.018000000000000002, 0.042, 1.0, 192.0, 0.0, 0.0, 0.0, 0.0, 0.0, 0.0, 0.0, 0.0, 0.0, 1.67604656249228E9, 0.0, 2023-02-10 11:29:22.492
238.0, 11154.526311698713, 187500.0, -187500.02235174447, -187500.02235174447, -187500.02235174447, -187500.02235174447, -187500.02235174447, -187500.02235174447, 0.018000000000000002, 0.042, 1.0, 192.0, 0.0, 0.0, 0.0, 0.0, 0.0, 0.0, 0.0, 0.0, 0.0, 1.67604656249232E9, 0.0, 2023-02-10 11:29:22.492
239.0, 11289.575551697679, 187500.0, -187500.02235174447, -187500.02235174447, -187500.02235174447, -187500.02235174447, -187500.02235174447, -187500.02235174447, 0.018000000000000002, 0.042, 1.0, 192.0, 0.0, 0.0, 0.0, 0.0, 0.0, 0.0, 0.0, 0.0, 0.0, 1.676046562498711E9, 0.0, 2023-02-10 11:29:22.498
240.0, 12225.0854641301, 187500.0, -187500.02235174447, -187500.02235174447, -187500.02235174447, -187500.02235174447, -187500.02235174447, -187500.02235174447, 0.018000000000000002, 0.042, 1.0, 192.0, 0.0, 0.0, 0.0, 0.0, 0.0, 0.0, 0.0, 0.0, 0.0, 1.676046562498734E9, 0.0, 2023-02-10 11:29:22.498
241.0, 11424.960067863472, 187500.0, -187500.02235174447, -187500.02235174447, -187500.02235174447, -187500.02235174447, -187500.02235174447, -187500.02235174447, 0.018000000000000002, 0.042, 1.0, 192.0, 0.0, 0.0, 0.0, 0.0, 0.0, 0.0, 0.0, 0.0, 0.0, 1.676046562506865E9, 0.0, 2023-02-10 11:29:22.506
242.0, 10842.473607358172, 187500.0, -187500.02235174447, -187500.02235174447, -187500.02235174447, -187500.02235174447, -187500.02235174447, -187500.02235174447, 0.018000000000000002, 0.042, 1.0, 192.0, 0.0, 0.0, 0.0, 0.0, 0.0, 0.0, 0.0, 0.0, 0.0, 1.676046562506902E9, 0.0, 2023-02-10 11:29:22.506
243.0, 10890.686320148268, 187500.0, -187500.02235174447, -187500.02235174447, -187500.02235174447, -187500.02235174447, -187500.02235174447, -187500.02235174447, 0.018000000000000002, 0.042, 0.998, 192.0, 0.0, 144.0, 1.0, 80.0, 31.0, 48.0, 0.0, 0.0, 0.0, 1.676046562514754E9, 0.0, 2023-02-10 11:29:22.514
244.0, 11152.894634353475, 187500.0, -187500.02235174447, -187500.02235174447, -187500.02235174447, -187500.02235174447, -187500.02235174447, -187500.02235174447, 0.018000000000000002, 0.042, 0.998, 192.0, 0.0, 0.0, 0.0, 0.0, 0.0, 0.0, 0.0, 0.0, 0.0, 1.676046562514776E9, 0.0, 2023-02-10 11:29:22.514
245.0, 11373.998090505373, 187500.0, -187500.02235174447, -187500.02235174447, -187500.02235174447, -187500.02235174447, -187500.02235174447, -187500.02235174447, 0.018000000000000002, 0.042, 0.998, 192.0, 0.0, 0.0, 0.0, 0.0, 0.0, 0.0, 0.0, 0.0, 0.0, 1.676046562521899E9, 0.0, 2023-02-10 11:29:22.521
246.0, 11537.836377362773, 187500.0, -187500.02235174447, -187500.02235174447, -187500.02235174447, -187500.02235174447, -187500.02235174447, -187500.02235174447, 0.018000000000000002, 0.042, 0.998, 192.0, 0.0, 0.0, 0.0, 0.0, 0.0, 0.0, 0.0, 0.0, 0.0, 1.676046562521923E9, 0.0, 2023-02-10 11:29:22.521
247.0, 11149.564224429634, 187500.0, -187500.02235174447, -187500.02235174447, -187500.02235174447, -187500.02235174447, -187500.02235174447, -187500.02235174447, 0.018000000000000002, 0.042, 0.998, 192.0, 0.0, 0.0, 0.0, 0.0, 0.0, 0.0, 0.0, 0.0, 0.0, 1.676046562528402E9, 0.0, 2023-02-10 11:29:22.528
248.0, 10883.332596222472, 187500.0, -187500.02235174447, -187500.02235174447, -187500.02235174447, -187500.02235174447, -187500.02235174447, -187500.02235174447, 0.018000000000000002, 0.042, 0.998, 192.0, 0.0, 0.0, 0.0, 0.0, 0.0, 0.0, 0.0, 0.0, 0.0, 1.676046562528423E9, 0.0, 2023-02-10 11:29:22.528
249.0, 11267.022641542273, 187500.0, -187500.02235174447, -187500.02235174447, -187500.02235174447, -187500.02235174447, -187500.02235174447, -187500.02235174447, 0.018000000000000002, 0.042, 0.998, 192.0, 0.0, 0.0, 0.0, 0.0, 0.0, 0.0, 0.0, 0.0, 0.0, 1.676046562536347E9, 0.0, 2023-02-10 11:29:22.536
250.0, 11576.795467948374, 187500.0, -187500.02235174447, -187500.02235174447, -187500.02235174447, -187500.02235174447, -187500.02235174447, -187500.02235174447, 0.018000000000000002, 0.042, 0.998, 192.0, 0.0, 0.0, 0.0, 0.0, 0.0, 0.0, 0.0, 0.0, 0.0, 1.676046562544283E9, 0.0, 2023-02-10 11:29:22.544
251.0, 11431.822053411253, 187500.0, -187500.02235174447, -187500.02235174447, -187500.02235174447, -187500.02235174447, -187500.02235174447, -187500.02235174447, 0.018000000000000002, 0.042, 0.998, 192.0, 0.0, 0.0, 0.0, 0.0, 0.0, 0.0, 0.0, 0.0, 0.0, 1.676046562544387E9, 0.0, 2023-02-10 11:29:22.544
252.0, 10949.694925510279, 187500.0, -187500.02235174447, -187500.02235174447, -187500.02235174447, -187500.02235174447, -187500.02235174447, -187500.02235174447, 0.018000000000000002, 0.042, 0.998, 192.0, 0.0, 0.0, 0.0, 0.0, 0.0, 0.0, 0.0, 0.0, 0.0, 1.676046562551386E9, 0.0, 2023-02-10 11:29:22.551
253.0, 11457.168931623572, 187500.0, -187500.02235174447, -187500.02235174447, -187500.02235174447, -187500.02235174447, -187500.02235174447, -187500.02235174447, 0.014, 0.042, 0.998, 192.0, 0.0, 112.0, 1.0, 80.0, 31.0, 48.0, 0.0, 0.0, 0.0, 1.676046562551402E9, 0.0, 2023-02-10 11:29:22.551
254.0, 12098.239314346232, 187500.0, -187500.02235174447, -187500.02235174447, -187500.02235174447, -187500.02235174447, -187500.02235174447, -187500.02235174447, 0.014, 0.042, 0.998, 192.0, 0.0, 0.0, 0.0, 0.0, 0.0, 0.0, 0.0, 0.0, 0.0, 1.676046562558941E9, 0.0, 2023-02-10 11:29:22.558
255.0, 11245.810836054186, 187500.0, -187500.02235174447, -187500.02235174447, -187500.02235174447, -187500.02235174447, -187500.02235174447, -187500.02235174447, 0.014, 0.042, 0.998, 192.0, 0.0, 0.0, 0.0, 0.0, 0.0, 0.0, 0.0, 0.0, 0.0, 1.676046562558957E9, 0.0, 2023-02-10 11:29:22.558
0.0, 11149.58657617409, 187500.0, -187500.02235174447, -187500.02235174447, -187500.02235174447, -187500.02235174447, -187500.02235174447, -187500.02235174447, 0.014, 0.042, 0.998, 192.0, 0.0, 0.0, 0.0, 0.0, 0.0, 0.0, 0.0, 0.0, 0.0, 1.676046562567022E9, 0.0, 2023-02-10 11:29:22.567
1.0, 11124.038532261675, 187500.0, -187500.02235174447, -187500.02235174447, -187500.02235174447, -187500.02235174447, -187500.02235174447, -187500.02235174447, 0.014, 0.042, 0.998, 192.0, 0.0, 0.0, 0.0, 0.0, 0.0, 0.0, 0.0, 0.0, 0.0, 1.676046562567044E9, 0.0, 2023-02-10 11:29:22.567
2.0, 11343.353848857147, 187500.0, -187500.02235174447, -187500.02235174447, -187500.02235174447, -187500.02235174447, -187500.02235174447, -187500.02235174447, 0.014, 0.042, 0.998, 192.0, 0.0, 0.0, 0.0, 0.0, 0.0, 0.0, 0.0, 0.0, 0.0, 1.676046562574085E9, 0.0, 2023-02-10 11:29:22.574
3.0, 11174.26290205275, 187500.0, -187500.02235174447, -187500.02235174447, -187500.02235174447, -187500.02235174447, -187500.02235174447, -187500.02235174447, 0.014, 0.042, 0.998, 192.0, 0.0, 0.0, 0.0, 0.0, 0.0, 0.0, 0.0, 0.0, 0.0, 1.676046562574105E9, 0.0, 2023-02-10 11:29:22.574
4.0, 10816.85850821239, 187500.0, -187500.02235174447, -187500.02235174447, -187500.02235174447, -187500.02235174447, -187500.02235174447, -187500.02235174447, 0.014, 0.042, 0.998, 192.0, 0.0, 0.0, 0.0, 0.0, 0.0, 0.0, 0.0, 0.0, 0.0, 1.676046562581652E9, 0.0, 2023-02-10 11:29:22.581
5.0, 10787.980054376132, 187500.0, -187500.02235174447, -187500.02235174447, -187500.02235174447, -187500.02235174447, -187500.02235174447, -187500.02235174447, 0.014, 0.042, 0.998, 192.0, 0.0, 0.0, 0.0, 0.0, 0.0, 0.0, 0.0, 0.0, 0.0, 1.676046562581675E9, 0.0, 2023-02-10 11:29:22.581
6.0, 11100.39038662796, 187500.0, -187500.02235174447, -187500.02235174447, -187500.02235174447, -187500.02235174447, -187500.02235174447, -187500.02235174447, 0.014, 0.042, 0.998, 192.0, 0.0, 0.0, 0.0, 0.0, 0.0, 0.0, 0.0, 0.0, 0.0, 1.676046562589622E9, 0.0, 2023-02-10 11:29:22.589
7.0, 11152.693468653379, 187500.0, -187500.02235174447, -187500.02235174447, -187500.02235174447, -187500.02235174447, -187500.02235174447, -187500.02235174447, 0.014, 0.044, 1.0, 192.0, 0.0, 112.0, 1.0, 96.0, 31.0, 64.0, 0.0, 0.0, 0.0, 1.676046562589647E9, 0.0, 2023-02-10 11:29:22.589
8.0, 10742.427199176216, 187500.0, -187500.02235174447, -187500.02235174447, -187500.02235174447, -187500.02235174447, -187500.02235174447, -187500.02235174447, 0.014, 0.044, 1.0, 192.0, 0.0, 0.0, 0.0, 0.0, 0.0, 0.0, 0.0, 0.0, 0.0, 1.676046562596637E9, 0.0, 2023-02-10 11:29:22.596
9.0, 10892.787384127067, 187500.0, -187500.02235174447, -187500.02235174447, -187500.02235174447, -187500.02235174447, -187500.02235174447, -187500.02235174447, 0.014, 0.044, 1.0, 192.0, 0.0, 0.0, 0.0, 0.0, 0.0, 0.0, 0.0, 0.0, 0.0, 1.676046562603972E9, 0.0, 2023-02-10 11:29:22.603
10.0, 11151.01708781923, 187500.0, -187500.02235174447, -187500.02235174447, -187500.02235174447, -187500.02235174447, -187500.02235174447, -187500.02235174447, 0.014, 0.044, 1.0, 192.0, 0.0, 0.0, 0.0, 0.0, 0.0, 0.0, 0.0, 0.0, 0.0, 1.676046562604209E9, 0.0, 2023-02-10 11:29:22.604
11.0, 11113.10852922303, 187500.0, -187500.02235174447, -187500.02235174447, -187500.02235174447, -187500.02235174447, -187500.02235174447, -187500.02235174447, 0.014, 0.044, 1.0, 192.0, 0.0, 0.0, 0.0, 0.0, 0.0, 0.0, 0.0, 0.0, 0.0, 1.676046562611328E9, 0.0, 2023-02-10 11:29:22.611
12.0, 11494.362234397202, 187500.0, -187500.02235174447, -187500.02235174447, -187500.02235174447, -187500.02235174447, -187500.02235174447, -187500.02235174447, 0.014, 0.044, 1.0, 192.0, 0.0, 0.0, 0.0, 0.0, 0.0, 0.0, 0.0, 0.0, 0.0, 1.676046562611353E9, 0.0, 2023-02-10 11:29:22.611
13.0, 11761.689098082674, 187500.0, -187500.02235174447, -187500.02235174447, -187500.02235174447, -187500.02235174447, -187500.02235174447, -187500.02235174447, 0.014, 0.044, 1.0, 192.0, 0.0, 0.0, 0.0, 0.0, 0.0, 0.0, 0.0, 0.0, 0.0, 1.676046562619312E9, 0.0, 2023-02-10 11:29:22.619
14.0, 11354.261500151337, 187500.0, -187500.02235174447, -187500.02235174447, -187500.02235174447, -187500.02235174447, -187500.02235174447, -187500.02235174447, 0.014, 0.044, 1.0, 192.0, 0.0, 0.0, 0.0, 0.0, 0.0, 0.0, 0.0, 0.0, 0.0, 1.676046562619334E9, 0.0, 2023-02-10 11:29:22.619
15.0, 10646.940546863145, 187500.0, -187500.02235174447, -187500.02235174447, -187500.02235174447, -187500.02235174447, -187500.02235174447, -187500.02235174447, 0.014, 0.044, 1.0, 192.0, 0.0, 0.0, 0.0, 0.0, 0.0, 0.0, 0.0, 0.0, 0.0, 1.676046562627332E9, 0.0, 2023-02-10 11:29:22.627
16.0, 9962.708945597285, 187500.0, -187500.02235174447, -187500.02235174447, -187500.02235174447, -187500.02235174447, -187500.02235174447, -187500.02235174447, 0.018000000000000002, 0.044, 0.996, 192.0, 0.0, 144.0, 1.0, 96.0, 31.0, 32.0, 0.0, 0.0, 0.0, 1.676046562627355E9, 0.0, 2023-02-10 11:29:22.627
17.0, 10367.767258616359, 187500.0, -187500.02235174447, -187500.02235174447, -187500.02235174447, -187500.02235174447, -187500.02235174447, -187500.02235174447, 0.018000000000000002, 0.044, 0.996, 192.0, 0.0, 0.0, 0.0, 0.0, 0.0, 0.0, 0.0, 0.0, 0.0, 1.676046562633889E9, 0.0, 2023-02-10 11:29:22.633
18.0, 10837.37740962236, 187500.0, -187500.02235174447, -187500.02235174447, -187500.02235174447, -187500.02235174447, -187500.02235174447, -187500.02235174447, 0.018000000000000002, 0.044, 0.996, 192.0, 0.0, 0.0, 0.0, 0.0, 0.0, 0.0, 0.0, 0.0, 0.0, 1.676046562633908E9, 0.0, 2023-02-10 11:29:22.633
19.0, 11198.02280640874, 187500.0, -187500.02235174447, -187500.02235174447, -187500.02235174447, -187500.02235174447, -187500.02235174447, -187500.02235174447, 0.018000000000000002, 0.044, 0.996, 192.0, 0.0, 0.0, 0.0, 0.0, 0.0, 0.0, 0.0, 0.0, 0.0, 1.676046562642425E9, 0.0, 2023-02-10 11:29:22.642
20.0, 10969.856199008966, 187500.0, -187500.02235174447, -187500.02235174447, -187500.02235174447, -187500.02235174447, -187500.02235174447, -187500.02235174447, 0.018000000000000002, 0.044, 0.996, 192.0, 0.0, 0.0, 0.0, 0.0, 0.0, 0.0, 0.0, 0.0, 0.0, 1.676046562642445E9, 0.0, 2023-02-10 11:29:22.642
21.0, 10676.713070477614, 187500.0, -187500.02235174447, -187500.02235174447, -187500.02235174447, -187500.02235174447, -187500.02235174447, -187500.02235174447, 0.018000000000000002, 0.044, 0.996, 192.0, 0.0, 0.0, 0.0, 0.0, 0.0, 0.0, 0.0, 0.0, 0.0, 1.676046562649801E9, 0.0, 2023-02-10 11:29:22.649
22.0, 10876.001224041132, 187500.0, -187500.02235174447, -187500.02235174447, -187500.02235174447, -187500.02235174447, -187500.02235174447, -187500.02235174447, 0.018000000000000002, 0.044, 0.996, 192.0, 0.0, 0.0, 0.0, 0.0, 0.0, 0.0, 0.0, 0.0, 0.0, 1.676046562649819E9, 0.0, 2023-02-10 11:29:22.649
23.0, 10965.36349837345, 187500.0, -187500.02235174447, -187500.02235174447, -187500.02235174447, -187500.02235174447, -187500.02235174447, -187500.02235174447, 0.018000000000000002, 0.044, 0.996, 192.0, 0.0, 0.0, 0.0, 0.0, 0.0, 0.0, 0.0, 0.0, 0.0, 1.676046562657076E9, 0.0, 2023-02-10 11:29:22.657
24.0, 10678.747079223047, 187500.0, -187500.02235174447, -187500.02235174447, -187500.02235174447, -187500.02235174447, -187500.02235174447, -187500.02235174447, 0.018000000000000002, 0.044, 0.996, 192.0, 0.0, 0.0, 0.0, 0.0, 0.0, 0.0, 0.0, 0.0, 0.0, 1.676046562663526E9, 0.0, 2023-02-10 11:29:22.663
25.0, 10760.353298229373, 187500.0, -187500.02235174447, -187500.02235174447, -187500.02235174447, -187500.02235174447, -187500.02235174447, -187500.02235174447, 0.018000000000000002, 0.044, 0.996, 192.0, 0.0, 0.0, 0.0, 0.0, 0.0, 0.0, 0.0, 0.0, 0.0, 1.676046562663641E9, 0.0, 2023-02-10 11:29:22.663
26.0, 11084.922979464887, 187500.0, -187500.02235174447, -187500.02235174447, -187500.02235174447, -187500.02235174447, -187500.02235174447, -187500.02235174447, 0.016, 0.042, 1.004, 192.0, 0.0, 128.0, 1.0, 80.0, 31.0, 96.0, 0.0, 0.0, 0.0, 1.67604656267173E9, 0.0, 2023-02-10 11:29:22.671
27.0, 10916.25671580514, 187500.0, -187500.02235174447, -187500.02235174447, -187500.02235174447, -187500.02235174447, -187500.02235174447, -187500.02235174447, 0.016, 0.042, 1.004, 192.0, 0.0, 0.0, 0.0, 0.0, 0.0, 0.0, 0.0, 0.0, 0.0, 1.676046562671753E9, 0.0, 2023-02-10 11:29:22.671
28.0, 10545.843606691791, 187500.0, -187500.02235174447, -187500.02235174447, -187500.02235174447, -187500.02235174447, -187500.02235174447, -187500.02235174447, 0.016, 0.042, 1.004, 192.0, 0.0, 0.0, 0.0, 0.0, 0.0, 0.0, 0.0, 0.0, 0.0, 1.676046562679603E9, 0.0, 2023-02-10 11:29:22.679
29.0, 10557.488865553007, 187500.0, -187500.02235174447, -187500.02235174447, -187500.02235174447, -187500.02235174447, -187500.02235174447, -187500.02235174447, 0.016, 0.042, 1.004, 192.0, 0.0, 0.0, 0.0, 0.0, 0.0, 0.0, 0.0, 0.0, 0.0, 1.676046562679628E9, 0.0, 2023-02-10 11:29:22.679
30.0, 10809.683598242236, 187500.0, -187500.02235174447, -187500.02235174447, -187500.02235174447, -187500.02235174447, -187500.02235174447, -187500.02235174447, 0.016, 0.042, 1.004, 192.0, 0.0, 0.0, 0.0, 0.0, 0.0, 0.0, 0.0, 0.0, 0.0, 1.676046562686724E9, 0.0, 2023-02-10 11:29:22.686
31.0, 10666.610081983816, 187500.0, -187500.02235174447, -187500.02235174447, -187500.02235174447, -187500.02235174447, -187500.02235174447, -187500.02235174447, 0.016, 0.042, 1.004, 192.0, 0.0, 0.0, 0.0, 0.0, 0.0, 0.0, 0.0, 0.0, 0.0, 1.676046562686749E9, 0.0, 2023-02-10 11:29:22.686
32.0, 10429.726294246471, 187500.0, -187500.02235174447, -187500.02235174447, -187500.02235174447, -187500.02235174447, -187500.02235174447, -187500.02235174447, 0.016, 0.042, 1.004, 192.0, 0.0, 0.0, 0.0, 0.0, 0.0, 0.0, 0.0, 0.0, 0.0, 1.676046562694219E9, 0.0, 2023-02-10 11:29:22.694
33.0, 10481.090603004766, 187500.0, -187500.02235174447, -187500.02235174447, -187500.02235174447, -187500.02235174447, -187500.02235174447, -187500.02235174447, 0.016, 0.042, 1.004, 192.0, 0.0, 0.0, 0.0, 0.0, 0.0, 0.0, 0.0, 0.0, 0.0, 1.676046562694239E9, 0.0, 2023-02-10 11:29:22.694
34.0, 10796.697234713702, 187500.0, -187500.02235174447, -187500.02235174447, -187500.02235174447, -187500.02235174447, -187500.02235174447, -187500.02235174447, 0.016, 0.042, 1.004, 192.0, 0.0, 0.0, 0.0, 0.0, 0.0, 0.0, 0.0, 0.0, 0.0, 1.676046562702277E9, 0.0, 2023-02-10 11:29:22.702
35.0, 11019.007685066186, 187500.0, -187500.02235174447, -187500.02235174447, -187500.02235174447, -187500.02235174447, -187500.02235174447, -187500.02235174447, 0.016, 0.042, 1.004, 192.0, 0.0, 0.0, 0.0, 0.0, 0.0, 0.0, 0.0, 0.0, 0.0, 1.676046562702302E9, 0.0, 2023-02-10 11:29:22.702
36.0, 11030.317667760572, 187500.0, -187500.02235174447, -187500.02235174447, -187500.02235174447, -187500.02235174447, -187500.02235174447, -187500.02235174447, 0.016, 0.04, 1.002, 192.0, 0.0, 128.0, 1.0, 64.0, 31.0, 80.0, 0.0, 0.0, 0.0, 1.67604656271016E9, 0.0, 2023-02-10 11:29:22.710
37.0, 10770.769211145545, 187500.0, -187500.02235174447, -187500.02235174447, -187500.02235174447, -187500.02235174447, -187500.02235174447, -187500.02235174447, 0.016, 0.04, 1.002, 192.0, 0.0, 0.0, 0.0, 0.0, 0.0, 0.0, 0.0, 0.0, 0.0, 1.676046562710184E9, 0.0, 2023-02-10 11:29:22.710
38.0, 10732.8830042938, 187500.0, -187500.02235174447, -187500.02235174447, -187500.02235174447, -187500.02235174447, -187500.02235174447, -187500.02235174447, 0.016, 0.04, 1.002, 192.0, 0.0, 0.0, 0.0, 0.0, 0.0, 0.0, 0.0, 0.0, 0.0, 1.676046562716325E9, 0.0, 2023-02-10 11:29:22.716
39.0, 10440.87981472967, 187500.0, -187500.02235174447, -187500.02235174447, -187500.02235174447, -187500.02235174447, -187500.02235174447, -187500.02235174447, 0.016, 0.04, 1.002, 192.0, 0.0, 0.0, 0.0, 0.0, 0.0, 0.0, 0.0, 0.0, 0.0, 1.676046562723842E9, 0.0, 2023-02-10 11:29:22.723
40.0, 10343.783836815815, 187500.0, -187500.02235174447, -187500.02235174447, -187500.02235174447, -187500.02235174447, -187500.02235174447, -187500.02235174447, 0.016, 0.04, 1.002, 192.0, 0.0, 0.0, 0.0, 0.0, 0.0, 0.0, 0.0, 0.0, 0.0, 1.67604656272395E9, 0.0, 2023-02-10 11:29:22.723
41.0, 10153.302270567689, 187500.0, -187500.02235174447, -187500.02235174447, -187500.02235174447, -187500.02235174447, -187500.02235174447, -187500.02235174447, 0.016, 0.04, 1.002, 192.0, 0.0, 0.0, 0.0, 0.0, 0.0, 0.0, 0.0, 0.0, 0.0, 1.676046562731795E9, 0.0, 2023-02-10 11:29:22.731
42.0, 10152.072924622647, 187500.0, -187500.02235174447, -187500.02235174447, -187500.02235174447, -187500.02235174447, -187500.02235174447, -187500.02235174447, 0.016, 0.04, 1.002, 192.0, 0.0, 0.0, 0.0, 0.0, 0.0, 0.0, 0.0, 0.0, 0.0, 1.676046562731811E9, 0.0, 2023-02-10 11:29:22.731
43.0, 10571.816333748859, 187500.0, -187500.02235174447, -187500.02235174447, -187500.02235174447, -187500.02235174447, -187500.02235174447, -187500.02235174447, 0.016, 0.04, 1.002, 192.0, 0.0, 0.0, 0.0, 0.0, 0.0, 0.0, 0.0, 0.0, 0.0, 1.676046562738988E9, 0.0, 2023-02-10 11:29:22.738
44.0, 10684.35736708133, 187500.0, -187500.02235174447, -187500.02235174447, -187500.02235174447, -187500.02235174447, -187500.02235174447, -187500.02235174447, 0.016, 0.04, 1.002, 192.0, 0.0, 0.0, 0.0, 0.0, 0.0, 0.0, 0.0, 0.0, 0.0, 1.676046562739009E9, 0.0, 2023-02-10 11:29:22.739
45.0, 10737.353353184862, 187500.0, -187500.02235174447, -187500.02235174447, -187500.02235174447, -187500.02235174447, -187500.02235174447, -187500.02235174447, 0.016, 0.04, 1.002, 192.0, 0.0, 0.0, 0.0, 0.0, 0.0, 0.0, 0.0, 0.0, 0.0, 1.676046562746475E9, 0.0, 2023-02-10 11:29:22.746
46.0, 10487.013815285423, 187500.0, -187500.02235174447, -187500.02235174447, -187500.02235174447, -187500.02235174447, -187500.02235174447, -187500.02235174447, 0.016, 0.042, 1.002, 192.0, 0.0, 128.0, 1.0, 80.0, 31.0, 80.0, 0.0, 0.0, 0.0, 1.676046562746498E9, 0.0, 2023-02-10 11:29:22.746
47.0, 10699.511849822027, 187500.0, -187500.02235174447, -187500.02235174447, -187500.02235174447, -187500.02235174447, -187500.02235174447, -187500.02235174447, 0.016, 0.042, 1.002, 192.0, 0.0, 0.0, 0.0, 0.0, 0.0, 0.0, 0.0, 0.0, 0.0, 1.676046562754761E9, 0.0, 2023-02-10 11:29:22.754
48.0, 10829.755464763102, 187500.0, -187500.02235174447, -187500.02235174447, -187500.02235174447, -187500.02235174447, -187500.02235174447, -187500.02235174447, 0.016, 0.042, 1.002, 192.0, 0.0, 0.0, 0.0, 0.0, 0.0, 0.0, 0.0, 0.0, 0.0, 1.676046562754823E9, 0.0, 2023-02-10 11:29:22.754
49.0, 10296.286379848289, 187500.0, -187500.02235174447, -187500.02235174447, -187500.02235174447, -187500.02235174447, -187500.02235174447, -187500.02235174447, 0.016, 0.042, 1.002, 192.0, 0.0, 0.0, 0.0, 0.0, 0.0, 0.0, 0.0, 0.0, 0.0, 1.676046562762539E9, 0.0, 2023-02-10 11:29:22.762
50.0, 10283.545885508764, 187500.0, -187500.02235174447, -187500.02235174447, -187500.02235174447, -187500.02235174447, -187500.02235174447, -187500.02235174447, 0.016, 0.042, 1.002, 192.0, 0.0, 0.0, 0.0, 0.0, 0.0, 0.0, 0.0, 0.0, 0.0, 1.676046562762571E9, 0.0, 2023-02-10 11:29:22.762
51.0, 10482.766983838914, 187500.0, -187500.02235174447, -187500.02235174447, -187500.02235174447, -187500.02235174447, -187500.02235174447, -187500.02235174447, 0.016, 0.042, 1.002, 192.0, 0.0, 0.0, 0.0, 0.0, 0.0, 0.0, 0.0, 0.0, 0.0, 1.676046562769069E9, 0.0, 2023-02-10 11:29:22.769
52.0, 10841.087799201941, 187500.0, -187500.02235174447, -187500.02235174447, -187500.02235174447, -187500.02235174447, -187500.02235174447, -187500.02235174447, 0.016, 0.042, 1.002, 192.0, 0.0, 0.0, 0.0, 0.0, 0.0, 0.0, 0.0, 0.0, 0.0, 1.676046562769097E9, 0.0, 2023-02-10 11:29:22.769
53.0, 10552.906757939669, 187500.0, -187500.02235174447, -187500.02235174447, -187500.02235174447, -187500.02235174447, -187500.02235174447, -187500.02235174447, 0.016, 0.042, 1.002, 192.0, 0.0, 0.0, 0.0, 0.0, 0.0, 0.0, 0.0, 0.0, 0.0, 1.676046562776145E9, 0.0, 2023-02-10 11:29:22.776
54.0, 9942.368858142956, 187500.0, -187500.02235174447, -187500.02235174447, -187500.02235174447, -187500.02235174447, -187500.02235174447, -187500.02235174447, 0.016, 0.042, 1.002, 192.0, 0.0, 0.0, 0.0, 0.0, 0.0, 0.0, 0.0, 0.0, 0.0, 1.676046562776169E9, 0.0, 2023-02-10 11:29:22.776
55.0, 10130.503491223275, 187500.0, -187500.02235174447, -187500.02235174447, -187500.02235174447, -187500.02235174447, -187500.02235174447, -187500.02235174447, 0.016, 0.042, 1.002, 192.0, 0.0, 0.0, 0.0, 0.0, 0.0, 0.0, 0.0, 0.0, 0.0, 1.676046562784054E9, 0.0, 2023-02-10 11:29:22.784
56.0, 10854.990584253143, 187500.0, -187500.02235174447, -187500.02235174447, -187500.02235174447, -187500.02235174447, -187500.02235174447, -187500.02235174447, 0.018000000000000002, 0.044, 1.002, 192.0, 0.0, 144.0, 1.0, 96.0, 31.0, 80.0, 0.0, 0.0, 0.0, 1.676046562792098E9, 0.0, 2023-02-10 11:29:22.792
57.0, 11166.77506766022, 187500.0, -187500.02235174447, -187500.02235174447, -187500.02235174447, -187500.02235174447, -187500.02235174447, -187500.02235174447, 0.018000000000000002, 0.044, 1.002, 192.0, 0.0, 0.0, 0.0, 0.0, 0.0, 0.0, 0.0, 0.0, 0.0, 1.676046562792126E9, 0.0, 2023-02-10 11:29:22.792
58.0, 10523.760083169947, 187500.0, -187500.02235174447, -187500.02235174447, -187500.02235174447, -187500.02235174447, -187500.02235174447, -187500.02235174447, 0.018000000000000002, 0.044, 1.002, 192.0, 0.0, 0.0, 0.0, 0.0, 0.0, 0.0, 0.0, 0.0, 0.0, 1.676046562798684E9, 0.0, 2023-02-10 11:29:22.798
59.0, 10787.935350887223, 187500.0, -187500.02235174447, -187500.02235174447, -187500.02235174447, -187500.02235174447, -187500.02235174447, -187500.02235174447, 0.018000000000000002, 0.044, 1.002, 192.0, 0.0, 0.0, 0.0, 0.0, 0.0, 0.0, 0.0, 0.0, 0.0, 1.67604656279871E9, 0.0, 2023-02-10 11:29:22.798
60.0, 10554.001993417978, 187500.0, -187500.02235174447, -187500.02235174447, -187500.02235174447, -187500.02235174447, -187500.02235174447, -187500.02235174447, 0.018000000000000002, 0.044, 1.002, 192.0, 0.0, 0.0, 0.0, 0.0, 0.0, 0.0, 0.0, 0.0, 0.0, 1.676046562806631E9, 0.0, 2023-02-10 11:29:22.806
61.0, 9957.098657739003, 187500.0, -187500.02235174447, -187500.02235174447, -187500.02235174447, -187500.02235174447, -187500.02235174447, -187500.02235174447, 0.018000000000000002, 0.044, 1.002, 192.0, 0.0, 0.0, 0.0, 0.0, 0.0, 0.0, 0.0, 0.0, 0.0, 1.67604656280665E9, 0.0, 2023-02-10 11:29:22.806
62.0, 9947.196834945302, 187500.0, -187500.02235174447, -187500.02235174447, -187500.02235174447, -187500.02235174447, -187500.02235174447, -187500.02235174447, 0.018000000000000002, 0.044, 1.002, 192.0, 0.0, 0.0, 0.0, 0.0, 0.0, 0.0, 0.0, 0.0, 0.0, 1.676046562814715E9, 0.0, 2023-02-10 11:29:22.814
63.0, 10073.573598095609, 187500.0, -187500.02235174447, -187500.02235174447, -187500.02235174447, -187500.02235174447, -187500.02235174447, -187500.02235174447, 0.018000000000000002, 0.044, 1.002, 192.0, 0.0, 0.0, 0.0, 0.0, 0.0, 0.0, 0.0, 0.0, 0.0, 1.676046562814736E9, 0.0, 2023-02-10 11:29:22.814
64.0, 10334.574918100228, 187500.0, -187500.02235174447, -187500.02235174447, -187500.02235174447, -187500.02235174447, -187500.02235174447, -187500.02235174447, 0.018000000000000002, 0.044, 1.002, 192.0, 0.0, 0.0, 0.0, 0.0, 0.0, 0.0, 0.0, 0.0, 0.0, 1.676046562821902E9, 0.0, 2023-02-10 11:29:22.821
65.0, 10533.37133328573, 187500.0, -187500.02235174447, -187500.02235174447, -187500.02235174447, -187500.02235174447, -187500.02235174447, -187500.02235174447, 0.018000000000000002, 0.04, 1.002, 192.0, 0.0, 144.0, 1.0, 64.0, 31.0, 80.0, 0.0, 0.0, 0.0, 1.676046562821936E9, 0.0, 2023-02-10 11:29:22.821
66.0, 10420.182099364054, 187500.0, -187500.02235174447, -187500.02235174447, -187500.02235174447, -187500.02235174447, -187500.02235174447, -187500.02235174447, 0.018000000000000002, 0.04, 1.002, 192.0, 0.0, 0.0, 0.0, 0.0, 0.0, 0.0, 0.0, 0.0, 0.0, 1.676046562829353E9, 0.0, 2023-02-10 11:29:22.829
67.0, 10150.24008157731, 187500.0, -187500.02235174447, -187500.02235174447, -187500.02235174447, -187500.02235174447, -187500.02235174447, -187500.02235174447, 0.018000000000000002, 0.04, 1.002, 192.0, 0.0, 0.0, 0.0, 0.0, 0.0, 0.0, 0.0, 0.0, 0.0, 1.676046562829376E9, 0.0, 2023-02-10 11:29:22.829
68.0, 10270.98420512488, 187500.0, -187500.02235174447, -187500.02235174447, -187500.02235174447, -187500.02235174447, -187500.02235174447, -187500.02235174447, 0.018000000000000002, 0.04, 1.002, 192.0, 0.0, 0.0, 0.0, 0.0, 0.0, 0.0, 0.0, 0.0, 0.0, 1.676046562837404E9, 0.0, 2023-02-10 11:29:22.837
69.0, 10655.121285333787, 187500.0, -187500.02235174447, -187500.02235174447, -187500.02235174447, -187500.02235174447, -187500.02235174447, -187500.02235174447, 0.018000000000000002, 0.04, 1.002, 192.0, 0.0, 0.0, 0.0, 0.0, 0.0, 0.0, 0.0, 0.0, 0.0, 1.676046562837428E9, 0.0, 2023-02-10 11:29:22.837
70.0, 10617.257430226497, 187500.0, -187500.02235174447, -187500.02235174447, -187500.02235174447, -187500.02235174447, -187500.02235174447, -187500.02235174447, 0.018000000000000002, 0.04, 1.002, 192.0, 0.0, 0.0, 0.0, 0.0, 0.0, 0.0, 0.0, 0.0, 0.0, 1.676046562844475E9, 0.0, 2023-02-10 11:29:22.844
71.0, 10227.465358670397, 187500.0, -187500.02235174447, -187500.02235174447, -187500.02235174447, -187500.02235174447, -187500.02235174447, -187500.02235174447, 0.018000000000000002, 0.04, 1.002, 192.0, 0.0, 0.0, 0.0, 0.0, 0.0, 0.0, 0.0, 0.0, 0.0, 1.676046562850983E9, 0.0, 2023-02-10 11:29:22.850
72.0, 10463.83505628527, 187500.0, -187500.02235174447, -187500.02235174447, -187500.02235174447, -187500.02235174447, -187500.02235174447, -187500.02235174447, 0.018000000000000002, 0.04, 1.002, 192.0, 0.0, 0.0, 0.0, 0.0, 0.0, 0.0, 0.0, 0.0, 0.0, 1.676046562851011E9, 0.0, 2023-02-10 11:29:22.851
73.0, 10593.788098548424, 187500.0, -187500.02235174447, -187500.02235174447, -187500.02235174447, -187500.02235174447, -187500.02235174447, -187500.02235174447, 0.018000000000000002, 0.04, 1.002, 192.0, 0.0, 0.0, 0.0, 0.0, 0.0, 0.0, 0.0, 0.0, 0.0, 1.676046562859016E9, 0.0, 2023-02-10 11:29:22.859
74.0, 10020.242335825245, 187500.0, -187500.02235174447, -187500.02235174447, -187500.02235174447, -187500.02235174447, -187500.02235174447, -187500.02235174447, 0.018000000000000002, 0.04, 1.002, 192.0, 0.0, 0.0, 0.0, 0.0, 0.0, 0.0, 0.0, 0.0, 0.0, 1.676046562859038E9, 0.0, 2023-02-10 11:29:22.859
75.0, 10001.913905371894, 187500.0, -187500.02235174447, -187500.02235174447, -187500.02235174447, -187500.02235174447, -187500.02235174447, -187500.02235174447, 0.02, 0.04, 1.002, 192.0, 0.0, 160.0, 1.0, 64.0, 31.0, 80.0, 0.0, 0.0, 0.0, 1.67604656286696E9, 0.0, 2023-02-10 11:29:22.866
76.0, 10131.464616234853, 187500.0, -187500.02235174447, -187500.02235174447, -187500.02235174447, -187500.02235174447, -187500.02235174447, -187500.02235174447, 0.02, 0.04, 1.002, 192.0, 0.0, 0.0, 0.0, 0.0, 0.0, 0.0, 0.0, 0.0, 0.0, 1.676046562866981E9, 0.0, 2023-02-10 11:29:22.866
77.0, 10479.190704726065, 187500.0, -187500.02235174447, -187500.02235174447, -187500.02235174447, -187500.02235174447, -187500.02235174447, -187500.02235174447, 0.02, 0.04, 1.002, 192.0, 0.0, 0.0, 0.0, 0.0, 0.0, 0.0, 0.0, 0.0, 0.0, 1.6760465628741E9, 0.0, 2023-02-10 11:29:22.874
78.0, 10700.964713211622, 187500.0, -187500.02235174447, -187500.02235174447, -187500.02235174447, -187500.02235174447, -187500.02235174447, -187500.02235174447, 0.02, 0.04, 1.002, 192.0, 0.0, 0.0, 0.0, 0.0, 0.0, 0.0, 0.0, 0.0, 0.0, 1.676046562874122E9, 0.0, 2023-02-10 11:29:22.874
79.0, 10445.528977576372, 187500.0, -187500.02235174447, -187500.02235174447, -187500.02235174447, -187500.02235174447, -187500.02235174447, -187500.02235174447, 0.02, 0.04, 1.002, 192.0, 0.0, 0.0, 0.0, 0.0, 0.0, 0.0, 0.0, 0.0, 0.0, 1.67604656288167E9, 0.0, 2023-02-10 11:29:22.881
80.0, 9923.705151522774, 187500.0, -187500.02235174447, -187500.02235174447, -187500.02235174447, -187500.02235174447, -187500.02235174447, -187500.02235174447, 0.02, 0.04, 1.002, 192.0, 0.0, 0.0, 0.0, 0.0, 0.0, 0.0, 0.0, 0.0, 0.0, 1.676046562881694E9, 0.0, 2023-02-10 11:29:22.881
81.0, 10208.466375883387, 187500.0, -187500.02235174447, -187500.02235174447, -187500.02235174447, -187500.02235174447, -187500.02235174447, -187500.02235174447, 0.02, 0.04, 1.002, 192.0, 0.0, 0.0, 0.0, 0.0, 0.0, 0.0, 0.0, 0.0, 0.0, 1.676046562889675E9, 0.0, 2023-02-10 11:29:22.889
82.0, 10662.743230193048, 187500.0, -187500.02235174447, -187500.02235174447, -187500.02235174447, -187500.02235174447, -187500.02235174447, -187500.02235174447, 0.02, 0.04, 1.002, 192.0, 0.0, 0.0, 0.0, 0.0, 0.0, 0.0, 0.0, 0.0, 0.0, 1.676046562889699E9, 0.0, 2023-02-10 11:29:22.889
83.0, 10560.841627221302, 187500.0, -187500.02235174447, -187500.02235174447, -187500.02235174447, -187500.02235174447, -187500.02235174447, -187500.02235174447, 0.02, 0.04, 1.002, 192.0, 0.0, 0.0, 0.0, 0.0, 0.0, 0.0, 0.0, 0.0, 0.0, 1.67604656289762E9, 0.0, 2023-02-10 11:29:22.897
84.0, 9906.717825736741, 187500.0, -187500.02235174447, -187500.02235174447, -187500.02235174447, -187500.02235174447, -187500.02235174447, -187500.02235174447, 0.02, 0.04, 1.002, 192.0, 0.0, 0.0, 0.0, 0.0, 0.0, 0.0, 0.0, 0.0, 0.0, 1.676046562897644E9, 0.0, 2023-02-10 11:29:22.897
85.0, 9915.703227007774, 187500.0, -187500.02235174447, -187500.02235174447, -187500.02235174447, -187500.02235174447, -187500.02235174447, -187500.02235174447, 0.016, 0.042, 1.006, 192.0, 0.0, 128.0, 1.0, 80.0, 31.0, 112.0, 0.0, 0.0, 0.0, 1.67604656290385E9, 0.0, 2023-02-10 11:29:22.903
86.0, 10121.406331229966, 187500.0, -187500.02235174447, -187500.02235174447, -187500.02235174447, -187500.02235174447, -187500.02235174447, -187500.02235174447, 0.016, 0.042, 1.006, 192.0, 0.0, 0.0, 0.0, 0.0, 0.0, 0.0, 0.0, 0.0, 0.0, 1.676046562911247E9, 0.0, 2023-02-10 11:29:22.911
87.0, 10122.278049263723, 187500.0, -187500.02235174447, -187500.02235174447, -187500.02235174447, -187500.02235174447, -187500.02235174447, -187500.02235174447, 0.016, 0.042, 1.006, 192.0, 0.0, 0.0, 0.0, 0.0, 0.0, 0.0, 0.0, 0.0, 0.0, 1.67604656291127E9, 0.0, 2023-02-10 11:29:22.911
88.0, 10213.428463152464, 187500.0, -187500.02235174447, -187500.02235174447, -187500.02235174447, -187500.02235174447, -187500.02235174447, -187500.02235174447, 0.016, 0.042, 1.006, 192.0, 0.0, 0.0, 0.0, 0.0, 0.0, 0.0, 0.0, 0.0, 0.0, 1.676046562919292E9, 0.0, 2023-02-10 11:29:22.919
89.0, 10242.396323966543, 187500.0, -187500.02235174447, -187500.02235174447, -187500.02235174447, -187500.02235174447, -187500.02235174447, -187500.02235174447, 0.016, 0.042, 1.006, 192.0, 0.0, 0.0, 0.0, 0.0, 0.0, 0.0, 0.0, 0.0, 0.0, 1.676046562919313E9, 0.0, 2023-02-10 11:29:22.919
90.0, 10287.859772188636, 187500.0, -187500.02235174447, -187500.02235174447, -187500.02235174447, -187500.02235174447, -187500.02235174447, -187500.02235174447, 0.016, 0.042, 1.006, 192.0, 0.0, 0.0, 0.0, 0.0, 0.0, 0.0, 0.0, 0.0, 0.0, 1.676046562927468E9, 0.0, 2023-02-10 11:29:22.927
91.0, 10685.787878726469, 187500.0, -187500.02235174447, -187500.02235174447, -187500.02235174447, -187500.02235174447, -187500.02235174447, -187500.02235174447, 0.016, 0.042, 1.006, 192.0, 0.0, 0.0, 0.0, 0.0, 0.0, 0.0, 0.0, 0.0, 0.0, 1.67604656292749E9, 0.0, 2023-02-10 11:29:22.927
92.0, 10447.764152021904, 187500.0, -187500.02235174447, -187500.02235174447, -187500.02235174447, -187500.02235174447, -187500.02235174447, -187500.02235174447, 0.016, 0.042, 1.006, 192.0, 0.0, 0.0, 0.0, 0.0, 0.0, 0.0, 0.0, 0.0, 0.0, 1.676046562933862E9, 0.0, 2023-02-10 11:29:22.933
93.0, 9983.294902240623, 187500.0, -187500.02235174447, -187500.02235174447, -187500.02235174447, -187500.02235174447, -187500.02235174447, -187500.02235174447, 0.016, 0.042, 1.006, 192.0, 0.0, 0.0, 0.0, 0.0, 0.0, 0.0, 0.0, 0.0, 0.0, 1.676046562933882E9, 0.0, 2023-02-10 11:29:22.933
94.0, 9863.869531615917, 187500.0, -187500.02235174447, -187500.02235174447, -187500.02235174447, -187500.02235174447, -187500.02235174447, -187500.02235174447, 0.016, 0.042, 1.006, 192.0, 0.0, 0.0, 0.0, 0.0, 0.0, 0.0, 0.0, 0.0, 0.0, 1.67604656294196E9, 0.0, 2023-02-10 11:29:22.941
95.0, 10084.90593253445, 187500.0, -187500.02235174447, -187500.02235174447, -187500.02235174447, -187500.02235174447, -187500.02235174447, -187500.02235174447, 0.012, 0.038, 1.002, 192.0, 0.0, 96.0, 1.0, 48.0, 31.0, 80.0, 0.0, 0.0, 0.0, 1.67604656294199E9, 0.0, 2023-02-10 11:29:22.941
96.0, 10009.960533375805, 187500.0, -187500.02235174447, -187500.02235174447, -187500.02235174447, -187500.02235174447, -187500.02235174447, -187500.02235174447, 0.012, 0.038, 1.002, 192.0, 0.0, 0.0, 0.0, 0.0, 0.0, 0.0, 0.0, 0.0, 0.0, 1.676046562949905E9, 0.0, 2023-02-10 11:29:22.949
97.0, 10281.1766005965, 187500.0, -187500.02235174447, -187500.02235174447, -187500.02235174447, -187500.02235174447, -187500.02235174447, -187500.02235174447, 0.012, 0.038, 1.002, 192.0, 0.0, 0.0, 0.0, 0.0, 0.0, 0.0, 0.0, 0.0, 0.0, 1.676046562949928E9, 0.0, 2023-02-10 11:29:22.949
98.0, 11250.348240178615, 187500.0, -187500.02235174447, -187500.02235174447, -187500.02235174447, -187500.02235174447, -187500.02235174447, -187500.02235174447, 0.012, 0.038, 1.002, 192.0, 0.0, 0.0, 0.0, 0.0, 0.0, 0.0, 0.0, 0.0, 0.0, 1.676046562957129E9, 0.0, 2023-02-10 11:29:22.957
99.0, 10498.547315424361, 187500.0, -187500.02235174447, -187500.02235174447, -187500.02235174447, -187500.02235174447, -187500.02235174447, -187500.02235174447, 0.012, 0.038, 1.002, 192.0, 0.0, 0.0, 0.0, 0.0, 0.0, 0.0, 0.0, 0.0, 0.0, 1.676046562957153E9, 0.0, 2023-02-10 11:29:22.957
100.0, 9512.589515756312, 187500.0, -187500.02235174447, -187500.02235174447, -187500.02235174447, -187500.02235174447, -187500.02235174447, -187500.02235174447, 0.012, 0.038, 1.002, 192.0, 0.0, 0.0, 0.0, 0.0, 0.0, 0.0, 0.0, 0.0, 0.0, 1.67604656296369E9, 0.0, 2023-02-10 11:29:22.963
101.0, 9872.13967706438, 187500.0, -187500.02235174447, -187500.02235174447, -187500.02235174447, -187500.02235174447, -187500.02235174447, -187500.02235174447, 0.012, 0.038, 1.002, 192.0, 0.0, 0.0, 0.0, 0.0, 0.0, 0.0, 0.0, 0.0, 0.0, 1.676046562972082E9, 0.0, 2023-02-10 11:29:22.972
102.0, 10136.449055248388, 187500.0, -187500.02235174447, -187500.02235174447, -187500.02235174447, -187500.02235174447, -187500.02235174447, -187500.02235174447, 0.012, 0.038, 1.002, 192.0, 0.0, 0.0, 0.0, 0.0, 0.0, 0.0, 0.0, 0.0, 0.0, 1.676046562972105E9, 0.0, 2023-02-10 11:29:22.972
103.0, 10181.800744748205, 187500.0, -187500.02235174447, -187500.02235174447, -187500.02235174447, -187500.02235174447, -187500.02235174447, -187500.02235174447, 0.012, 0.038, 1.002, 192.0, 0.0, 0.0, 0.0, 0.0, 0.0, 0.0, 0.0, 0.0, 0.0, 1.6760465629796E9, 0.0, 2023-02-10 11:29:22.979
104.0, 9745.494692980612, 187500.0, -187500.02235174447, -187500.02235174447, -187500.02235174447, -187500.02235174447, -187500.02235174447, -187500.02235174447, 0.012, 0.038, 1.002, 192.0, 0.0, 0.0, 0.0, 0.0, 0.0, 0.0, 0.0, 0.0, 0.0, 1.676046562979622E9, 0.0, 2023-02-10 11:29:22.979
105.0, 9942.234747676224, 187500.0, -187500.02235174447, -187500.02235174447, -187500.02235174447, -187500.02235174447, -187500.02235174447, -187500.02235174447, 0.014, 0.04, 1.004, 192.0, 0.0, 112.0, 1.0, 64.0, 31.0, 96.0, 0.0, 0.0, 0.0, 1.676046562986251E9, 0.0, 2023-02-10 11:29:22.986
106.0, 10363.632185892127, 187500.0, -187500.02235174447, -187500.02235174447, -187500.02235174447, -187500.02235174447, -187500.02235174447, -187500.02235174447, 0.014, 0.04, 1.004, 192.0, 0.0, 0.0, 0.0, 0.0, 0.0, 0.0, 0.0, 0.0, 0.0, 1.676046562986279E9, 0.0, 2023-02-10 11:29:22.986
107.0, 10434.554271048817, 187500.0, -187500.02235174447, -187500.02235174447, -187500.02235174447, -187500.02235174447, -187500.02235174447, -187500.02235174447, 0.014, 0.04, 1.004, 192.0, 0.0, 0.0, 0.0, 0.0, 0.0, 0.0, 0.0, 0.0, 0.0, 1.676046562994217E9, 0.0, 2023-02-10 11:29:22.994
108.0, 10315.71004577995, 187500.0, -187500.02235174447, -187500.02235174447, -187500.02235174447, -187500.02235174447, -187500.02235174447, -187500.02235174447, 0.014, 0.04, 1.004, 192.0, 0.0, 0.0, 0.0, 0.0, 0.0, 0.0, 0.0, 0.0, 0.0, 1.676046562994239E9, 0.0, 2023-02-10 11:29:22.994
109.0, 9955.601090860497, 187500.0, -187500.02235174447, -187500.02235174447, -187500.02235174447, -187500.02235174447, -187500.02235174447, -187500.02235174447, 0.014, 0.04, 1.004, 192.0, 0.0, 0.0, 0.0, 0.0, 0.0, 0.0, 0.0, 0.0, 0.0, 1.676046563002095E9, 0.0, 2023-02-10 11:29:23.002
110.0, 10115.751339882772, 187500.0, -187500.02235174447, -187500.02235174447, -187500.02235174447, -187500.02235174447, -187500.02235174447, -187500.02235174447, 0.014, 0.04, 1.004, 192.0, 0.0, 0.0, 0.0, 0.0, 0.0, 0.0, 0.0, 0.0, 0.0, 1.676046563002116E9, 0.0, 2023-02-10 11:29:23.002
111.0, 10399.909067143091, 187500.0, -187500.02235174447, -187500.02235174447, -187500.02235174447, -187500.02235174447, -187500.02235174447, -187500.02235174447, 0.014, 0.04, 1.004, 192.0, 0.0, 0.0, 0.0, 0.0, 0.0, 0.0, 0.0, 0.0, 0.0, 1.676046563009248E9, 0.0, 2023-02-10 11:29:23.009
112.0, 10259.182484052479, 187500.0, -187500.02235174447, -187500.02235174447, -187500.02235174447, -187500.02235174447, -187500.02235174447, -187500.02235174447, 0.014, 0.04, 1.004, 192.0, 0.0, 0.0, 0.0, 0.0, 0.0, 0.0, 0.0, 0.0, 0.0, 1.676046563009267E9, 0.0, 2023-02-10 11:29:23.009
113.0, 9619.363799019313, 187500.0, -187500.02235174447, -187500.02235174447, -187500.02235174447, -187500.02235174447, -187500.02235174447, -187500.02235174447, 0.014, 0.04, 1.004, 192.0, 0.0, 0.0, 0.0, 0.0, 0.0, 0.0, 0.0, 0.0, 0.0, 1.676046563016666E9, 0.0, 2023-02-10 11:29:23.016
114.0, 9893.642055230386, 187500.0, -187500.02235174447, -187500.02235174447, -187500.02235174447, -187500.02235174447, -187500.02235174447, -187500.02235174447, 0.018000000000000002, 0.048, 0.998, 192.0, 0.0, 144.0, 1.0, 128.0, 31.0, 48.0, 0.0, 0.0, 0.0, 1.676046563016686E9, 0.0, 2023-02-10 11:29:23.016
115.0, 10350.981098530425, 187500.0, -187500.02235174447, -187500.02235174447, -187500.02235174447, -187500.02235174447, -187500.02235174447, -187500.02235174447, 0.018000000000000002, 0.048, 0.998, 192.0, 0.0, 0.0, 0.0, 0.0, 0.0, 0.0, 0.0, 0.0, 0.0, 1.676046563023885E9, 0.0, 2023-02-10 11:29:23.023
116.0, 10043.17522563639, 187500.0, -187500.02235174447, -187500.02235174447, -187500.02235174447, -187500.02235174447, -187500.02235174447, -187500.02235174447, 0.018000000000000002, 0.048, 0.998, 192.0, 0.0, 0.0, 0.0, 0.0, 0.0, 0.0, 0.0, 0.0, 0.0, 1.676046563023909E9, 0.0, 2023-02-10 11:29:23.023
117.0, 9734.810559130974, 187500.0, -187500.02235174447, -187500.02235174447, -187500.02235174447, -187500.02235174447, -187500.02235174447, -187500.02235174447, 0.018000000000000002, 0.048, 0.998, 192.0, 0.0, 0.0, 0.0, 0.0, 0.0, 0.0, 0.0, 0.0, 0.0, 1.676046563031814E9, 0.0, 2023-02-10 11:29:23.031
118.0, 9905.734348980708, 187500.0, -187500.02235174447, -187500.02235174447, -187500.02235174447, -187500.02235174447, -187500.02235174447, -187500.02235174447, 0.018000000000000002, 0.048, 0.998, 192.0, 0.0, 0.0, 0.0, 0.0, 0.0, 0.0, 0.0, 0.0, 0.0, 1.676046563038857E9, 0.0, 2023-02-10 11:29:23.038
119.0, 10153.190511845412, 187500.0, -187500.02235174447, -187500.02235174447, -187500.02235174447, -187500.02235174447, -187500.02235174447, -187500.02235174447, 0.018000000000000002, 0.048, 0.998, 192.0, 0.0, 0.0, 0.0, 0.0, 0.0, 0.0, 0.0, 0.0, 0.0, 1.676046563038881E9, 0.0, 2023-02-10 11:29:23.038
120.0, 9985.105393541502, 187500.0, -187500.02235174447, -187500.02235174447, -187500.02235174447, -187500.02235174447, -187500.02235174447, -187500.02235174447, 0.018000000000000002, 0.048, 0.998, 192.0, 0.0, 0.0, 0.0, 0.0, 0.0, 0.0, 0.0, 0.0, 0.0, 1.676046563046652E9, 0.0, 2023-02-10 11:29:23.046
121.0, 9861.433191470289, 187500.0, -187500.02235174447, -187500.02235174447, -187500.02235174447, -187500.02235174447, -187500.02235174447, -187500.02235174447, 0.018000000000000002, 0.048, 0.998, 192.0, 0.0, 0.0, 0.0, 0.0, 0.0, 0.0, 0.0, 0.0, 0.0, 1.676046563046673E9, 0.0, 2023-02-10 11:29:23.046
122.0, 10356.636089877617, 187500.0, -187500.02235174447, -187500.02235174447, -187500.02235174447, -187500.02235174447, -187500.02235174447, -187500.02235174447, 0.018000000000000002, 0.048, 0.998, 192.0, 0.0, 0.0, 0.0, 0.0, 0.0, 0.0, 0.0, 0.0, 0.0, 1.676046563054388E9, 0.0, 2023-02-10 11:29:23.054
123.0, 10913.663913448325, 187500.0, -187500.02235174447, -187500.02235174447, -187500.02235174447, -187500.02235174447, -187500.02235174447, -187500.02235174447, 0.018000000000000002, 0.048, 0.998, 192.0, 0.0, 0.0, 0.0, 0.0, 0.0, 0.0, 0.0, 0.0, 0.0, 1.676046563054412E9, 0.0, 2023-02-10 11:29:23.054
124.0, 10258.064896829712, 187500.0, -187500.02235174447, -187500.02235174447, -187500.02235174447, -187500.02235174447, -187500.02235174447, -187500.02235174447, 0.014, 0.044, 1.0, 192.0, 0.0, 112.0, 1.0, 96.0, 31.0, 64.0, 0.0, 0.0, 0.0, 1.676046563062479E9, 0.0, 2023-02-10 11:29:23.062
125.0, 9521.373751327248, 187500.0, -187500.02235174447, -187500.02235174447, -187500.02235174447, -187500.02235174447, -187500.02235174447, -187500.02235174447, 0.014, 0.044, 1.0, 192.0, 0.0, 0.0, 0.0, 0.0, 0.0, 0.0, 0.0, 0.0, 0.0, 1.676046563062502E9, 0.0, 2023-02-10 11:29:23.062
126.0, 9818.94252526075, 187500.0, -187500.02235174447, -187500.02235174447, -187500.02235174447, -187500.02235174447, -187500.02235174447, -187500.02235174447, 0.014, 0.044, 1.0, 192.0, 0.0, 0.0, 0.0, 0.0, 0.0, 0.0, 0.0, 0.0, 0.0, 1.676046563069092E9, 0.0, 2023-02-10 11:29:23.069
127.0, 10049.143141405957, 187500.0, -187500.02235174447, -187500.02235174447, -187500.02235174447, -187500.02235174447, -187500.02235174447, -187500.02235174447, 0.014, 0.044, 1.0, 192.0, 0.0, 0.0, 0.0, 0.0, 0.0, 0.0, 0.0, 0.0, 0.0, 1.676046563069118E9, 0.0, 2023-02-10 11:29:23.069
128.0, 10011.033417109658, 187500.0, -187500.02235174447, -187500.02235174447, -187500.02235174447, -187500.02235174447, -187500.02235174447, -187500.02235174447, 0.014, 0.044, 1.0, 192.0, 0.0, 0.0, 0.0, 0.0, 0.0, 0.0, 0.0, 0.0, 0.0, 1.676046563077018E9, 0.0, 2023-02-10 11:29:23.077
129.0, 9995.901286113416, 187500.0, -187500.02235174447, -187500.02235174447, -187500.02235174447, -187500.02235174447, -187500.02235174447, -187500.02235174447, 0.014, 0.044, 1.0, 192.0, 0.0, 0.0, 0.0, 0.0, 0.0, 0.0, 0.0, 0.0, 0.0, 1.676046563077042E9, 0.0, 2023-02-10 11:29:23.077
130.0, 10004.886687384449, 187500.0, -187500.02235174447, -187500.02235174447, -187500.02235174447, -187500.02235174447, -187500.02235174447, -187500.02235174447, 0.014, 0.044, 1.0, 192.0, 0.0, 0.0, 0.0, 0.0, 0.0, 0.0, 0.0, 0.0, 0.0, 1.676046563085552E9, 0.0, 2023-02-10 11:29:23.085
131.0, 9976.947006815315, 187500.0, -187500.02235174447, -187500.02235174447, -187500.02235174447, -187500.02235174447, -187500.02235174447, -187500.02235174447, 0.014, 0.044, 1.0, 192.0, 0.0, 0.0, 0.0, 0.0, 0.0, 0.0, 0.0, 0.0, 0.0, 1.676046563085575E9, 0.0, 2023-02-10 11:29:23.085
132.0, 10048.2714233722, 187500.0, -187500.02235174447, -187500.02235174447, -187500.02235174447, -187500.02235174447, -187500.02235174447, -187500.02235174447, 0.014, 0.044, 1.0, 192.0, 0.0, 0.0, 0.0, 0.0, 0.0, 0.0, 0.0, 0.0, 0.0, 1.676046563092046E9, 0.0, 2023-02-10 11:29:23.092
133.0, 9881.57211322452, 187500.0, -187500.02235174447, -187500.02235174447, -187500.02235174447, -187500.02235174447, -187500.02235174447, -187500.02235174447, 0.014, 0.044, 1.0, 192.0, 0.0, 0.0, 0.0, 0.0, 0.0, 0.0, 0.0, 0.0, 0.0, 1.676046563098742E9, 0.0, 2023-02-10 11:29:23.098
134.0, 9987.318216242578, 187500.0, -187500.02235174447, -187500.02235174447, -187500.02235174447, -187500.02235174447, -187500.02235174447, -187500.02235174447, 0.012, 0.046, 0.996, 192.0, 0.0, 96.0, 1.0, 112.0, 31.0, 32.0, 0.0, 0.0, 0.0, 1.676046563098776E9, 0.0, 2023-02-10 11:29:23.098
135.0, 10795.557295746481, 187500.0, -187500.02235174447, -187500.02235174447, -187500.02235174447, -187500.02235174447, -187500.02235174447, -187500.02235174447, 0.012, 0.046, 0.996, 192.0, 0.0, 0.0, 0.0, 0.0, 0.0, 0.0, 0.0, 0.0, 0.0, 1.676046563106762E9, 0.0, 2023-02-10 11:29:23.106
136.0, 10539.808635688858, 187500.0, -187500.02235174447, -187500.02235174447, -187500.02235174447, -187500.02235174447, -187500.02235174447, -187500.02235174447, 0.012, 0.046, 0.996, 192.0, 0.0, 0.0, 0.0, 0.0, 0.0, 0.0, 0.0, 0.0, 0.0, 1.676046563106801E9, 0.0, 2023-02-10 11:29:23.106
137.0, 9846.055191285037, 187500.0, -187500.02235174447, -187500.02235174447, -187500.02235174447, -187500.02235174447, -187500.02235174447, -187500.02235174447, 0.012, 0.046, 0.996, 192.0, 0.0, 0.0, 0.0, 0.0, 0.0, 0.0, 0.0, 0.0, 0.0, 1.676046563114642E9, 0.0, 2023-02-10 11:29:23.114
138.0, 9827.74911257614, 187500.0, -187500.02235174447, -187500.02235174447, -187500.02235174447, -187500.02235174447, -187500.02235174447, -187500.02235174447, 0.012, 0.046, 0.996, 192.0, 0.0, 0.0, 0.0, 0.0, 0.0, 0.0, 0.0, 0.0, 0.0, 1.676046563114664E9, 0.0, 2023-02-10 11:29:23.114
139.0, 10531.091455351288, 187500.0, -187500.02235174447, -187500.02235174447, -187500.02235174447, -187500.02235174447, -187500.02235174447, -187500.02235174447, 0.012, 0.046, 0.996, 192.0, 0.0, 0.0, 0.0, 0.0, 0.0, 0.0, 0.0, 0.0, 0.0, 1.676046563121445E9, 0.0, 2023-02-10 11:29:23.121
140.0, 10518.194498800576, 187500.0, -187500.02235174447, -187500.02235174447, -187500.02235174447, -187500.02235174447, -187500.02235174447, -187500.02235174447, 0.012, 0.046, 0.996, 192.0, 0.0, 0.0, 0.0, 0.0, 0.0, 0.0, 0.0, 0.0, 0.0, 1.676046563121518E9, 0.0, 2023-02-10 11:29:23.121
141.0, 9964.87706480945, 187500.0, -187500.02235174447, -187500.02235174447, -187500.02235174447, -187500.02235174447, -187500.02235174447, -187500.02235174447, 0.012, 0.046, 0.996, 192.0, 0.0, 0.0, 0.0, 0.0, 0.0, 0.0, 0.0, 0.0, 0.0, 1.676046563129282E9, 0.0, 2023-02-10 11:29:23.129
142.0, 9593.70399638462, 187500.0, -187500.02235174447, -187500.02235174447, -187500.02235174447, -187500.02235174447, -187500.02235174447, -187500.02235174447, 0.012, 0.046, 0.996, 192.0, 0.0, 0.0, 0.0, 0.0, 0.0, 0.0, 0.0, 0.0, 0.0, 1.676046563129305E9, 0.0, 2023-02-10 11:29:23.129
143.0, 9876.207694555247, 187500.0, -187500.02235174447, -187500.02235174447, -187500.02235174447, -187500.02235174447, -187500.02235174447, -187500.02235174447, 0.012, 0.046, 0.996, 192.0, 0.0, 0.0, 0.0, 0.0, 0.0, 0.0, 0.0, 0.0, 0.0, 1.676046563137275E9, 0.0, 2023-02-10 11:29:23.137
144.0, 10309.540964310285, 187500.0, -187500.02235174447, -187500.02235174447, -187500.02235174447, -187500.02235174447, -187500.02235174447, -187500.02235174447, 0.014, 0.044, 0.998, 192.0, 0.0, 112.0, 1.0, 96.0, 31.0, 48.0, 0.0, 0.0, 0.0, 1.676046563137298E9, 0.0, 2023-02-10 11:29:23.137
145.0, 10060.251958400246, 187500.0, -187500.02235174447, -187500.02235174447, -187500.02235174447, -187500.02235174447, -187500.02235174447, -187500.02235174447, 0.014, 0.044, 0.998, 192.0, 0.0, 0.0, 0.0, 0.0, 0.0, 0.0, 0.0, 0.0, 0.0, 1.676046563144527E9, 0.0, 2023-02-10 11:29:23.144
146.0, 9987.519381942677, 187500.0, -187500.02235174447, -187500.02235174447, -187500.02235174447, -187500.02235174447, -187500.02235174447, -187500.02235174447, 0.014, 0.044, 0.998, 192.0, 0.0, 0.0, 0.0, 0.0, 0.0, 0.0, 0.0, 0.0, 0.0, 1.676046563144549E9, 0.0, 2023-02-10 11:29:23.144
147.0, 10060.698993289352, 187500.0, -187500.02235174447, -187500.02235174447, -187500.02235174447, -187500.02235174447, -187500.02235174447, -187500.02235174447, 0.014, 0.044, 0.998, 192.0, 0.0, 0.0, 0.0, 0.0, 0.0, 0.0, 0.0, 0.0, 0.0, 1.676046563151087E9, 0.0, 2023-02-10 11:29:23.151
148.0, 10642.514901460994, 187500.0, -187500.02235174447, -187500.02235174447, -187500.02235174447, -187500.02235174447, -187500.02235174447, -187500.02235174447, 0.014, 0.044, 0.998, 192.0, 0.0, 0.0, 0.0, 0.0, 0.0, 0.0, 0.0, 0.0, 0.0, 1.676046563158884E9, 0.0, 2023-02-10 11:29:23.158
149.0, 10397.316264786275, 187500.0, -187500.02235174447, -187500.02235174447, -187500.02235174447, -187500.02235174447, -187500.02235174447, -187500.02235174447, 0.014, 0.044, 0.998, 192.0, 0.0, 0.0, 0.0, 0.0, 0.0, 0.0, 0.0, 0.0, 0.0, 1.676046563158903E9, 0.0, 2023-02-10 11:29:23.158
150.0, 9584.98681604705, 187500.0, -187500.02235174447, -187500.02235174447, -187500.02235174447, -187500.02235174447, -187500.02235174447, -187500.02235174447, 0.014, 0.044, 0.998, 192.0, 0.0, 0.0, 0.0, 0.0, 0.0, 0.0, 0.0, 0.0, 0.0, 1.67604656316694E9, 0.0, 2023-02-10 11:29:23.166
151.0, 9971.940216057326, 187500.0, -187500.02235174447, -187500.02235174447, -187500.02235174447, -187500.02235174447, -187500.02235174447, -187500.02235174447, 0.014, 0.044, 0.998, 192.0, 0.0, 0.0, 0.0, 0.0, 0.0, 0.0, 0.0, 0.0, 0.0, 1.676046563166963E9, 0.0, 2023-02-10 11:29:23.166
152.0, 10354.400915432087, 187500.0, -187500.02235174447, -187500.02235174447, -187500.02235174447, -187500.02235174447, -187500.02235174447, -187500.02235174447, 0.014, 0.044, 0.998, 192.0, 0.0, 0.0, 0.0, 0.0, 0.0, 0.0, 0.0, 0.0, 0.0, 1.676046563173954E9, 0.0, 2023-02-10 11:29:23.173
153.0, 10125.921383609937, 187500.0, -187500.02235174447, -187500.02235174447, -187500.02235174447, -187500.02235174447, -187500.02235174447, -187500.02235174447, 0.014, 0.044, 0.998, 192.0, 0.0, 0.0, 0.0, 0.0, 0.0, 0.0, 0.0, 0.0, 0.0, 1.676046563173969E9, 0.0, 2023-02-10 11:29:23.173
154.0, 9994.604884935008, 187500.0, -187500.02235174447, -187500.02235174447, -187500.02235174447, -187500.02235174447, -187500.02235174447, -187500.02235174447, 0.012, 0.044, 1.0, 192.0, 0.0, 96.0, 1.0, 96.0, 31.0, 64.0, 0.0, 0.0, 0.0, 1.676046563181641E9, 0.0, 2023-02-10 11:29:23.181
