%OpenBCI Raw EEG Data
%Number of channels = 8
%Sample Rate = 250 Hz
%Board = OpenBCI_GUI$BoardCytonSerial
Sample Index, EXG Channel 0, EXG Channel 1, EXG Channel 2, EXG Channel 3, EXG Channel 4, EXG Channel 5, EXG Channel 6, EXG Channel 7, Accel Channel 0, Accel Channel 1, Accel Channel 2, Other, Other, Other, Other, Other, Other, Other, Analog Channel 0, Analog Channel 1, Analog Channel 2, Timestamp, Other, Timestamp (Formatted)
92.0, 6915.562679238639, 187500.0, -187500.02235174447, -187500.02235174447, -187500.02235174447, -187500.02235174447, -187500.02235174447, -187500.02235174447, 0.0, 0.0, 0.0, 192.0, 0.0, 0.0, 0.0, 0.0, 0.0, 0.0, 0.0, 0.0, 0.0, 1.676046829844347E9, 0.0, 2023-02-10 11:33:49.844
93.0, 6843.54535860364, 187500.0, -187500.02235174447, -187500.02235174447, -187500.02235174447, -187500.02235174447, -187500.02235174447, -187500.02235174447, 0.0, 0.0, 0.0, 192.0, 0.0, 0.0, 0.0, 0.0, 0.0, 0.0, 0.0, 0.0, 0.0, 1.676046829844368E9, 0.0, 2023-02-10 11:33:49.844
94.0, 7139.6612691475475, 187500.0, -187500.02235174447, -187500.02235174447, -187500.02235174447, -187500.02235174447, -187500.02235174447, -187500.02235174447, 0.0, 0.0, 0.0, 192.0, 0.0, 0.0, 0.0, 0.0, 0.0, 0.0, 0.0, 0.0, 0.0, 1.676046829844378E9, 0.0, 2023-02-10 11:33:49.844
95.0, 7363.491638122993, 187500.0, -187500.02235174447, -187500.02235174447, -187500.02235174447, -187500.02235174447, -187500.02235174447, -187500.02235174447, 0.02, 0.036000000000000004, 1.0, 192.0, 0.0, 160.0, 1.0, 32.0, 31.0, 64.0, 0.0, 0.0, 0.0, 1.676046829844387E9, 0.0, 2023-02-10 11:33:49.844
96.0, 7224.8884707556335, 187500.0, -187500.02235174447, -187500.02235174447, -187500.02235174447, -187500.02235174447, -187500.02235174447, -187500.02235174447, 0.02, 0.036000000000000004, 1.0, 192.0, 0.0, 0.0, 0.0, 0.0, 0.0, 0.0, 0.0, 0.0, 0.0, 1.676046829844398E9, 0.0, 2023-02-10 11:33:49.844
0.0, 0.0, 0.0, 0.0, 0.0, 0.0, 0.0, 0.0, 0.0, 0.02, 0.036000000000000004, 1.0, 192.0, 0.0, 160.0, 1.0, 32.0, 31.0, 64.0, 0.0, 0.0, 0.0, 1.676046829910968E9, 0.0, 2023-02-10 11:33:49.910
1.0, 8557.119495525301, 187500.0, -187500.02235174447, -187500.02235174447, -187500.02235174447, -187500.02235174447, -187500.02235174447, -187500.02235174447, 0.02, 0.036000000000000004, 1.0, 192.0, 0.0, 0.0, 0.0, 0.0, 0.0, 0.0, 0.0, 0.0, 0.0, 1.676046829927116E9, 0.0, 2023-02-10 11:33:49.927
2.0, 8711.570049711472, 187500.0, -187500.02235174447, -187500.02235174447, -187500.02235174447, -187500.02235174447, -187500.02235174447, -187500.02235174447, 0.02, 0.036000000000000004, 1.0, 192.0, 0.0, 0.0, 0.0, 0.0, 0.0, 0.0, 0.0, 0.0, 0.0, 1.676046829933064E9, 0.0, 2023-02-10 11:33:49.933
3.0, 9009.250582367253, 187500.0, -187500.02235174447, -187500.02235174447, -187500.02235174447, -187500.02235174447, -187500.02235174447, -187500.02235174447, 0.02, 0.036000000000000004, 1.0, 192.0, 0.0, 0.0, 0.0, 0.0, 0.0, 0.0, 0.0, 0.0, 0.0, 1.676046829933087E9, 0.0, 2023-02-10 11:33:49.933
4.0, 8614.764644475537, 187500.0, -187500.02235174447, -187500.02235174447, -187500.02235174447, -187500.02235174447, -187500.02235174447, -187500.02235174447, 0.02, 0.036000000000000004, 1.0, 192.0, 0.0, 0.0, 0.0, 0.0, 0.0, 0.0, 0.0, 0.0, 0.0, 1.676046829939264E9, 0.0, 2023-02-10 11:33:49.939
5.0, 8404.278266939911, 187500.0, -187500.02235174447, -187500.02235174447, -187500.02235174447, -187500.02235174447, -187500.02235174447, -187500.02235174447, 0.02, 0.036000000000000004, 1.0, 192.0, 0.0, 0.0, 0.0, 0.0, 0.0, 0.0, 0.0, 0.0, 0.0, 1.676046829939285E9, 0.0, 2023-02-10 11:33:49.939
6.0, 8649.365144892352, 187500.0, -187500.02235174447, -187500.02235174447, -187500.02235174447, -187500.02235174447, -187500.02235174447, -187500.02235174447, 0.02, 0.036000000000000004, 1.0, 192.0, 0.0, 0.0, 0.0, 0.0, 0.0, 0.0, 0.0, 0.0, 0.0, 1.676046829945381E9, 0.0, 2023-02-10 11:33:49.945
7.0, 8509.39852111322, 187500.0, -187500.02235174447, -187500.02235174447, -187500.02235174447, -187500.02235174447, -187500.02235174447, -187500.02235174447, 0.02, 0.036000000000000004, 1.0, 192.0, 0.0, 0.0, 0.0, 0.0, 0.0, 0.0, 0.0, 0.0, 0.0, 1.676046829951563E9, 0.0, 2023-02-10 11:33:49.951
8.0, 8435.056619054869, 187500.0, -187500.02235174447, -187500.02235174447, -187500.02235174447, -187500.02235174447, -187500.02235174447, -187500.02235174447, 0.02, 0.04, 1.002, 192.0, 0.0, 160.0, 1.0, 64.0, 31.0, 80.0, 0.0, 0.0, 0.0, 1.676046829951584E9, 0.0, 2023-02-10 11:33:49.951
9.0, 8708.619619443372, 187500.0, -187500.02235174447, -187500.02235174447, -187500.02235174447, -187500.02235174447, -187500.02235174447, -187500.02235174447, 0.02, 0.04, 1.002, 192.0, 0.0, 0.0, 0.0, 0.0, 0.0, 0.0, 0.0, 0.0, 0.0, 1.676046829958392E9, 0.0, 2023-02-10 11:33:49.958
10.0, 8804.307437456542, 187500.0, -187500.02235174447, -187500.02235174447, -187500.02235174447, -187500.02235174447, -187500.02235174447, -187500.02235174447, 0.02, 0.04, 1.002, 192.0, 0.0, 0.0, 0.0, 0.0, 0.0, 0.0, 0.0, 0.0, 0.0, 1.676046829958408E9, 0.0, 2023-02-10 11:33:49.958
11.0, 8744.516521038595, 187500.0, -187500.02235174447, -187500.02235174447, -187500.02235174447, -187500.02235174447, -187500.02235174447, -187500.02235174447, 0.02, 0.04, 1.002, 192.0, 0.0, 0.0, 0.0, 0.0, 0.0, 0.0, 0.0, 0.0, 0.0, 1.676046829966432E9, 0.0, 2023-02-10 11:33:49.966
12.0, 8389.593170832773, 187500.0, -187500.02235174447, -187500.02235174447, -187500.02235174447, -187500.02235174447, -187500.02235174447, -187500.02235174447, 0.02, 0.04, 1.002, 192.0, 0.0, 0.0, 0.0, 0.0, 0.0, 0.0, 0.0, 0.0, 0.0, 1.676046829966449E9, 0.0, 2023-02-10 11:33:49.966
13.0, 8416.750540345973, 187500.0, -187500.02235174447, -187500.02235174447, -187500.02235174447, -187500.02235174447, -187500.02235174447, -187500.02235174447, 0.02, 0.04, 1.002, 192.0, 0.0, 0.0, 0.0, 0.0, 0.0, 0.0, 0.0, 0.0, 0.0, 1.676046829973513E9, 0.0, 2023-02-10 11:33:49.973
14.0, 8723.639991717338, 187500.0, -187500.02235174447, -187500.02235174447, -187500.02235174447, -187500.02235174447, -187500.02235174447, -187500.02235174447, 0.02, 0.04, 1.002, 192.0, 0.0, 0.0, 0.0, 0.0, 0.0, 0.0, 0.0, 0.0, 0.0, 1.676046829973529E9, 0.0, 2023-02-10 11:33:49.973
15.0, 8749.67977400777, 187500.0, -187500.02235174447, -187500.02235174447, -187500.02235174447, -187500.02235174447, -187500.02235174447, -187500.02235174447, 0.02, 0.04, 1.002, 192.0, 0.0, 0.0, 0.0, 0.0, 0.0, 0.0, 0.0, 0.0, 0.0, 1.676046829980997E9, 0.0, 2023-02-10 11:33:49.980
16.0, 8490.935980193137, 187500.0, -187500.02235174447, -187500.02235174447, -187500.02235174447, -187500.02235174447, -187500.02235174447, -187500.02235174447, 0.02, 0.04, 1.002, 192.0, 0.0, 0.0, 0.0, 0.0, 0.0, 0.0, 0.0, 0.0, 0.0, 1.676046829981032E9, 0.0, 2023-02-10 11:33:49.981
17.0, 8450.591081451306, 187500.0, -187500.02235174447, -187500.02235174447, -187500.02235174447, -187500.02235174447, -187500.02235174447, -187500.02235174447, 0.022, 0.038, 1.0, 192.0, 0.0, 176.0, 1.0, 48.0, 31.0, 64.0, 0.0, 0.0, 0.0, 1.676046829989168E9, 0.0, 2023-02-10 11:33:49.989
18.0, 8836.561004705549, 187500.0, -187500.02235174447, -187500.02235174447, -187500.02235174447, -187500.02235174447, -187500.02235174447, -187500.02235174447, 0.022, 0.038, 1.0, 192.0, 0.0, 0.0, 0.0, 0.0, 0.0, 0.0, 0.0, 0.0, 0.0, 1.676046829989193E9, 0.0, 2023-02-10 11:33:49.989
19.0, 8790.002321005144, 187500.0, -187500.02235174447, -187500.02235174447, -187500.02235174447, -187500.02235174447, -187500.02235174447, -187500.02235174447, 0.022, 0.038, 1.0, 192.0, 0.0, 0.0, 0.0, 0.0, 0.0, 0.0, 0.0, 0.0, 0.0, 1.676046829997107E9, 0.0, 2023-02-10 11:33:49.997
20.0, 8435.794226621894, 187500.0, -187500.02235174447, -187500.02235174447, -187500.02235174447, -187500.02235174447, -187500.02235174447, -187500.02235174447, 0.022, 0.038, 1.0, 192.0, 0.0, 0.0, 0.0, 0.0, 0.0, 0.0, 0.0, 0.0, 0.0, 1.676046829997128E9, 0.0, 2023-02-10 11:33:49.997
21.0, 8442.499749958486, 187500.0, -187500.02235174447, -187500.02235174447, -187500.02235174447, -187500.02235174447, -187500.02235174447, -187500.02235174447, 0.022, 0.038, 1.0, 192.0, 0.0, 0.0, 0.0, 0.0, 0.0, 0.0, 0.0, 0.0, 0.0, 1.676046830004164E9, 0.0, 2023-02-10 11:33:50.004
22.0, 8669.57112187995, 187500.0, -187500.02235174447, -187500.02235174447, -187500.02235174447, -187500.02235174447, -187500.02235174447, -187500.02235174447, 0.022, 0.038, 1.0, 192.0, 0.0, 0.0, 0.0, 0.0, 0.0, 0.0, 0.0, 0.0, 0.0, 1.676046830010691E9, 0.0, 2023-02-10 11:33:50.010
23.0, 8749.903291452323, 187500.0, -187500.02235174447, -187500.02235174447, -187500.02235174447, -187500.02235174447, -187500.02235174447, -187500.02235174447, 0.022, 0.038, 1.0, 192.0, 0.0, 0.0, 0.0, 0.0, 0.0, 0.0, 0.0, 0.0, 0.0, 1.67604683001071E9, 0.0, 2023-02-10 11:33:50.010
24.0, 8487.471459802564, 187500.0, -187500.02235174447, -187500.02235174447, -187500.02235174447, -187500.02235174447, -187500.02235174447, -187500.02235174447, 0.022, 0.038, 1.0, 192.0, 0.0, 0.0, 0.0, 0.0, 0.0, 0.0, 0.0, 0.0, 0.0, 1.676046830018761E9, 0.0, 2023-02-10 11:33:50.018
25.0, 8441.806845880372, 187500.0, -187500.02235174447, -187500.02235174447, -187500.02235174447, -187500.02235174447, -187500.02235174447, -187500.02235174447, 0.022, 0.038, 1.0, 192.0, 0.0, 0.0, 0.0, 0.0, 0.0, 0.0, 0.0, 0.0, 0.0, 1.676046830018783E9, 0.0, 2023-02-10 11:33:50.018
26.0, 8727.328029552464, 187500.0, -187500.02235174447, -187500.02235174447, -187500.02235174447, -187500.02235174447, -187500.02235174447, -187500.02235174447, 0.022, 0.038, 1.0, 192.0, 0.0, 0.0, 0.0, 0.0, 0.0, 0.0, 0.0, 0.0, 0.0, 1.676046830026829E9, 0.0, 2023-02-10 11:33:50.026
27.0, 8813.918687572323, 187500.0, -187500.02235174447, -187500.02235174447, -187500.02235174447, -187500.02235174447, -187500.02235174447, -187500.02235174447, 0.022, 0.04, 1.002, 192.0, 0.0, 176.0, 1.0, 64.0, 31.0, 80.0, 0.0, 0.0, 0.0, 1.67604683002685E9, 0.0, 2023-02-10 11:33:50.026
28.0, 8703.791642641025, 187500.0, -187500.02235174447, -187500.02235174447, -187500.02235174447, -187500.02235174447, -187500.02235174447, -187500.02235174447, 0.022, 0.04, 1.002, 192.0, 0.0, 0.0, 0.0, 0.0, 0.0, 0.0, 0.0, 0.0, 0.0, 1.676046830033483E9, 0.0, 2023-02-10 11:33:50.033
29.0, 8635.574118563429, 187500.0, -187500.02235174447, -187500.02235174447, -187500.02235174447, -187500.02235174447, -187500.02235174447, -187500.02235174447, 0.022, 0.04, 1.002, 192.0, 0.0, 0.0, 0.0, 0.0, 0.0, 0.0, 0.0, 0.0, 0.0, 1.676046830033512E9, 0.0, 2023-02-10 11:33:50.033
30.0, 8595.65390296625, 187500.0, -187500.02235174447, -187500.02235174447, -187500.02235174447, -187500.02235174447, -187500.02235174447, -187500.02235174447, 0.022, 0.04, 1.002, 192.0, 0.0, 0.0, 0.0, 0.0, 0.0, 0.0, 0.0, 0.0, 0.0, 1.676046830041772E9, 0.0, 2023-02-10 11:33:50.041
31.0, 8728.937355153246, 187500.0, -187500.02235174447, -187500.02235174447, -187500.02235174447, -187500.02235174447, -187500.02235174447, -187500.02235174447, 0.022, 0.04, 1.002, 192.0, 0.0, 0.0, 0.0, 0.0, 0.0, 0.0, 0.0, 0.0, 0.0, 1.676046830041794E9, 0.0, 2023-02-10 11:33:50.041
32.0, 8677.863619072868, 187500.0, -187500.02235174447, -187500.02235174447, -187500.02235174447, -187500.02235174447, -187500.02235174447, -187500.02235174447, 0.022, 0.04, 1.002, 192.0, 0.0, 0.0, 0.0, 0.0, 0.0, 0.0, 0.0, 0.0, 0.0, 1.676046830049342E9, 0.0, 2023-02-10 11:33:50.049
33.0, 8423.880746827215, 187500.0, -187500.02235174447, -187500.02235174447, -187500.02235174447, -187500.02235174447, -187500.02235174447, -187500.02235174447, 0.022, 0.04, 1.002, 192.0, 0.0, 0.0, 0.0, 0.0, 0.0, 0.0, 0.0, 0.0, 0.0, 1.676046830049361E9, 0.0, 2023-02-10 11:33:50.049
34.0, 8618.989124177591, 187500.0, -187500.02235174447, -187500.02235174447, -187500.02235174447, -187500.02235174447, -187500.02235174447, -187500.02235174447, 0.022, 0.04, 1.002, 192.0, 0.0, 0.0, 0.0, 0.0, 0.0, 0.0, 0.0, 0.0, 0.0, 1.676046830056276E9, 0.0, 2023-02-10 11:33:50.056
35.0, 8690.29118899002, 187500.0, -187500.02235174447, -187500.02235174447, -187500.02235174447, -187500.02235174447, -187500.02235174447, -187500.02235174447, 0.022, 0.04, 1.002, 192.0, 0.0, 0.0, 0.0, 0.0, 0.0, 0.0, 0.0, 0.0, 0.0, 1.67604683005629E9, 0.0, 2023-02-10 11:33:50.056
36.0, 8528.59866960033, 187500.0, -187500.02235174447, -187500.02235174447, -187500.02235174447, -187500.02235174447, -187500.02235174447, -187500.02235174447, 0.022, 0.04, 1.002, 192.0, 0.0, 0.0, 0.0, 0.0, 0.0, 0.0, 0.0, 0.0, 0.0, 1.676046830062976E9, 0.0, 2023-02-10 11:33:50.062
37.0, 8407.698083841573, 187500.0, -187500.02235174447, -187500.02235174447, -187500.02235174447, -187500.02235174447, -187500.02235174447, -187500.02235174447, 0.022, 0.04, 0.996, 192.0, 0.0, 176.0, 1.0, 64.0, 31.0, 32.0, 0.0, 0.0, 0.0, 1.676046830062995E9, 0.0, 2023-02-10 11:33:50.062
38.0, 8533.627812102774, 187500.0, -187500.02235174447, -187500.02235174447, -187500.02235174447, -187500.02235174447, -187500.02235174447, -187500.02235174447, 0.022, 0.04, 0.996, 192.0, 0.0, 0.0, 0.0, 0.0, 0.0, 0.0, 0.0, 0.0, 0.0, 1.676046830071162E9, 0.0, 2023-02-10 11:33:50.071
39.0, 8758.843989234447, 187500.0, -187500.02235174447, -187500.02235174447, -187500.02235174447, -187500.02235174447, -187500.02235174447, -187500.02235174447, 0.022, 0.04, 0.996, 192.0, 0.0, 0.0, 0.0, 0.0, 0.0, 0.0, 0.0, 0.0, 0.0, 1.676046830079109E9, 0.0, 2023-02-10 11:33:50.079
40.0, 8690.537058179028, 187500.0, -187500.02235174447, -187500.02235174447, -187500.02235174447, -187500.02235174447, -187500.02235174447, -187500.02235174447, 0.022, 0.04, 0.996, 192.0, 0.0, 0.0, 0.0, 0.0, 0.0, 0.0, 0.0, 0.0, 0.0, 1.676046830079132E9, 0.0, 2023-02-10 11:33:50.079
41.0, 8467.354889792787, 187500.0, -187500.02235174447, -187500.02235174447, -187500.02235174447, -187500.02235174447, -187500.02235174447, -187500.02235174447, 0.022, 0.04, 0.996, 192.0, 0.0, 0.0, 0.0, 0.0, 0.0, 0.0, 0.0, 0.0, 0.0, 1.676046830086002E9, 0.0, 2023-02-10 11:33:50.086
42.0, 8489.952503437104, 187500.0, -187500.02235174447, -187500.02235174447, -187500.02235174447, -187500.02235174447, -187500.02235174447, -187500.02235174447, 0.022, 0.04, 0.996, 192.0, 0.0, 0.0, 0.0, 0.0, 0.0, 0.0, 0.0, 0.0, 0.0, 1.676046830086025E9, 0.0, 2023-02-10 11:33:50.086
43.0, 8840.293746029585, 187500.0, -187500.02235174447, -187500.02235174447, -187500.02235174447, -187500.02235174447, -187500.02235174447, -187500.02235174447, 0.022, 0.04, 0.996, 192.0, 0.0, 0.0, 0.0, 0.0, 0.0, 0.0, 0.0, 0.0, 0.0, 1.676046830093688E9, 0.0, 2023-02-10 11:33:50.093
44.0, 9002.120375886008, 187500.0, -187500.02235174447, -187500.02235174447, -187500.02235174447, -187500.02235174447, -187500.02235174447, -187500.02235174447, 0.022, 0.04, 0.996, 192.0, 0.0, 0.0, 0.0, 0.0, 0.0, 0.0, 0.0, 0.0, 0.0, 1.676046830093708E9, 0.0, 2023-02-10 11:33:50.093
45.0, 8602.918219914225, 187500.0, -187500.02235174447, -187500.02235174447, -187500.02235174447, -187500.02235174447, -187500.02235174447, -187500.02235174447, 0.022, 0.04, 0.996, 192.0, 0.0, 0.0, 0.0, 0.0, 0.0, 0.0, 0.0, 0.0, 0.0, 1.676046830101764E9, 0.0, 2023-02-10 11:33:50.101
46.0, 8535.035972003458, 187500.0, -187500.02235174447, -187500.02235174447, -187500.02235174447, -187500.02235174447, -187500.02235174447, -187500.02235174447, 0.022, 0.04, 0.996, 192.0, 0.0, 0.0, 0.0, 0.0, 0.0, 0.0, 0.0, 0.0, 0.0, 1.676046830101792E9, 0.0, 2023-02-10 11:33:50.101
47.0, 8566.641338663261, 187500.0, -187500.02235174447, -187500.02235174447, -187500.02235174447, -187500.02235174447, -187500.02235174447, -187500.02235174447, 0.018000000000000002, 0.04, 1.002, 192.0, 0.0, 144.0, 1.0, 64.0, 31.0, 80.0, 0.0, 0.0, 0.0, 1.676046830108651E9, 0.0, 2023-02-10 11:33:50.108
48.0, 8650.125104203833, 187500.0, -187500.02235174447, -187500.02235174447, -187500.02235174447, -187500.02235174447, -187500.02235174447, -187500.02235174447, 0.018000000000000002, 0.04, 1.002, 192.0, 0.0, 0.0, 0.0, 0.0, 0.0, 0.0, 0.0, 0.0, 0.0, 1.67604683010867E9, 0.0, 2023-02-10 11:33:50.108
49.0, 8700.885915861836, 187500.0, -187500.02235174447, -187500.02235174447, -187500.02235174447, -187500.02235174447, -187500.02235174447, -187500.02235174447, 0.018000000000000002, 0.04, 1.002, 192.0, 0.0, 0.0, 0.0, 0.0, 0.0, 0.0, 0.0, 0.0, 0.0, 1.676046830116184E9, 0.0, 2023-02-10 11:33:50.116
50.0, 8416.839947323793, 187500.0, -187500.02235174447, -187500.02235174447, -187500.02235174447, -187500.02235174447, -187500.02235174447, -187500.02235174447, 0.018000000000000002, 0.04, 1.002, 192.0, 0.0, 0.0, 0.0, 0.0, 0.0, 0.0, 0.0, 0.0, 0.0, 1.676046830116205E9, 0.0, 2023-02-10 11:33:50.116
51.0, 8472.58519799533, 187500.0, -187500.02235174447, -187500.02235174447, -187500.02235174447, -187500.02235174447, -187500.02235174447, -187500.02235174447, 0.018000000000000002, 0.04, 1.002, 192.0, 0.0, 0.0, 0.0, 0.0, 0.0, 0.0, 0.0, 0.0, 0.0, 1.676046830124618E9, 0.0, 2023-02-10 11:33:50.124
52.0, 8764.297814881542, 187500.0, -187500.02235174447, -187500.02235174447, -187500.02235174447, -187500.02235174447, -187500.02235174447, -187500.02235174447, 0.018000000000000002, 0.04, 1.002, 192.0, 0.0, 0.0, 0.0, 0.0, 0.0, 0.0, 0.0, 0.0, 0.0, 1.676046830124636E9, 0.0, 2023-02-10 11:33:50.124
53.0, 8916.513194622183, 187500.0, -187500.02235174447, -187500.02235174447, -187500.02235174447, -187500.02235174447, -187500.02235174447, -187500.02235174447, 0.018000000000000002, 0.04, 1.002, 192.0, 0.0, 0.0, 0.0, 0.0, 0.0, 0.0, 0.0, 0.0, 0.0, 1.67604683013127E9, 0.0, 2023-02-10 11:33:50.131
54.0, 8622.31953410143, 187500.0, -187500.02235174447, -187500.02235174447, -187500.02235174447, -187500.02235174447, -187500.02235174447, -187500.02235174447, 0.018000000000000002, 0.04, 1.002, 192.0, 0.0, 0.0, 0.0, 0.0, 0.0, 0.0, 0.0, 0.0, 0.0, 1.676046830138336E9, 0.0, 2023-02-10 11:33:50.138
55.0, 8512.818338014882, 187500.0, -187500.02235174447, -187500.02235174447, -187500.02235174447, -187500.02235174447, -187500.02235174447, -187500.02235174447, 0.018000000000000002, 0.04, 1.002, 192.0, 0.0, 0.0, 0.0, 0.0, 0.0, 0.0, 0.0, 0.0, 0.0, 1.676046830138359E9, 0.0, 2023-02-10 11:33:50.138
56.0, 8724.176433584265, 187500.0, -187500.02235174447, -187500.02235174447, -187500.02235174447, -187500.02235174447, -187500.02235174447, -187500.02235174447, 0.018000000000000002, 0.04, 1.002, 192.0, 0.0, 0.0, 0.0, 0.0, 0.0, 0.0, 0.0, 0.0, 0.0, 1.676046830145849E9, 0.0, 2023-02-10 11:33:50.145
57.0, 8548.31290820991, 187500.0, -187500.02235174447, -187500.02235174447, -187500.02235174447, -187500.02235174447, -187500.02235174447, -187500.02235174447, 0.018000000000000002, 0.04, 1.006, 192.0, 0.0, 144.0, 1.0, 64.0, 31.0, 112.0, 0.0, 0.0, 0.0, 1.676046830145869E9, 0.0, 2023-02-10 11:33:50.145
58.0, 8439.415209223653, 187500.0, -187500.02235174447, -187500.02235174447, -187500.02235174447, -187500.02235174447, -187500.02235174447, -187500.02235174447, 0.018000000000000002, 0.04, 1.006, 192.0, 0.0, 0.0, 0.0, 0.0, 0.0, 0.0, 0.0, 0.0, 0.0, 1.676046830153894E9, 0.0, 2023-02-10 11:33:50.153
59.0, 8585.41680400572, 187500.0, -187500.02235174447, -187500.02235174447, -187500.02235174447, -187500.02235174447, -187500.02235174447, -187500.02235174447, 0.018000000000000002, 0.04, 1.006, 192.0, 0.0, 0.0, 0.0, 0.0, 0.0, 0.0, 0.0, 0.0, 0.0, 1.676046830153916E9, 0.0, 2023-02-10 11:33:50.153
60.0, 8861.974938151234, 187500.0, -187500.02235174447, -187500.02235174447, -187500.02235174447, -187500.02235174447, -187500.02235174447, -187500.02235174447, 0.018000000000000002, 0.04, 1.006, 192.0, 0.0, 0.0, 0.0, 0.0, 0.0, 0.0, 0.0, 0.0, 0.0, 1.676046830161873E9, 0.0, 2023-02-10 11:33:50.161
61.0, 8832.358876747952, 187500.0, -187500.02235174447, -187500.02235174447, -187500.02235174447, -187500.02235174447, -187500.02235174447, -187500.02235174447, 0.018000000000000002, 0.04, 1.006, 192.0, 0.0, 0.0, 0.0, 0.0, 0.0, 0.0, 0.0, 0.0, 0.0, 1.676046830161895E9, 0.0, 2023-02-10 11:33:50.161
62.0, 8453.04977334139, 187500.0, -187500.02235174447, -187500.02235174447, -187500.02235174447, -187500.02235174447, -187500.02235174447, -187500.02235174447, 0.018000000000000002, 0.04, 1.006, 192.0, 0.0, 0.0, 0.0, 0.0, 0.0, 0.0, 0.0, 0.0, 0.0, 1.676046830168625E9, 0.0, 2023-02-10 11:33:50.168
63.0, 8596.346807044365, 187500.0, -187500.02235174447, -187500.02235174447, -187500.02235174447, -187500.02235174447, -187500.02235174447, -187500.02235174447, 0.018000000000000002, 0.04, 1.006, 192.0, 0.0, 0.0, 0.0, 0.0, 0.0, 0.0, 0.0, 0.0, 0.0, 1.676046830168663E9, 0.0, 2023-02-10 11:33:50.168
64.0, 9118.237688331328, 187500.0, -187500.02235174447, -187500.02235174447, -187500.02235174447, -187500.02235174447, -187500.02235174447, -187500.02235174447, 0.018000000000000002, 0.04, 1.006, 192.0, 0.0, 0.0, 0.0, 0.0, 0.0, 0.0, 0.0, 0.0, 0.0, 1.6760468301765E9, 0.0, 2023-02-10 11:33:50.176
65.0, 8772.120925440899, 187500.0, -187500.02235174447, -187500.02235174447, -187500.02235174447, -187500.02235174447, -187500.02235174447, -187500.02235174447, 0.018000000000000002, 0.04, 1.006, 192.0, 0.0, 0.0, 0.0, 0.0, 0.0, 0.0, 0.0, 0.0, 0.0, 1.676046830176522E9, 0.0, 2023-02-10 11:33:50.176
66.0, 8375.355109614744, 187500.0, -187500.02235174447, -187500.02235174447, -187500.02235174447, -187500.02235174447, -187500.02235174447, -187500.02235174447, 0.014, 0.044, 1.006, 192.0, 0.0, 112.0, 1.0, 96.0, 31.0, 112.0, 0.0, 0.0, 0.0, 1.676046830184528E9, 0.0, 2023-02-10 11:33:50.184
67.0, 8377.120897426712, 187500.0, -187500.02235174447, -187500.02235174447, -187500.02235174447, -187500.02235174447, -187500.02235174447, -187500.02235174447, 0.014, 0.044, 1.006, 192.0, 0.0, 0.0, 0.0, 0.0, 0.0, 0.0, 0.0, 0.0, 0.0, 1.676046830184549E9, 0.0, 2023-02-10 11:33:50.184
68.0, 8628.578022548918, 187500.0, -187500.02235174447, -187500.02235174447, -187500.02235174447, -187500.02235174447, -187500.02235174447, -187500.02235174447, 0.014, 0.044, 1.006, 192.0, 0.0, 0.0, 0.0, 0.0, 0.0, 0.0, 0.0, 0.0, 0.0, 1.676046830191488E9, 0.0, 2023-02-10 11:33:50.191
69.0, 8706.764424653582, 187500.0, -187500.02235174447, -187500.02235174447, -187500.02235174447, -187500.02235174447, -187500.02235174447, -187500.02235174447, 0.014, 0.044, 1.006, 192.0, 0.0, 0.0, 0.0, 0.0, 0.0, 0.0, 0.0, 0.0, 0.0, 1.676046830198559E9, 0.0, 2023-02-10 11:33:50.198
70.0, 8521.133186952256, 187500.0, -187500.02235174447, -187500.02235174447, -187500.02235174447, -187500.02235174447, -187500.02235174447, -187500.02235174447, 0.014, 0.044, 1.006, 192.0, 0.0, 0.0, 0.0, 0.0, 0.0, 0.0, 0.0, 0.0, 0.0, 1.676046830198609E9, 0.0, 2023-02-10 11:33:50.198
71.0, 8481.1012126328, 187500.0, -187500.02235174447, -187500.02235174447, -187500.02235174447, -187500.02235174447, -187500.02235174447, -187500.02235174447, 0.014, 0.044, 1.006, 192.0, 0.0, 0.0, 0.0, 0.0, 0.0, 0.0, 0.0, 0.0, 0.0, 1.67604683020612E9, 0.0, 2023-02-10 11:33:50.206
72.0, 8699.544811194517, 187500.0, -187500.02235174447, -187500.02235174447, -187500.02235174447, -187500.02235174447, -187500.02235174447, -187500.02235174447, 0.014, 0.044, 1.006, 192.0, 0.0, 0.0, 0.0, 0.0, 0.0, 0.0, 0.0, 0.0, 0.0, 1.67604683020615E9, 0.0, 2023-02-10 11:33:50.206
73.0, 8767.516466083105, 187500.0, -187500.02235174447, -187500.02235174447, -187500.02235174447, -187500.02235174447, -187500.02235174447, -187500.02235174447, 0.014, 0.044, 1.006, 192.0, 0.0, 0.0, 0.0, 0.0, 0.0, 0.0, 0.0, 0.0, 0.0, 1.676046830214251E9, 0.0, 2023-02-10 11:33:50.214
74.0, 8583.65101619375, 187500.0, -187500.02235174447, -187500.02235174447, -187500.02235174447, -187500.02235174447, -187500.02235174447, -187500.02235174447, 0.014, 0.044, 1.006, 192.0, 0.0, 0.0, 0.0, 0.0, 0.0, 0.0, 0.0, 0.0, 0.0, 1.67604683021428E9, 0.0, 2023-02-10 11:33:50.214
75.0, 8480.028328898947, 187500.0, -187500.02235174447, -187500.02235174447, -187500.02235174447, -187500.02235174447, -187500.02235174447, -187500.02235174447, 0.014, 0.044, 1.006, 192.0, 0.0, 0.0, 0.0, 0.0, 0.0, 0.0, 0.0, 0.0, 0.0, 1.676046830221355E9, 0.0, 2023-02-10 11:33:50.221
76.0, 8659.490485130607, 187500.0, -187500.02235174447, -187500.02235174447, -187500.02235174447, -187500.02235174447, -187500.02235174447, -187500.02235174447, 0.012, 0.044, 1.0, 192.0, 0.0, 96.0, 1.0, 96.0, 31.0, 64.0, 0.0, 0.0, 0.0, 1.67604683022138E9, 0.0, 2023-02-10 11:33:50.221
77.0, 8825.943926089278, 187500.0, -187500.02235174447, -187500.02235174447, -187500.02235174447, -187500.02235174447, -187500.02235174447, -187500.02235174447, 0.012, 0.044, 1.0, 192.0, 0.0, 0.0, 0.0, 0.0, 0.0, 0.0, 0.0, 0.0, 0.0, 1.676046830228664E9, 0.0, 2023-02-10 11:33:50.228
78.0, 8789.957617516235, 187500.0, -187500.02235174447, -187500.02235174447, -187500.02235174447, -187500.02235174447, -187500.02235174447, -187500.02235174447, 0.012, 0.044, 1.0, 192.0, 0.0, 0.0, 0.0, 0.0, 0.0, 0.0, 0.0, 0.0, 0.0, 1.676046830228683E9, 0.0, 2023-02-10 11:33:50.228
79.0, 8756.608814788917, 187500.0, -187500.02235174447, -187500.02235174447, -187500.02235174447, -187500.02235174447, -187500.02235174447, -187500.02235174447, 0.012, 0.044, 1.0, 192.0, 0.0, 0.0, 0.0, 0.0, 0.0, 0.0, 0.0, 0.0, 0.0, 1.67604683023681E9, 0.0, 2023-02-10 11:33:50.236
80.0, 8608.03676939449, 187500.0, -187500.02235174447, -187500.02235174447, -187500.02235174447, -187500.02235174447, -187500.02235174447, -187500.02235174447, 0.012, 0.044, 1.0, 192.0, 0.0, 0.0, 0.0, 0.0, 0.0, 0.0, 0.0, 0.0, 0.0, 1.676046830236832E9, 0.0, 2023-02-10 11:33:50.236
81.0, 8834.616402937938, 187500.0, -187500.02235174447, -187500.02235174447, -187500.02235174447, -187500.02235174447, -187500.02235174447, -187500.02235174447, 0.012, 0.044, 1.0, 192.0, 0.0, 0.0, 0.0, 0.0, 0.0, 0.0, 0.0, 0.0, 0.0, 1.676046830243911E9, 0.0, 2023-02-10 11:33:50.243
82.0, 8635.730580774616, 187500.0, -187500.02235174447, -187500.02235174447, -187500.02235174447, -187500.02235174447, -187500.02235174447, -187500.02235174447, 0.012, 0.044, 1.0, 192.0, 0.0, 0.0, 0.0, 0.0, 0.0, 0.0, 0.0, 0.0, 0.0, 1.676046830243938E9, 0.0, 2023-02-10 11:33:50.243
83.0, 8345.828455189283, 187500.0, -187500.02235174447, -187500.02235174447, -187500.02235174447, -187500.02235174447, -187500.02235174447, -187500.02235174447, 0.012, 0.044, 1.0, 192.0, 0.0, 0.0, 0.0, 0.0, 0.0, 0.0, 0.0, 0.0, 0.0, 1.676046830250465E9, 0.0, 2023-02-10 11:33:50.250
84.0, 8438.409380723164, 187500.0, -187500.02235174447, -187500.02235174447, -187500.02235174447, -187500.02235174447, -187500.02235174447, -187500.02235174447, 0.012, 0.044, 1.0, 192.0, 0.0, 0.0, 0.0, 0.0, 0.0, 0.0, 0.0, 0.0, 0.0, 1.676046830258284E9, 0.0, 2023-02-10 11:33:50.258
85.0, 8644.961851234657, 187500.0, -187500.02235174447, -187500.02235174447, -187500.02235174447, -187500.02235174447, -187500.02235174447, -187500.02235174447, 0.012, 0.044, 1.0, 192.0, 0.0, 0.0, 0.0, 0.0, 0.0, 0.0, 0.0, 0.0, 0.0, 1.676046830258303E9, 0.0, 2023-02-10 11:33:50.258
86.0, 8652.919072260747, 187500.0, -187500.02235174447, -187500.02235174447, -187500.02235174447, -187500.02235174447, -187500.02235174447, -187500.02235174447, 0.012, 0.044, 0.998, 192.0, 0.0, 96.0, 1.0, 96.0, 31.0, 48.0, 0.0, 0.0, 0.0, 1.676046830266337E9, 0.0, 2023-02-10 11:33:50.266
87.0, 8478.419003298164, 187500.0, -187500.02235174447, -187500.02235174447, -187500.02235174447, -187500.02235174447, -187500.02235174447, -187500.02235174447, 0.012, 0.044, 0.998, 192.0, 0.0, 0.0, 0.0, 0.0, 0.0, 0.0, 0.0, 0.0, 0.0, 1.676046830266367E9, 0.0, 2023-02-10 11:33:50.266
88.0, 8578.912446369224, 187500.0, -187500.02235174447, -187500.02235174447, -187500.02235174447, -187500.02235174447, -187500.02235174447, -187500.02235174447, 0.012, 0.044, 0.998, 192.0, 0.0, 0.0, 0.0, 0.0, 0.0, 0.0, 0.0, 0.0, 0.0, 1.676046830273451E9, 0.0, 2023-02-10 11:33:50.273
89.0, 8874.380156323929, 187500.0, -187500.02235174447, -187500.02235174447, -187500.02235174447, -187500.02235174447, -187500.02235174447, -187500.02235174447, 0.012, 0.044, 0.998, 192.0, 0.0, 0.0, 0.0, 0.0, 0.0, 0.0, 0.0, 0.0, 0.0, 1.676046830273471E9, 0.0, 2023-02-10 11:33:50.273
90.0, 8864.612443996959, 187500.0, -187500.02235174447, -187500.02235174447, -187500.02235174447, -187500.02235174447, -187500.02235174447, -187500.02235174447, 0.012, 0.044, 0.998, 192.0, 0.0, 0.0, 0.0, 0.0, 0.0, 0.0, 0.0, 0.0, 0.0, 1.676046830281049E9, 0.0, 2023-02-10 11:33:50.281
91.0, 8571.134039298779, 187500.0, -187500.02235174447, -187500.02235174447, -187500.02235174447, -187500.02235174447, -187500.02235174447, -187500.02235174447, 0.012, 0.044, 0.998, 192.0, 0.0, 0.0, 0.0, 0.0, 0.0, 0.0, 0.0, 0.0, 0.0, 1.676046830281078E9, 0.0, 2023-02-10 11:33:50.281
92.0, 8769.818695762002, 187500.0, -187500.02235174447, -187500.02235174447, -187500.02235174447, -187500.02235174447, -187500.02235174447, -187500.02235174447, 0.012, 0.044, 0.998, 192.0, 0.0, 0.0, 0.0, 0.0, 0.0, 0.0, 0.0, 0.0, 0.0, 1.67604683028907E9, 0.0, 2023-02-10 11:33:50.289
93.0, 8639.440970354197, 187500.0, -187500.02235174447, -187500.02235174447, -187500.02235174447, -187500.02235174447, -187500.02235174447, -187500.02235174447, 0.012, 0.044, 0.998, 192.0, 0.0, 0.0, 0.0, 0.0, 0.0, 0.0, 0.0, 0.0, 0.0, 1.676046830289098E9, 0.0, 2023-02-10 11:33:50.289
94.0, 8565.814324118415, 187500.0, -187500.02235174447, -187500.02235174447, -187500.02235174447, -187500.02235174447, -187500.02235174447, -187500.02235174447, 0.012, 0.044, 0.998, 192.0, 0.0, 0.0, 0.0, 0.0, 0.0, 0.0, 0.0, 0.0, 0.0, 1.676046830297438E9, 0.0, 2023-02-10 11:33:50.297
95.0, 8443.080895314324, 187500.0, -187500.02235174447, -187500.02235174447, -187500.02235174447, -187500.02235174447, -187500.02235174447, -187500.02235174447, 0.012, 0.044, 0.998, 192.0, 0.0, 0.0, 0.0, 0.0, 0.0, 0.0, 0.0, 0.0, 0.0, 1.676046830297508E9, 0.0, 2023-02-10 11:33:50.297
96.0, 8411.699046099073, 187500.0, -187500.02235174447, -187500.02235174447, -187500.02235174447, -187500.02235174447, -187500.02235174447, -187500.02235174447, 0.012, 0.04, 0.998, 192.0, 0.0, 96.0, 1.0, 64.0, 31.0, 48.0, 0.0, 0.0, 0.0, 1.67604683030373E9, 0.0, 2023-02-10 11:33:50.303
97.0, 8761.839122991458, 187500.0, -187500.02235174447, -187500.02235174447, -187500.02235174447, -187500.02235174447, -187500.02235174447, -187500.02235174447, 0.012, 0.04, 0.998, 192.0, 0.0, 0.0, 0.0, 0.0, 0.0, 0.0, 0.0, 0.0, 0.0, 1.676046830303753E9, 0.0, 2023-02-10 11:33:50.303
98.0, 8890.696929776303, 187500.0, -187500.02235174447, -187500.02235174447, -187500.02235174447, -187500.02235174447, -187500.02235174447, -187500.02235174447, 0.012, 0.04, 0.998, 192.0, 0.0, 0.0, 0.0, 0.0, 0.0, 0.0, 0.0, 0.0, 0.0, 1.676046830310618E9, 0.0, 2023-02-10 11:33:50.310
99.0, 8668.609996868372, 187500.0, -187500.02235174447, -187500.02235174447, -187500.02235174447, -187500.02235174447, -187500.02235174447, -187500.02235174447, 0.012, 0.04, 0.998, 192.0, 0.0, 0.0, 0.0, 0.0, 0.0, 0.0, 0.0, 0.0, 0.0, 1.676046830310637E9, 0.0, 2023-02-10 11:33:50.310
100.0, 8595.877420410803, 187500.0, -187500.02235174447, -187500.02235174447, -187500.02235174447, -187500.02235174447, -187500.02235174447, -187500.02235174447, 0.012, 0.04, 0.998, 192.0, 0.0, 0.0, 0.0, 0.0, 0.0, 0.0, 0.0, 0.0, 0.0, 1.676046830318664E9, 0.0, 2023-02-10 11:33:50.318
101.0, 8665.257235200075, 187500.0, -187500.02235174447, -187500.02235174447, -187500.02235174447, -187500.02235174447, -187500.02235174447, -187500.02235174447, 0.012, 0.04, 0.998, 192.0, 0.0, 0.0, 0.0, 0.0, 0.0, 0.0, 0.0, 0.0, 0.0, 1.676046830326753E9, 0.0, 2023-02-10 11:33:50.326
102.0, 8695.81206987048, 187500.0, -187500.02235174447, -187500.02235174447, -187500.02235174447, -187500.02235174447, -187500.02235174447, -187500.02235174447, 0.012, 0.04, 0.998, 192.0, 0.0, 0.0, 0.0, 0.0, 0.0, 0.0, 0.0, 0.0, 0.0, 1.676046830326776E9, 0.0, 2023-02-10 11:33:50.326
103.0, 8438.297622000888, 187500.0, -187500.02235174447, -187500.02235174447, -187500.02235174447, -187500.02235174447, -187500.02235174447, -187500.02235174447, 0.012, 0.04, 0.998, 192.0, 0.0, 0.0, 0.0, 0.0, 0.0, 0.0, 0.0, 0.0, 0.0, 1.676046830333381E9, 0.0, 2023-02-10 11:33:50.333
104.0, 8371.309443868333, 187500.0, -187500.02235174447, -187500.02235174447, -187500.02235174447, -187500.02235174447, -187500.02235174447, -187500.02235174447, 0.012, 0.04, 0.998, 192.0, 0.0, 0.0, 0.0, 0.0, 0.0, 0.0, 0.0, 0.0, 0.0, 1.676046830333427E9, 0.0, 2023-02-10 11:33:50.333
105.0, 8554.325527468387, 187500.0, -187500.02235174447, -187500.02235174447, -187500.02235174447, -187500.02235174447, -187500.02235174447, -187500.02235174447, 0.012, 0.04, 0.998, 192.0, 0.0, 0.0, 0.0, 0.0, 0.0, 0.0, 0.0, 0.0, 0.0, 1.676046830341278E9, 0.0, 2023-02-10 11:33:50.341
106.0, 8725.696352207226, 187500.0, -187500.02235174447, -187500.02235174447, -187500.02235174447, -187500.02235174447, -187500.02235174447, -187500.02235174447, 0.016, 0.044, 0.998, 192.0, 0.0, 128.0, 1.0, 96.0, 31.0, 48.0, 0.0, 0.0, 0.0, 1.676046830341298E9, 0.0, 2023-02-10 11:33:50.341
107.0, 8657.47882812963, 187500.0, -187500.02235174447, -187500.02235174447, -187500.02235174447, -187500.02235174447, -187500.02235174447, -187500.02235174447, 0.016, 0.044, 0.998, 192.0, 0.0, 0.0, 0.0, 0.0, 0.0, 0.0, 0.0, 0.0, 0.0, 1.676046830349331E9, 0.0, 2023-02-10 11:33:50.349
108.0, 8500.994265198024, 187500.0, -187500.02235174447, -187500.02235174447, -187500.02235174447, -187500.02235174447, -187500.02235174447, -187500.02235174447, 0.016, 0.044, 0.998, 192.0, 0.0, 0.0, 0.0, 0.0, 0.0, 0.0, 0.0, 0.0, 0.0, 1.676046830349387E9, 0.0, 2023-02-10 11:33:50.349
109.0, 8572.184571288177, 187500.0, -187500.02235174447, -187500.02235174447, -187500.02235174447, -187500.02235174447, -187500.02235174447, -187500.02235174447, 0.016, 0.044, 0.998, 192.0, 0.0, 0.0, 0.0, 0.0, 0.0, 0.0, 0.0, 0.0, 0.0, 1.676046830356369E9, 0.0, 2023-02-10 11:33:50.356
110.0, 8808.017827036123, 187500.0, -187500.02235174447, -187500.02235174447, -187500.02235174447, -187500.02235174447, -187500.02235174447, -187500.02235174447, 0.016, 0.044, 0.998, 192.0, 0.0, 0.0, 0.0, 0.0, 0.0, 0.0, 0.0, 0.0, 0.0, 1.676046830356384E9, 0.0, 2023-02-10 11:33:50.356
111.0, 8611.590696762883, 187500.0, -187500.02235174447, -187500.02235174447, -187500.02235174447, -187500.02235174447, -187500.02235174447, -187500.02235174447, 0.016, 0.044, 0.998, 192.0, 0.0, 0.0, 0.0, 0.0, 0.0, 0.0, 0.0, 0.0, 0.0, 1.676046830364187E9, 0.0, 2023-02-10 11:33:50.364
112.0, 8534.678344092172, 187500.0, -187500.02235174447, -187500.02235174447, -187500.02235174447, -187500.02235174447, -187500.02235174447, -187500.02235174447, 0.016, 0.044, 0.998, 192.0, 0.0, 0.0, 0.0, 0.0, 0.0, 0.0, 0.0, 0.0, 0.0, 1.676046830364205E9, 0.0, 2023-02-10 11:33:50.364
113.0, 8739.82265470298, 187500.0, -187500.02235174447, -187500.02235174447, -187500.02235174447, -187500.02235174447, -187500.02235174447, -187500.02235174447, 0.016, 0.044, 0.998, 192.0, 0.0, 0.0, 0.0, 0.0, 0.0, 0.0, 0.0, 0.0, 0.0, 1.676046830372017E9, 0.0, 2023-02-10 11:33:50.372
114.0, 8825.876870855913, 187500.0, -187500.02235174447, -187500.02235174447, -187500.02235174447, -187500.02235174447, -187500.02235174447, -187500.02235174447, 0.016, 0.044, 0.998, 192.0, 0.0, 0.0, 0.0, 0.0, 0.0, 0.0, 0.0, 0.0, 0.0, 1.676046830372044E9, 0.0, 2023-02-10 11:33:50.372
115.0, 8730.904308665313, 187500.0, -187500.02235174447, -187500.02235174447, -187500.02235174447, -187500.02235174447, -187500.02235174447, -187500.02235174447, 0.014, 0.036000000000000004, 1.0, 192.0, 0.0, 112.0, 1.0, 32.0, 31.0, 64.0, 0.0, 0.0, 0.0, 1.676046830379186E9, 0.0, 2023-02-10 11:33:50.379
116.0, 8291.290198718334, 187500.0, -187500.02235174447, -187500.02235174447, -187500.02235174447, -187500.02235174447, -187500.02235174447, -187500.02235174447, 0.014, 0.036000000000000004, 1.0, 192.0, 0.0, 0.0, 0.0, 0.0, 0.0, 0.0, 0.0, 0.0, 0.0, 1.676046830385675E9, 0.0, 2023-02-10 11:33:50.385
117.0, 8318.671085676086, 187500.0, -187500.02235174447, -187500.02235174447, -187500.02235174447, -187500.02235174447, -187500.02235174447, -187500.02235174447, 0.014, 0.036000000000000004, 1.0, 192.0, 0.0, 0.0, 0.0, 0.0, 0.0, 0.0, 0.0, 0.0, 0.0, 1.676046830385699E9, 0.0, 2023-02-10 11:33:50.385
118.0, 8644.85009251238, 187500.0, -187500.02235174447, -187500.02235174447, -187500.02235174447, -187500.02235174447, -187500.02235174447, -187500.02235174447, 0.014, 0.036000000000000004, 1.0, 192.0, 0.0, 0.0, 0.0, 0.0, 0.0, 0.0, 0.0, 0.0, 0.0, 1.676046830393599E9, 0.0, 2023-02-10 11:33:50.393
119.0, 8844.786446665103, 187500.0, -187500.02235174447, -187500.02235174447, -187500.02235174447, -187500.02235174447, -187500.02235174447, -187500.02235174447, 0.014, 0.036000000000000004, 1.0, 192.0, 0.0, 0.0, 0.0, 0.0, 0.0, 0.0, 0.0, 0.0, 0.0, 1.676046830393637E9, 0.0, 2023-02-10 11:33:50.393
120.0, 8673.505028904085, 187500.0, -187500.02235174447, -187500.02235174447, -187500.02235174447, -187500.02235174447, -187500.02235174447, -187500.02235174447, 0.014, 0.036000000000000004, 1.0, 192.0, 0.0, 0.0, 0.0, 0.0, 0.0, 0.0, 0.0, 0.0, 0.0, 1.676046830401721E9, 0.0, 2023-02-10 11:33:50.401
121.0, 8503.564715810386, 187500.0, -187500.02235174447, -187500.02235174447, -187500.02235174447, -187500.02235174447, -187500.02235174447, -187500.02235174447, 0.014, 0.036000000000000004, 1.0, 192.0, 0.0, 0.0, 0.0, 0.0, 0.0, 0.0, 0.0, 0.0, 0.0, 1.676046830401748E9, 0.0, 2023-02-10 11:33:50.401
122.0, 8551.64331813375, 187500.0, -187500.02235174447, -187500.02235174447, -187500.02235174447, -187500.02235174447, -187500.02235174447, -187500.02235174447, 0.014, 0.036000000000000004, 1.0, 192.0, 0.0, 0.0, 0.0, 0.0, 0.0, 0.0, 0.0, 0.0, 0.0, 1.67604683040866E9, 0.0, 2023-02-10 11:33:50.408
123.0, 8560.136981026768, 187500.0, -187500.02235174447, -187500.02235174447, -187500.02235174447, -187500.02235174447, -187500.02235174447, -187500.02235174447, 0.014, 0.036000000000000004, 1.0, 192.0, 0.0, 0.0, 0.0, 0.0, 0.0, 0.0, 0.0, 0.0, 0.0, 1.67604683040868E9, 0.0, 2023-02-10 11:33:50.408
124.0, 8521.691980563639, 187500.0, -187500.02235174447, -187500.02235174447, -187500.02235174447, -187500.02235174447, -187500.02235174447, -187500.02235174447, 0.014, 0.036000000000000004, 1.0, 192.0, 0.0, 0.0, 0.0, 0.0, 0.0, 0.0, 0.0, 0.0, 0.0, 1.676046830416139E9, 0.0, 2023-02-10 11:33:50.416
125.0, 8476.072070130358, 187500.0, -187500.02235174447, -187500.02235174447, -187500.02235174447, -187500.02235174447, -187500.02235174447, -187500.02235174447, 0.016, 0.036000000000000004, 0.996, 192.0, 0.0, 128.0, 1.0, 32.0, 31.0, 32.0, 0.0, 0.0, 0.0, 1.676046830416159E9, 0.0, 2023-02-10 11:33:50.416
126.0, 8581.03586209248, 187500.0, -187500.02235174447, -187500.02235174447, -187500.02235174447, -187500.02235174447, -187500.02235174447, -187500.02235174447, 0.016, 0.036000000000000004, 0.996, 192.0, 0.0, 0.0, 0.0, 0.0, 0.0, 0.0, 0.0, 0.0, 0.0, 1.676046830424261E9, 0.0, 2023-02-10 11:33:50.424
127.0, 8733.050076133022, 187500.0, -187500.02235174447, -187500.02235174447, -187500.02235174447, -187500.02235174447, -187500.02235174447, -187500.02235174447, 0.016, 0.036000000000000004, 0.996, 192.0, 0.0, 0.0, 0.0, 0.0, 0.0, 0.0, 0.0, 0.0, 0.0, 1.67604683042428E9, 0.0, 2023-02-10 11:33:50.424
128.0, 8465.075011858346, 187500.0, -187500.02235174447, -187500.02235174447, -187500.02235174447, -187500.02235174447, -187500.02235174447, -187500.02235174447, 0.016, 0.036000000000000004, 0.996, 192.0, 0.0, 0.0, 0.0, 0.0, 0.0, 0.0, 0.0, 0.0, 0.0, 1.676046830432119E9, 0.0, 2023-02-10 11:33:50.432
129.0, 8382.37355737371, 187500.0, -187500.02235174447, -187500.02235174447, -187500.02235174447, -187500.02235174447, -187500.02235174447, -187500.02235174447, 0.016, 0.036000000000000004, 0.996, 192.0, 0.0, 0.0, 0.0, 0.0, 0.0, 0.0, 0.0, 0.0, 0.0, 1.67604683043214E9, 0.0, 2023-02-10 11:33:50.432
130.0, 8768.052907950034, 187500.0, -187500.02235174447, -187500.02235174447, -187500.02235174447, -187500.02235174447, -187500.02235174447, -187500.02235174447, 0.016, 0.036000000000000004, 0.996, 192.0, 0.0, 0.0, 0.0, 0.0, 0.0, 0.0, 0.0, 0.0, 0.0, 1.676046830438318E9, 0.0, 2023-02-10 11:33:50.438
131.0, 9011.999846935254, 187500.0, -187500.02235174447, -187500.02235174447, -187500.02235174447, -187500.02235174447, -187500.02235174447, -187500.02235174447, 0.016, 0.036000000000000004, 0.996, 192.0, 0.0, 0.0, 0.0, 0.0, 0.0, 0.0, 0.0, 0.0, 0.0, 1.676046830445729E9, 0.0, 2023-02-10 11:33:50.445
132.0, 8444.824331381838, 187500.0, -187500.02235174447, -187500.02235174447, -187500.02235174447, -187500.02235174447, -187500.02235174447, -187500.02235174447, 0.016, 0.036000000000000004, 0.996, 192.0, 0.0, 0.0, 0.0, 0.0, 0.0, 0.0, 0.0, 0.0, 0.0, 1.676046830445748E9, 0.0, 2023-02-10 11:33:50.445
133.0, 8269.787820552328, 187500.0, -187500.02235174447, -187500.02235174447, -187500.02235174447, -187500.02235174447, -187500.02235174447, -187500.02235174447, 0.016, 0.036000000000000004, 0.996, 192.0, 0.0, 0.0, 0.0, 0.0, 0.0, 0.0, 0.0, 0.0, 0.0, 1.67604683045402E9, 0.0, 2023-02-10 11:33:50.454
134.0, 8399.986732004492, 187500.0, -187500.02235174447, -187500.02235174447, -187500.02235174447, -187500.02235174447, -187500.02235174447, -187500.02235174447, 0.016, 0.036000000000000004, 0.996, 192.0, 0.0, 0.0, 0.0, 0.0, 0.0, 0.0, 0.0, 0.0, 0.0, 1.676046830454046E9, 0.0, 2023-02-10 11:33:50.454
135.0, 8718.588497470439, 187500.0, -187500.02235174447, -187500.02235174447, -187500.02235174447, -187500.02235174447, -187500.02235174447, -187500.02235174447, 0.016, 0.036000000000000004, 0.992, 192.0, 0.0, 128.0, 1.0, 32.0, 31.0, 0.0, 0.0, 0.0, 0.0, 1.676046830462045E9, 0.0, 2023-02-10 11:33:50.462
136.0, 8795.053815252044, 187500.0, -187500.02235174447, -187500.02235174447, -187500.02235174447, -187500.02235174447, -187500.02235174447, -187500.02235174447, 0.016, 0.036000000000000004, 0.992, 192.0, 0.0, 0.0, 0.0, 0.0, 0.0, 0.0, 0.0, 0.0, 0.0, 1.676046830462086E9, 0.0, 2023-02-10 11:33:50.462
137.0, 8296.475803431966, 187500.0, -187500.02235174447, -187500.02235174447, -187500.02235174447, -187500.02235174447, -187500.02235174447, -187500.02235174447, 0.016, 0.036000000000000004, 0.992, 192.0, 0.0, 0.0, 0.0, 0.0, 0.0, 0.0, 0.0, 0.0, 0.0, 1.676046830468474E9, 0.0, 2023-02-10 11:33:50.468
138.0, 8258.142561691113, 187500.0, -187500.02235174447, -187500.02235174447, -187500.02235174447, -187500.02235174447, -187500.02235174447, -187500.02235174447, 0.016, 0.036000000000000004, 0.992, 192.0, 0.0, 0.0, 0.0, 0.0, 0.0, 0.0, 0.0, 0.0, 0.0, 1.676046830468502E9, 0.0, 2023-02-10 11:33:50.468
139.0, 8564.830847362382, 187500.0, -187500.02235174447, -187500.02235174447, -187500.02235174447, -187500.02235174447, -187500.02235174447, -187500.02235174447, 0.016, 0.036000000000000004, 0.992, 192.0, 0.0, 0.0, 0.0, 0.0, 0.0, 0.0, 0.0, 0.0, 0.0, 1.676046830476462E9, 0.0, 2023-02-10 11:33:50.476
140.0, 8708.820785143469, 187500.0, -187500.02235174447, -187500.02235174447, -187500.02235174447, -187500.02235174447, -187500.02235174447, -187500.02235174447, 0.016, 0.036000000000000004, 0.992, 192.0, 0.0, 0.0, 0.0, 0.0, 0.0, 0.0, 0.0, 0.0, 0.0, 1.676046830476483E9, 0.0, 2023-02-10 11:33:50.476
141.0, 8603.007626892046, 187500.0, -187500.02235174447, -187500.02235174447, -187500.02235174447, -187500.02235174447, -187500.02235174447, -187500.02235174447, 0.016, 0.036000000000000004, 0.992, 192.0, 0.0, 0.0, 0.0, 0.0, 0.0, 0.0, 0.0, 0.0, 0.0, 1.676046830484534E9, 0.0, 2023-02-10 11:33:50.484
142.0, 8355.216187860511, 187500.0, -187500.02235174447, -187500.02235174447, -187500.02235174447, -187500.02235174447, -187500.02235174447, -187500.02235174447, 0.016, 0.036000000000000004, 0.992, 192.0, 0.0, 0.0, 0.0, 0.0, 0.0, 0.0, 0.0, 0.0, 0.0, 1.676046830484558E9, 0.0, 2023-02-10 11:33:50.484
143.0, 8476.519105019463, 187500.0, -187500.02235174447, -187500.02235174447, -187500.02235174447, -187500.02235174447, -187500.02235174447, -187500.02235174447, 0.016, 0.036000000000000004, 0.992, 192.0, 0.0, 0.0, 0.0, 0.0, 0.0, 0.0, 0.0, 0.0, 0.0, 1.676046830491537E9, 0.0, 2023-02-10 11:33:50.491
144.0, 8658.663470585761, 187500.0, -187500.02235174447, -187500.02235174447, -187500.02235174447, -187500.02235174447, -187500.02235174447, -187500.02235174447, 0.016, 0.036000000000000004, 0.992, 192.0, 0.0, 0.0, 0.0, 0.0, 0.0, 0.0, 0.0, 0.0, 0.0, 1.676046830491556E9, 0.0, 2023-02-10 11:33:50.491
145.0, 8672.320386447953, 187500.0, -187500.02235174447, -187500.02235174447, -187500.02235174447, -187500.02235174447, -187500.02235174447, -187500.02235174447, 0.016, 0.04, 0.996, 192.0, 0.0, 128.0, 1.0, 64.0, 31.0, 32.0, 0.0, 0.0, 0.0, 1.676046830498076E9, 0.0, 2023-02-10 11:33:50.498
146.0, 8312.837280373249, 187500.0, -187500.02235174447, -187500.02235174447, -187500.02235174447, -187500.02235174447, -187500.02235174447, -187500.02235174447, 0.016, 0.04, 0.996, 192.0, 0.0, 0.0, 0.0, 0.0, 0.0, 0.0, 0.0, 0.0, 0.0, 1.676046830506111E9, 0.0, 2023-02-10 11:33:50.506
147.0, 8402.735996572495, 187500.0, -187500.02235174447, -187500.02235174447, -187500.02235174447, -187500.02235174447, -187500.02235174447, -187500.02235174447, 0.016, 0.04, 0.996, 192.0, 0.0, 0.0, 0.0, 0.0, 0.0, 0.0, 0.0, 0.0, 0.0, 1.676046830506133E9, 0.0, 2023-02-10 11:33:50.506
148.0, 8618.363275332842, 187500.0, -187500.02235174447, -187500.02235174447, -187500.02235174447, -187500.02235174447, -187500.02235174447, -187500.02235174447, 0.016, 0.04, 0.996, 192.0, 0.0, 0.0, 0.0, 0.0, 0.0, 0.0, 0.0, 0.0, 0.0, 1.676046830514185E9, 0.0, 2023-02-10 11:33:50.514
149.0, 8484.006939411991, 187500.0, -187500.02235174447, -187500.02235174447, -187500.02235174447, -187500.02235174447, -187500.02235174447, -187500.02235174447, 0.016, 0.04, 0.996, 192.0, 0.0, 0.0, 0.0, 0.0, 0.0, 0.0, 0.0, 0.0, 0.0, 1.67604683051421E9, 0.0, 2023-02-10 11:33:50.514
150.0, 8427.971116062536, 187500.0, -187500.02235174447, -187500.02235174447, -187500.02235174447, -187500.02235174447, -187500.02235174447, -187500.02235174447, 0.016, 0.04, 0.996, 192.0, 0.0, 0.0, 0.0, 0.0, 0.0, 0.0, 0.0, 0.0, 0.0, 1.676046830520778E9, 0.0, 2023-02-10 11:33:50.520
151.0, 8742.460160548706, 187500.0, -187500.02235174447, -187500.02235174447, -187500.02235174447, -187500.02235174447, -187500.02235174447, -187500.02235174447, 0.016, 0.04, 0.996, 192.0, 0.0, 0.0, 0.0, 0.0, 0.0, 0.0, 0.0, 0.0, 0.0, 1.676046830520799E9, 0.0, 2023-02-10 11:33:50.520
152.0, 8641.094999443889, 187500.0, -187500.02235174447, -187500.02235174447, -187500.02235174447, -187500.02235174447, -187500.02235174447, -187500.02235174447, 0.016, 0.04, 0.996, 192.0, 0.0, 0.0, 0.0, 0.0, 0.0, 0.0, 0.0, 0.0, 0.0, 1.67604683052871E9, 0.0, 2023-02-10 11:33:50.528
153.0, 8377.009138704436, 187500.0, -187500.02235174447, -187500.02235174447, -187500.02235174447, -187500.02235174447, -187500.02235174447, -187500.02235174447, 0.016, 0.04, 0.996, 192.0, 0.0, 0.0, 0.0, 0.0, 0.0, 0.0, 0.0, 0.0, 0.0, 1.676046830528737E9, 0.0, 2023-02-10 11:33:50.528
154.0, 8259.595425080708, 187500.0, -187500.02235174447, -187500.02235174447, -187500.02235174447, -187500.02235174447, -187500.02235174447, -187500.02235174447, 0.016, 0.04, 0.996, 192.0, 0.0, 0.0, 0.0, 0.0, 0.0, 0.0, 0.0, 0.0, 0.0, 1.676046830536751E9, 0.0, 2023-02-10 11:33:50.536
155.0, 8404.345322173276, 187500.0, -187500.02235174447, -187500.02235174447, -187500.02235174447, -187500.02235174447, -187500.02235174447, -187500.02235174447, 0.01, 0.042, 0.994, 192.0, 0.0, 80.0, 1.0, 80.0, 31.0, 16.0, 0.0, 0.0, 0.0, 1.676046830536773E9, 0.0, 2023-02-10 11:33:50.536
156.0, 8824.781635377603, 187500.0, -187500.02235174447, -187500.02235174447, -187500.02235174447, -187500.02235174447, -187500.02235174447, -187500.02235174447, 0.01, 0.042, 0.994, 192.0, 0.0, 0.0, 0.0, 0.0, 0.0, 0.0, 0.0, 0.0, 0.0, 1.6760468305437E9, 0.0, 2023-02-10 11:33:50.543
157.0, 8688.748918622603, 187500.0, -187500.02235174447, -187500.02235174447, -187500.02235174447, -187500.02235174447, -187500.02235174447, -187500.02235174447, 0.01, 0.042, 0.994, 192.0, 0.0, 0.0, 0.0, 0.0, 0.0, 0.0, 0.0, 0.0, 0.0, 1.676046830543725E9, 0.0, 2023-02-10 11:33:50.543
158.0, 8225.732532230919, 187500.0, -187500.02235174447, -187500.02235174447, -187500.02235174447, -187500.02235174447, -187500.02235174447, -187500.02235174447, 0.01, 0.042, 0.994, 192.0, 0.0, 0.0, 0.0, 0.0, 0.0, 0.0, 0.0, 0.0, 0.0, 1.676046830551336E9, 0.0, 2023-02-10 11:33:50.551
159.0, 8408.480394897508, 187500.0, -187500.02235174447, -187500.02235174447, -187500.02235174447, -187500.02235174447, -187500.02235174447, -187500.02235174447, 0.01, 0.042, 0.994, 192.0, 0.0, 0.0, 0.0, 0.0, 0.0, 0.0, 0.0, 0.0, 0.0, 1.676046830551361E9, 0.0, 2023-02-10 11:33:50.551
160.0, 8786.493097125662, 187500.0, -187500.02235174447, -187500.02235174447, -187500.02235174447, -187500.02235174447, -187500.02235174447, -187500.02235174447, 0.01, 0.042, 0.994, 192.0, 0.0, 0.0, 0.0, 0.0, 0.0, 0.0, 0.0, 0.0, 0.0, 1.676046830558388E9, 0.0, 2023-02-10 11:33:50.558
161.0, 8546.681230864671, 187500.0, -187500.02235174447, -187500.02235174447, -187500.02235174447, -187500.02235174447, -187500.02235174447, -187500.02235174447, 0.01, 0.042, 0.994, 192.0, 0.0, 0.0, 0.0, 0.0, 0.0, 0.0, 0.0, 0.0, 0.0, 1.676046830558498E9, 0.0, 2023-02-10 11:33:50.558
162.0, 8532.73374232456, 187500.0, -187500.02235174447, -187500.02235174447, -187500.02235174447, -187500.02235174447, -187500.02235174447, -187500.02235174447, 0.01, 0.042, 0.994, 192.0, 0.0, 0.0, 0.0, 0.0, 0.0, 0.0, 0.0, 0.0, 0.0, 1.676046830566452E9, 0.0, 2023-02-10 11:33:50.566
163.0, 8417.197575235079, 187500.0, -187500.02235174447, -187500.02235174447, -187500.02235174447, -187500.02235174447, -187500.02235174447, -187500.02235174447, 0.01, 0.042, 0.994, 192.0, 0.0, 0.0, 0.0, 0.0, 0.0, 0.0, 0.0, 0.0, 0.0, 1.676046830573493E9, 0.0, 2023-02-10 11:33:50.573
164.0, 8379.244313149968, 187500.0, -187500.02235174447, -187500.02235174447, -187500.02235174447, -187500.02235174447, -187500.02235174447, -187500.02235174447, 0.012, 0.044, 1.0, 192.0, 0.0, 96.0, 1.0, 96.0, 31.0, 64.0, 0.0, 0.0, 0.0, 1.676046830573513E9, 0.0, 2023-02-10 11:33:50.573
165.0, 8501.307189620398, 187500.0, -187500.02235174447, -187500.02235174447, -187500.02235174447, -187500.02235174447, -187500.02235174447, -187500.02235174447, 0.012, 0.044, 1.0, 192.0, 0.0, 0.0, 0.0, 0.0, 0.0, 0.0, 0.0, 0.0, 0.0, 1.676046830580952E9, 0.0, 2023-02-10 11:33:50.580
166.0, 8361.921711197105, 187500.0, -187500.02235174447, -187500.02235174447, -187500.02235174447, -187500.02235174447, -187500.02235174447, -187500.02235174447, 0.012, 0.044, 1.0, 192.0, 0.0, 0.0, 0.0, 0.0, 0.0, 0.0, 0.0, 0.0, 0.0, 1.676046830580973E9, 0.0, 2023-02-10 11:33:50.580
167.0, 8312.926687351071, 187500.0, -187500.02235174447, -187500.02235174447, -187500.02235174447, -187500.02235174447, -187500.02235174447, -187500.02235174447, 0.012, 0.044, 1.0, 192.0, 0.0, 0.0, 0.0, 0.0, 0.0, 0.0, 0.0, 0.0, 0.0, 1.67604683058901E9, 0.0, 2023-02-10 11:33:50.589
168.0, 8571.759888143526, 187500.0, -187500.02235174447, -187500.02235174447, -187500.02235174447, -187500.02235174447, -187500.02235174447, -187500.02235174447, 0.012, 0.044, 1.0, 192.0, 0.0, 0.0, 0.0, 0.0, 0.0, 0.0, 0.0, 0.0, 0.0, 1.67604683058903E9, 0.0, 2023-02-10 11:33:50.589
169.0, 8837.119798316931, 187500.0, -187500.02235174447, -187500.02235174447, -187500.02235174447, -187500.02235174447, -187500.02235174447, -187500.02235174447, 0.012, 0.044, 1.0, 192.0, 0.0, 0.0, 0.0, 0.0, 0.0, 0.0, 0.0, 0.0, 0.0, 1.676046830597051E9, 0.0, 2023-02-10 11:33:50.597
170.0, 8588.635455207284, 187500.0, -187500.02235174447, -187500.02235174447, -187500.02235174447, -187500.02235174447, -187500.02235174447, -187500.02235174447, 0.012, 0.044, 1.0, 192.0, 0.0, 0.0, 0.0, 0.0, 0.0, 0.0, 0.0, 0.0, 0.0, 1.676046830597081E9, 0.0, 2023-02-10 11:33:50.597
171.0, 8438.744656889994, 187500.0, -187500.02235174447, -187500.02235174447, -187500.02235174447, -187500.02235174447, -187500.02235174447, -187500.02235174447, 0.012, 0.044, 1.0, 192.0, 0.0, 0.0, 0.0, 0.0, 0.0, 0.0, 0.0, 0.0, 0.0, 1.676046830603724E9, 0.0, 2023-02-10 11:33:50.603
172.0, 8547.038858775957, 187500.0, -187500.02235174447, -187500.02235174447, -187500.02235174447, -187500.02235174447, -187500.02235174447, -187500.02235174447, 0.012, 0.044, 1.0, 192.0, 0.0, 0.0, 0.0, 0.0, 0.0, 0.0, 0.0, 0.0, 0.0, 1.676046830603749E9, 0.0, 2023-02-10 11:33:50.603
173.0, 8530.967954512591, 187500.0, -187500.02235174447, -187500.02235174447, -187500.02235174447, -187500.02235174447, -187500.02235174447, -187500.02235174447, 0.012, 0.044, 1.0, 192.0, 0.0, 0.0, 0.0, 0.0, 0.0, 0.0, 0.0, 0.0, 0.0, 1.676046830611572E9, 0.0, 2023-02-10 11:33:50.611
174.0, 8418.136348502201, 187500.0, -187500.02235174447, -187500.02235174447, -187500.02235174447, -187500.02235174447, -187500.02235174447, -187500.02235174447, 0.016, 0.042, 1.0, 192.0, 0.0, 128.0, 1.0, 80.0, 31.0, 64.0, 0.0, 0.0, 0.0, 1.676046830611597E9, 0.0, 2023-02-10 11:33:50.611
175.0, 8302.019036056881, 187500.0, -187500.02235174447, -187500.02235174447, -187500.02235174447, -187500.02235174447, -187500.02235174447, -187500.02235174447, 0.016, 0.042, 1.0, 192.0, 0.0, 0.0, 0.0, 0.0, 0.0, 0.0, 0.0, 0.0, 0.0, 1.676046830619676E9, 0.0, 2023-02-10 11:33:50.619
176.0, 8432.776741120428, 187500.0, -187500.02235174447, -187500.02235174447, -187500.02235174447, -187500.02235174447, -187500.02235174447, -187500.02235174447, 0.016, 0.042, 1.0, 192.0, 0.0, 0.0, 0.0, 0.0, 0.0, 0.0, 0.0, 0.0, 0.0, 1.676046830619799E9, 0.0, 2023-02-10 11:33:50.619
177.0, 8575.023242834002, 187500.0, -187500.02235174447, -187500.02235174447, -187500.02235174447, -187500.02235174447, -187500.02235174447, -187500.02235174447, 0.016, 0.042, 1.0, 192.0, 0.0, 0.0, 0.0, 0.0, 0.0, 0.0, 0.0, 0.0, 0.0, 1.676046830626744E9, 0.0, 2023-02-10 11:33:50.626
178.0, 8465.790267680915, 187500.0, -187500.02235174447, -187500.02235174447, -187500.02235174447, -187500.02235174447, -187500.02235174447, -187500.02235174447, 0.016, 0.042, 1.0, 192.0, 0.0, 0.0, 0.0, 0.0, 0.0, 0.0, 0.0, 0.0, 0.0, 1.676046830633339E9, 0.0, 2023-02-10 11:33:50.633
179.0, 8330.875138148682, 187500.0, -187500.02235174447, -187500.02235174447, -187500.02235174447, -187500.02235174447, -187500.02235174447, -187500.02235174447, 0.016, 0.042, 1.0, 192.0, 0.0, 0.0, 0.0, 0.0, 0.0, 0.0, 0.0, 0.0, 0.0, 1.676046830633374E9, 0.0, 2023-02-10 11:33:50.633
180.0, 8488.164363880678, 187500.0, -187500.02235174447, -187500.02235174447, -187500.02235174447, -187500.02235174447, -187500.02235174447, -187500.02235174447, 0.016, 0.042, 1.0, 192.0, 0.0, 0.0, 0.0, 0.0, 0.0, 0.0, 0.0, 0.0, 0.0, 1.676046830641254E9, 0.0, 2023-02-10 11:33:50.641
181.0, 8834.147016304376, 187500.0, -187500.02235174447, -187500.02235174447, -187500.02235174447, -187500.02235174447, -187500.02235174447, -187500.02235174447, 0.016, 0.042, 1.0, 192.0, 0.0, 0.0, 0.0, 0.0, 0.0, 0.0, 0.0, 0.0, 0.0, 1.676046830641297E9, 0.0, 2023-02-10 11:33:50.641
182.0, 8706.138575808833, 187500.0, -187500.02235174447, -187500.02235174447, -187500.02235174447, -187500.02235174447, -187500.02235174447, -187500.02235174447, 0.016, 0.042, 1.0, 192.0, 0.0, 0.0, 0.0, 0.0, 0.0, 0.0, 0.0, 0.0, 0.0, 1.676046830649344E9, 0.0, 2023-02-10 11:33:50.649
183.0, 8356.46788555001, 187500.0, -187500.02235174447, -187500.02235174447, -187500.02235174447, -187500.02235174447, -187500.02235174447, -187500.02235174447, 0.016, 0.042, 1.0, 192.0, 0.0, 0.0, 0.0, 0.0, 0.0, 0.0, 0.0, 0.0, 0.0, 1.676046830649364E9, 0.0, 2023-02-10 11:33:50.649
184.0, 8211.405064035067, 187500.0, -187500.02235174447, -187500.02235174447, -187500.02235174447, -187500.02235174447, -187500.02235174447, -187500.02235174447, 0.014, 0.04, 1.002, 192.0, 0.0, 112.0, 1.0, 64.0, 31.0, 80.0, 0.0, 0.0, 0.0, 1.676046830655906E9, 0.0, 2023-02-10 11:33:50.655
185.0, 8463.577444979841, 187500.0, -187500.02235174447, -187500.02235174447, -187500.02235174447, -187500.02235174447, -187500.02235174447, -187500.02235174447, 0.014, 0.04, 1.002, 192.0, 0.0, 0.0, 0.0, 0.0, 0.0, 0.0, 0.0, 0.0, 0.0, 1.676046830655924E9, 0.0, 2023-02-10 11:33:50.655
186.0, 8541.339163939854, 187500.0, -187500.02235174447, -187500.02235174447, -187500.02235174447, -187500.02235174447, -187500.02235174447, -187500.02235174447, 0.014, 0.04, 1.002, 192.0, 0.0, 0.0, 0.0, 0.0, 0.0, 0.0, 0.0, 0.0, 0.0, 1.676046830663891E9, 0.0, 2023-02-10 11:33:50.663
187.0, 8342.542748754353, 187500.0, -187500.02235174447, -187500.02235174447, -187500.02235174447, -187500.02235174447, -187500.02235174447, -187500.02235174447, 0.014, 0.04, 1.002, 192.0, 0.0, 0.0, 0.0, 0.0, 0.0, 0.0, 0.0, 0.0, 0.0, 1.676046830663916E9, 0.0, 2023-02-10 11:33:50.663
188.0, 8547.93292855417, 187500.0, -187500.02235174447, -187500.02235174447, -187500.02235174447, -187500.02235174447, -187500.02235174447, -187500.02235174447, 0.014, 0.04, 1.002, 192.0, 0.0, 0.0, 0.0, 0.0, 0.0, 0.0, 0.0, 0.0, 0.0, 1.67604683067199E9, 0.0, 2023-02-10 11:33:50.671
189.0, 8845.389943765396, 187500.0, -187500.02235174447, -187500.02235174447, -187500.02235174447, -187500.02235174447, -187500.02235174447, -187500.02235174447, 0.014, 0.04, 1.002, 192.0, 0.0, 0.0, 0.0, 0.0, 0.0, 0.0, 0.0, 0.0, 0.0, 1.67604683067202E9, 0.0, 2023-02-10 11:33:50.672
190.0, 8541.585033128862, 187500.0, -187500.02235174447, -187500.02235174447, -187500.02235174447, -187500.02235174447, -187500.02235174447, -187500.02235174447, 0.014, 0.04, 1.002, 192.0, 0.0, 0.0, 0.0, 0.0, 0.0, 0.0, 0.0, 0.0, 0.0, 1.676046830679088E9, 0.0, 2023-02-10 11:33:50.679
191.0, 8351.461094792021, 187500.0, -187500.02235174447, -187500.02235174447, -187500.02235174447, -187500.02235174447, -187500.02235174447, -187500.02235174447, 0.014, 0.04, 1.002, 192.0, 0.0, 0.0, 0.0, 0.0, 0.0, 0.0, 0.0, 0.0, 0.0, 1.6760468306792E9, 0.0, 2023-02-10 11:33:50.679
192.0, 8288.429175428055, 187500.0, -187500.02235174447, -187500.02235174447, -187500.02235174447, -187500.02235174447, -187500.02235174447, -187500.02235174447, 0.014, 0.04, 1.002, 192.0, 0.0, 0.0, 0.0, 0.0, 0.0, 0.0, 0.0, 0.0, 0.0, 1.676046830685703E9, 0.0, 2023-02-10 11:33:50.685
193.0, 8720.354285282408, 187500.0, -187500.02235174447, -187500.02235174447, -187500.02235174447, -187500.02235174447, -187500.02235174447, -187500.02235174447, 0.014, 0.04, 1.002, 192.0, 0.0, 0.0, 0.0, 0.0, 0.0, 0.0, 0.0, 0.0, 0.0, 1.67604683069351E9, 0.0, 2023-02-10 11:33:50.693
194.0, 8777.194771432254, 187500.0, -187500.02235174447, -187500.02235174447, -187500.02235174447, -187500.02235174447, -187500.02235174447, -187500.02235174447, 0.012, 0.046, 1.0, 192.0, 0.0, 96.0, 1.0, 112.0, 31.0, 64.0, 0.0, 0.0, 0.0, 1.676046830693531E9, 0.0, 2023-02-10 11:33:50.693
195.0, 8414.157737989157, 187500.0, -187500.02235174447, -187500.02235174447, -187500.02235174447, -187500.02235174447, -187500.02235174447, -187500.02235174447, 0.012, 0.046, 1.0, 192.0, 0.0, 0.0, 0.0, 0.0, 0.0, 0.0, 0.0, 0.0, 0.0, 1.676046830701719E9, 0.0, 2023-02-10 11:33:50.701
196.0, 8140.32651666719, 187500.0, -187500.02235174447, -187500.02235174447, -187500.02235174447, -187500.02235174447, -187500.02235174447, -187500.02235174447, 0.012, 0.046, 1.0, 192.0, 0.0, 0.0, 0.0, 0.0, 0.0, 0.0, 0.0, 0.0, 0.0, 1.676046830701747E9, 0.0, 2023-02-10 11:33:50.701
197.0, 8388.788508032383, 187500.0, -187500.02235174447, -187500.02235174447, -187500.02235174447, -187500.02235174447, -187500.02235174447, -187500.02235174447, 0.012, 0.046, 1.0, 192.0, 0.0, 0.0, 0.0, 0.0, 0.0, 0.0, 0.0, 0.0, 0.0, 1.676046830710199E9, 0.0, 2023-02-10 11:33:50.710
198.0, 8660.898645031291, 187500.0, -187500.02235174447, -187500.02235174447, -187500.02235174447, -187500.02235174447, -187500.02235174447, -187500.02235174447, 0.012, 0.046, 1.0, 192.0, 0.0, 0.0, 0.0, 0.0, 0.0, 0.0, 0.0, 0.0, 0.0, 1.676046830710261E9, 0.0, 2023-02-10 11:33:50.710
199.0, 8446.366601749254, 187500.0, -187500.02235174447, -187500.02235174447, -187500.02235174447, -187500.02235174447, -187500.02235174447, -187500.02235174447, 0.012, 0.046, 1.0, 192.0, 0.0, 0.0, 0.0, 0.0, 0.0, 0.0, 0.0, 0.0, 0.0, 1.676046830716252E9, 0.0, 2023-02-10 11:33:50.716
200.0, 8301.236725000945, 187500.0, -187500.02235174447, -187500.02235174447, -187500.02235174447, -187500.02235174447, -187500.02235174447, -187500.02235174447, 0.012, 0.046, 1.0, 192.0, 0.0, 0.0, 0.0, 0.0, 0.0, 0.0, 0.0, 0.0, 0.0, 1.676046830716278E9, 0.0, 2023-02-10 11:33:50.716
201.0, 8547.30707970942, 187500.0, -187500.02235174447, -187500.02235174447, -187500.02235174447, -187500.02235174447, -187500.02235174447, -187500.02235174447, 0.012, 0.046, 1.0, 192.0, 0.0, 0.0, 0.0, 0.0, 0.0, 0.0, 0.0, 0.0, 0.0, 1.676046830724294E9, 0.0, 2023-02-10 11:33:50.724
202.0, 8621.80544397896, 187500.0, -187500.02235174447, -187500.02235174447, -187500.02235174447, -187500.02235174447, -187500.02235174447, -187500.02235174447, 0.012, 0.046, 1.0, 192.0, 0.0, 0.0, 0.0, 0.0, 0.0, 0.0, 0.0, 0.0, 0.0, 1.676046830724316E9, 0.0, 2023-02-10 11:33:50.724
203.0, 8495.071052917368, 187500.0, -187500.02235174447, -187500.02235174447, -187500.02235174447, -187500.02235174447, -187500.02235174447, -187500.02235174447, 0.012, 0.046, 1.0, 192.0, 0.0, 0.0, 0.0, 0.0, 0.0, 0.0, 0.0, 0.0, 0.0, 1.676046830732231E9, 0.0, 2023-02-10 11:33:50.732
204.0, 8501.173079153667, 187500.0, -187500.02235174447, -187500.02235174447, -187500.02235174447, -187500.02235174447, -187500.02235174447, -187500.02235174447, 0.012, 0.04, 0.998, 192.0, 0.0, 96.0, 1.0, 64.0, 31.0, 48.0, 0.0, 0.0, 0.0, 1.676046830732251E9, 0.0, 2023-02-10 11:33:50.732
205.0, 8700.662398417282, 187500.0, -187500.02235174447, -187500.02235174447, -187500.02235174447, -187500.02235174447, -187500.02235174447, -187500.02235174447, 0.012, 0.04, 0.998, 192.0, 0.0, 0.0, 0.0, 0.0, 0.0, 0.0, 0.0, 0.0, 0.0, 1.676046830738729E9, 0.0, 2023-02-10 11:33:50.738
206.0, 8526.810530043904, 187500.0, -187500.02235174447, -187500.02235174447, -187500.02235174447, -187500.02235174447, -187500.02235174447, -187500.02235174447, 0.012, 0.04, 0.998, 192.0, 0.0, 0.0, 0.0, 0.0, 0.0, 0.0, 0.0, 0.0, 0.0, 1.676046830738831E9, 0.0, 2023-02-10 11:33:50.738
207.0, 8429.803959107872, 187500.0, -187500.02235174447, -187500.02235174447, -187500.02235174447, -187500.02235174447, -187500.02235174447, -187500.02235174447, 0.012, 0.04, 0.998, 192.0, 0.0, 0.0, 0.0, 0.0, 0.0, 0.0, 0.0, 0.0, 0.0, 1.676046830745657E9, 0.0, 2023-02-10 11:33:50.745
208.0, 8441.449217969086, 187500.0, -187500.02235174447, -187500.02235174447, -187500.02235174447, -187500.02235174447, -187500.02235174447, -187500.02235174447, 0.012, 0.04, 0.998, 192.0, 0.0, 0.0, 0.0, 0.0, 0.0, 0.0, 0.0, 0.0, 0.0, 1.676046830753813E9, 0.0, 2023-02-10 11:33:50.753
209.0, 8286.26105621589, 187500.0, -187500.02235174447, -187500.02235174447, -187500.02235174447, -187500.02235174447, -187500.02235174447, -187500.02235174447, 0.012, 0.04, 0.998, 192.0, 0.0, 0.0, 0.0, 0.0, 0.0, 0.0, 0.0, 0.0, 0.0, 1.676046830753833E9, 0.0, 2023-02-10 11:33:50.753
210.0, 8443.930261603626, 187500.0, -187500.02235174447, -187500.02235174447, -187500.02235174447, -187500.02235174447, -187500.02235174447, -187500.02235174447, 0.012, 0.04, 0.998, 192.0, 0.0, 0.0, 0.0, 0.0, 0.0, 0.0, 0.0, 0.0, 0.0, 1.676046830761832E9, 0.0, 2023-02-10 11:33:50.761
211.0, 8703.72458740766, 187500.0, -187500.02235174447, -187500.02235174447, -187500.02235174447, -187500.02235174447, -187500.02235174447, -187500.02235174447, 0.012, 0.04, 0.998, 192.0, 0.0, 0.0, 0.0, 0.0, 0.0, 0.0, 0.0, 0.0, 0.0, 1.676046830761861E9, 0.0, 2023-02-10 11:33:50.761
212.0, 8510.873736247271, 187500.0, -187500.02235174447, -187500.02235174447, -187500.02235174447, -187500.02235174447, -187500.02235174447, -187500.02235174447, 0.012, 0.04, 0.998, 192.0, 0.0, 0.0, 0.0, 0.0, 0.0, 0.0, 0.0, 0.0, 0.0, 1.676046830770004E9, 0.0, 2023-02-10 11:33:50.770
213.0, 8238.785950992817, 187500.0, -187500.02235174447, -187500.02235174447, -187500.02235174447, -187500.02235174447, -187500.02235174447, -187500.02235174447, 0.012, 0.04, 0.998, 192.0, 0.0, 0.0, 0.0, 0.0, 0.0, 0.0, 0.0, 0.0, 0.0, 1.676046830770025E9, 0.0, 2023-02-10 11:33:50.770
214.0, 8498.043834929924, 187500.0, -187500.02235174447, -187500.02235174447, -187500.02235174447, -187500.02235174447, -187500.02235174447, -187500.02235174447, 0.014, 0.042, 0.998, 192.0, 0.0, 112.0, 1.0, 80.0, 31.0, 48.0, 0.0, 0.0, 0.0, 1.676046830776516E9, 0.0, 2023-02-10 11:33:50.776
215.0, 8796.327864685996, 187500.0, -187500.02235174447, -187500.02235174447, -187500.02235174447, -187500.02235174447, -187500.02235174447, -187500.02235174447, 0.014, 0.042, 0.998, 192.0, 0.0, 0.0, 0.0, 0.0, 0.0, 0.0, 0.0, 0.0, 0.0, 1.676046830776537E9, 0.0, 2023-02-10 11:33:50.776
216.0, 8940.34015421154, 187500.0, -187500.02235174447, -187500.02235174447, -187500.02235174447, -187500.02235174447, -187500.02235174447, -187500.02235174447, 0.014, 0.042, 0.998, 192.0, 0.0, 0.0, 0.0, 0.0, 0.0, 0.0, 0.0, 0.0, 0.0, 1.676046830785396E9, 0.0, 2023-02-10 11:33:50.785
217.0, 8191.891991125583, 187500.0, -187500.02235174447, -187500.02235174447, -187500.02235174447, -187500.02235174447, -187500.02235174447, -187500.02235174447, 0.014, 0.042, 0.998, 192.0, 0.0, 0.0, 0.0, 0.0, 0.0, 0.0, 0.0, 0.0, 0.0, 1.676046830785439E9, 0.0, 2023-02-10 11:33:50.785
218.0, 8334.965507384004, 187500.0, -187500.02235174447, -187500.02235174447, -187500.02235174447, -187500.02235174447, -187500.02235174447, -187500.02235174447, 0.014, 0.042, 0.998, 192.0, 0.0, 0.0, 0.0, 0.0, 0.0, 0.0, 0.0, 0.0, 0.0, 1.676046830791366E9, 0.0, 2023-02-10 11:33:50.791
219.0, 8741.052000648022, 187500.0, -187500.02235174447, -187500.02235174447, -187500.02235174447, -187500.02235174447, -187500.02235174447, -187500.02235174447, 0.014, 0.042, 0.998, 192.0, 0.0, 0.0, 0.0, 0.0, 0.0, 0.0, 0.0, 0.0, 0.0, 1.676046830791408E9, 0.0, 2023-02-10 11:33:50.791
220.0, 8589.909504641237, 187500.0, -187500.02235174447, -187500.02235174447, -187500.02235174447, -187500.02235174447, -187500.02235174447, -187500.02235174447, 0.014, 0.042, 0.998, 192.0, 0.0, 0.0, 0.0, 0.0, 0.0, 0.0, 0.0, 0.0, 0.0, 1.676046830799238E9, 0.0, 2023-02-10 11:33:50.799
221.0, 8203.269029053334, 187500.0, -187500.02235174447, -187500.02235174447, -187500.02235174447, -187500.02235174447, -187500.02235174447, -187500.02235174447, 0.014, 0.042, 0.998, 192.0, 0.0, 0.0, 0.0, 0.0, 0.0, 0.0, 0.0, 0.0, 0.0, 1.676046830799394E9, 0.0, 2023-02-10 11:33:50.799
222.0, 8395.963418002537, 187500.0, -187500.02235174447, -187500.02235174447, -187500.02235174447, -187500.02235174447, -187500.02235174447, -187500.02235174447, 0.014, 0.042, 0.998, 192.0, 0.0, 0.0, 0.0, 0.0, 0.0, 0.0, 0.0, 0.0, 0.0, 1.676046830806186E9, 0.0, 2023-02-10 11:33:50.806
223.0, 8591.921161642214, 187500.0, -187500.02235174447, -187500.02235174447, -187500.02235174447, -187500.02235174447, -187500.02235174447, -187500.02235174447, 0.018000000000000002, 0.042, 0.998, 192.0, 0.0, 144.0, 1.0, 80.0, 31.0, 48.0, 0.0, 0.0, 0.0, 1.676046830806206E9, 0.0, 2023-02-10 11:33:50.806
224.0, 8617.670371254728, 187500.0, -187500.02235174447, -187500.02235174447, -187500.02235174447, -187500.02235174447, -187500.02235174447, -187500.02235174447, 0.018000000000000002, 0.042, 0.998, 192.0, 0.0, 0.0, 0.0, 0.0, 0.0, 0.0, 0.0, 0.0, 0.0, 1.67604683081415E9, 0.0, 2023-02-10 11:33:50.814
225.0, 8466.840799670315, 187500.0, -187500.02235174447, -187500.02235174447, -187500.02235174447, -187500.02235174447, -187500.02235174447, -187500.02235174447, 0.018000000000000002, 0.042, 0.998, 192.0, 0.0, 0.0, 0.0, 0.0, 0.0, 0.0, 0.0, 0.0, 0.0, 1.676046830820745E9, 0.0, 2023-02-10 11:33:50.820
226.0, 8307.718730892984, 187500.0, -187500.02235174447, -187500.02235174447, -187500.02235174447, -187500.02235174447, -187500.02235174447, -187500.02235174447, 0.018000000000000002, 0.042, 0.998, 192.0, 0.0, 0.0, 0.0, 0.0, 0.0, 0.0, 0.0, 0.0, 0.0, 1.676046830820774E9, 0.0, 2023-02-10 11:33:50.820
227.0, 8600.571286746417, 187500.0, -187500.02235174447, -187500.02235174447, -187500.02235174447, -187500.02235174447, -187500.02235174447, -187500.02235174447, 0.018000000000000002, 0.042, 0.998, 192.0, 0.0, 0.0, 0.0, 0.0, 0.0, 0.0, 0.0, 0.0, 0.0, 1.676046830828827E9, 0.0, 2023-02-10 11:33:50.828
228.0, 8543.551986640929, 187500.0, -187500.02235174447, -187500.02235174447, -187500.02235174447, -187500.02235174447, -187500.02235174447, -187500.02235174447, 0.018000000000000002, 0.042, 0.998, 192.0, 0.0, 0.0, 0.0, 0.0, 0.0, 0.0, 0.0, 0.0, 0.0, 1.676046830828846E9, 0.0, 2023-02-10 11:33:50.828
229.0, 8343.302708065834, 187500.0, -187500.02235174447, -187500.02235174447, -187500.02235174447, -187500.02235174447, -187500.02235174447, -187500.02235174447, 0.018000000000000002, 0.042, 0.998, 192.0, 0.0, 0.0, 0.0, 0.0, 0.0, 0.0, 0.0, 0.0, 0.0, 1.676046830836677E9, 0.0, 2023-02-10 11:33:50.836
230.0, 8523.88245152026, 187500.0, -187500.02235174447, -187500.02235174447, -187500.02235174447, -187500.02235174447, -187500.02235174447, -187500.02235174447, 0.018000000000000002, 0.042, 0.998, 192.0, 0.0, 0.0, 0.0, 0.0, 0.0, 0.0, 0.0, 0.0, 0.0, 1.676046830836698E9, 0.0, 2023-02-10 11:33:50.836
231.0, 8814.052798039056, 187500.0, -187500.02235174447, -187500.02235174447, -187500.02235174447, -187500.02235174447, -187500.02235174447, -187500.02235174447, 0.018000000000000002, 0.042, 0.998, 192.0, 0.0, 0.0, 0.0, 0.0, 0.0, 0.0, 0.0, 0.0, 0.0, 1.676046830843624E9, 0.0, 2023-02-10 11:33:50.843
232.0, 8731.664267976794, 187500.0, -187500.02235174447, -187500.02235174447, -187500.02235174447, -187500.02235174447, -187500.02235174447, -187500.02235174447, 0.018000000000000002, 0.042, 0.998, 192.0, 0.0, 0.0, 0.0, 0.0, 0.0, 0.0, 0.0, 0.0, 0.0, 1.676046830843641E9, 0.0, 2023-02-10 11:33:50.843
233.0, 8266.72563156195, 187500.0, -187500.02235174447, -187500.02235174447, -187500.02235174447, -187500.02235174447, -187500.02235174447, -187500.02235174447, 0.02, 0.044, 0.998, 192.0, 0.0, 160.0, 1.0, 96.0, 31.0, 48.0, 0.0, 0.0, 0.0, 1.676046830851299E9, 0.0, 2023-02-10 11:33:50.851
234.0, 8136.280850920779, 187500.0, -187500.02235174447, -187500.02235174447, -187500.02235174447, -187500.02235174447, -187500.02235174447, -187500.02235174447, 0.02, 0.044, 0.998, 192.0, 0.0, 0.0, 0.0, 0.0, 0.0, 0.0, 0.0, 0.0, 0.0, 1.676046830851318E9, 0.0, 2023-02-10 11:33:50.851
235.0, 8516.528727594463, 187500.0, -187500.02235174447, -187500.02235174447, -187500.02235174447, -187500.02235174447, -187500.02235174447, -187500.02235174447, 0.02, 0.044, 0.998, 192.0, 0.0, 0.0, 0.0, 0.0, 0.0, 0.0, 0.0, 0.0, 0.0, 1.676046830859399E9, 0.0, 2023-02-10 11:33:50.859
236.0, 8595.877420410803, 187500.0, -187500.02235174447, -187500.02235174447, -187500.02235174447, -187500.02235174447, -187500.02235174447, -187500.02235174447, 0.02, 0.044, 0.998, 192.0, 0.0, 0.0, 0.0, 0.0, 0.0, 0.0, 0.0, 0.0, 0.0, 1.676046830859567E9, 0.0, 2023-02-10 11:33:50.859
237.0, 8400.053787237857, 187500.0, -187500.02235174447, -187500.02235174447, -187500.02235174447, -187500.02235174447, -187500.02235174447, -187500.02235174447, 0.02, 0.044, 0.998, 192.0, 0.0, 0.0, 0.0, 0.0, 0.0, 0.0, 0.0, 0.0, 0.0, 1.676046830867378E9, 0.0, 2023-02-10 11:33:50.867
238.0, 8345.001440644437, 187500.0, -187500.02235174447, -187500.02235174447, -187500.02235174447, -187500.02235174447, -187500.02235174447, -187500.02235174447, 0.02, 0.044, 0.998, 192.0, 0.0, 0.0, 0.0, 0.0, 0.0, 0.0, 0.0, 0.0, 0.0, 1.676046830867406E9, 0.0, 2023-02-10 11:33:50.867
239.0, 8673.90736030428, 187500.0, -187500.02235174447, -187500.02235174447, -187500.02235174447, -187500.02235174447, -187500.02235174447, -187500.02235174447, 0.02, 0.044, 0.998, 192.0, 0.0, 0.0, 0.0, 0.0, 0.0, 0.0, 0.0, 0.0, 0.0, 1.676046830873481E9, 0.0, 2023-02-10 11:33:50.873
240.0, 9024.628582552503, 187500.0, -187500.02235174447, -187500.02235174447, -187500.02235174447, -187500.02235174447, -187500.02235174447, -187500.02235174447, 0.02, 0.044, 0.998, 192.0, 0.0, 0.0, 0.0, 0.0, 0.0, 0.0, 0.0, 0.0, 0.0, 1.676046830881101E9, 0.0, 2023-02-10 11:33:50.881
241.0, 8672.588607381416, 187500.0, -187500.02235174447, -187500.02235174447, -187500.02235174447, -187500.02235174447, -187500.02235174447, -187500.02235174447, 0.02, 0.044, 0.998, 192.0, 0.0, 0.0, 0.0, 0.0, 0.0, 0.0, 0.0, 0.0, 0.0, 1.676046830881133E9, 0.0, 2023-02-10 11:33:50.881
242.0, 8006.238401679802, 187500.0, -187500.02235174447, -187500.02235174447, -187500.02235174447, -187500.02235174447, -187500.02235174447, -187500.02235174447, 0.02, 0.044, 0.998, 192.0, 0.0, 0.0, 0.0, 0.0, 0.0, 0.0, 0.0, 0.0, 0.0, 1.676046830889163E9, 0.0, 2023-02-10 11:33:50.889
243.0, 8314.267792018389, 187500.0, -187500.02235174447, -187500.02235174447, -187500.02235174447, -187500.02235174447, -187500.02235174447, -187500.02235174447, 0.016, 0.04, 1.0, 192.0, 0.0, 128.0, 1.0, 64.0, 31.0, 64.0, 0.0, 0.0, 0.0, 1.676046830889199E9, 0.0, 2023-02-10 11:33:50.889
244.0, 8568.407126475231, 187500.0, -187500.02235174447, -187500.02235174447, -187500.02235174447, -187500.02235174447, -187500.02235174447, -187500.02235174447, 0.016, 0.04, 1.0, 192.0, 0.0, 0.0, 0.0, 0.0, 0.0, 0.0, 0.0, 0.0, 0.0, 1.676046830897097E9, 0.0, 2023-02-10 11:33:50.897
245.0, 8421.042075281392, 187500.0, -187500.02235174447, -187500.02235174447, -187500.02235174447, -187500.02235174447, -187500.02235174447, -187500.02235174447, 0.016, 0.04, 1.0, 192.0, 0.0, 0.0, 0.0, 0.0, 0.0, 0.0, 0.0, 0.0, 0.0, 1.676046830897118E9, 0.0, 2023-02-10 11:33:50.897
246.0, 8296.654617387607, 187500.0, -187500.02235174447, -187500.02235174447, -187500.02235174447, -187500.02235174447, -187500.02235174447, -187500.02235174447, 0.016, 0.04, 1.0, 192.0, 0.0, 0.0, 0.0, 0.0, 0.0, 0.0, 0.0, 0.0, 0.0, 1.676046830903711E9, 0.0, 2023-02-10 11:33:50.903
247.0, 8456.894273387703, 187500.0, -187500.02235174447, -187500.02235174447, -187500.02235174447, -187500.02235174447, -187500.02235174447, -187500.02235174447, 0.016, 0.04, 1.0, 192.0, 0.0, 0.0, 0.0, 0.0, 0.0, 0.0, 0.0, 0.0, 0.0, 1.676046830903735E9, 0.0, 2023-02-10 11:33:50.903
248.0, 8628.756836504559, 187500.0, -187500.02235174447, -187500.02235174447, -187500.02235174447, -187500.02235174447, -187500.02235174447, -187500.02235174447, 0.016, 0.04, 1.0, 192.0, 0.0, 0.0, 0.0, 0.0, 0.0, 0.0, 0.0, 0.0, 0.0, 1.676046830911637E9, 0.0, 2023-02-10 11:33:50.911
249.0, 8564.249702006544, 187500.0, -187500.02235174447, -187500.02235174447, -187500.02235174447, -187500.02235174447, -187500.02235174447, -187500.02235174447, 0.016, 0.04, 1.0, 192.0, 0.0, 0.0, 0.0, 0.0, 0.0, 0.0, 0.0, 0.0, 0.0, 1.676046830911658E9, 0.0, 2023-02-10 11:33:50.911
250.0, 8365.162714143124, 187500.0, -187500.02235174447, -187500.02235174447, -187500.02235174447, -187500.02235174447, -187500.02235174447, -187500.02235174447, 0.016, 0.04, 1.0, 192.0, 0.0, 0.0, 0.0, 0.0, 0.0, 0.0, 0.0, 0.0, 0.0, 1.676046830919732E9, 0.0, 2023-02-10 11:33:50.919
251.0, 8351.729315725484, 187500.0, -187500.02235174447, -187500.02235174447, -187500.02235174447, -187500.02235174447, -187500.02235174447, -187500.02235174447, 0.016, 0.04, 1.0, 192.0, 0.0, 0.0, 0.0, 0.0, 0.0, 0.0, 0.0, 0.0, 0.0, 1.676046830919912E9, 0.0, 2023-02-10 11:33:50.919
252.0, 8697.600209426906, 187500.0, -187500.02235174447, -187500.02235174447, -187500.02235174447, -187500.02235174447, -187500.02235174447, -187500.02235174447, 0.016, 0.04, 1.0, 192.0, 0.0, 0.0, 0.0, 0.0, 0.0, 0.0, 0.0, 0.0, 0.0, 1.676046830926778E9, 0.0, 2023-02-10 11:33:50.926
253.0, 8719.929602137758, 187500.0, -187500.02235174447, -187500.02235174447, -187500.02235174447, -187500.02235174447, -187500.02235174447, -187500.02235174447, 0.016, 0.042, 0.998, 192.0, 0.0, 128.0, 1.0, 80.0, 31.0, 48.0, 0.0, 0.0, 0.0, 1.676046830926797E9, 0.0, 2023-02-10 11:33:50.926
254.0, 8350.164693613613, 187500.0, -187500.02235174447, -187500.02235174447, -187500.02235174447, -187500.02235174447, -187500.02235174447, -187500.02235174447, 0.016, 0.042, 0.998, 192.0, 0.0, 0.0, 0.0, 0.0, 0.0, 0.0, 0.0, 0.0, 0.0, 1.676046830933266E9, 0.0, 2023-02-10 11:33:50.933
255.0, 8435.458950455064, 187500.0, -187500.02235174447, -187500.02235174447, -187500.02235174447, -187500.02235174447, -187500.02235174447, -187500.02235174447, 0.016, 0.042, 0.998, 192.0, 0.0, 0.0, 0.0, 0.0, 0.0, 0.0, 0.0, 0.0, 0.0, 1.676046830942582E9, 0.0, 2023-02-10 11:33:50.942
0.0, 8440.309279001865, 187500.0, -187500.02235174447, -187500.02235174447, -187500.02235174447, -187500.02235174447, -187500.02235174447, -187500.02235174447, 0.016, 0.042, 0.998, 192.0, 0.0, 0.0, 0.0, 0.0, 0.0, 0.0, 0.0, 0.0, 0.0, 1.676046830942601E9, 0.0, 2023-02-10 11:33:50.942
1.0, 8412.95074378857, 187500.0, -187500.02235174447, -187500.02235174447, -187500.02235174447, -187500.02235174447, -187500.02235174447, -187500.02235174447, 0.016, 0.042, 0.998, 192.0, 0.0, 0.0, 0.0, 0.0, 0.0, 0.0, 0.0, 0.0, 0.0, 1.676046830950701E9, 0.0, 2023-02-10 11:33:50.950
2.0, 8357.36195532822, 187500.0, -187500.02235174447, -187500.02235174447, -187500.02235174447, -187500.02235174447, -187500.02235174447, -187500.02235174447, 0.016, 0.042, 0.998, 192.0, 0.0, 0.0, 0.0, 0.0, 0.0, 0.0, 0.0, 0.0, 0.0, 1.676046830950729E9, 0.0, 2023-02-10 11:33:50.950
3.0, 8376.830324748793, 187500.0, -187500.02235174447, -187500.02235174447, -187500.02235174447, -187500.02235174447, -187500.02235174447, -187500.02235174447, 0.016, 0.042, 0.998, 192.0, 0.0, 0.0, 0.0, 0.0, 0.0, 0.0, 0.0, 0.0, 0.0, 1.676046830956832E9, 0.0, 2023-02-10 11:33:50.956
4.0, 8587.339054028876, 187500.0, -187500.02235174447, -187500.02235174447, -187500.02235174447, -187500.02235174447, -187500.02235174447, -187500.02235174447, 0.016, 0.042, 0.998, 192.0, 0.0, 0.0, 0.0, 0.0, 0.0, 0.0, 0.0, 0.0, 0.0, 1.676046830956879E9, 0.0, 2023-02-10 11:33:50.956
5.0, 8728.1103406084, 187500.0, -187500.02235174447, -187500.02235174447, -187500.02235174447, -187500.02235174447, -187500.02235174447, -187500.02235174447, 0.016, 0.042, 0.998, 192.0, 0.0, 0.0, 0.0, 0.0, 0.0, 0.0, 0.0, 0.0, 0.0, 1.676046830963879E9, 0.0, 2023-02-10 11:33:50.963
6.0, 8302.041387801337, 187500.0, -187500.02235174447, -187500.02235174447, -187500.02235174447, -187500.02235174447, -187500.02235174447, -187500.02235174447, 0.016, 0.042, 0.998, 192.0, 0.0, 0.0, 0.0, 0.0, 0.0, 0.0, 0.0, 0.0, 0.0, 1.676046830963907E9, 0.0, 2023-02-10 11:33:50.963
7.0, 8386.620388820218, 187500.0, -187500.02235174447, -187500.02235174447, -187500.02235174447, -187500.02235174447, -187500.02235174447, -187500.02235174447, 0.018000000000000002, 0.044, 1.004, 192.0, 0.0, 144.0, 1.0, 96.0, 31.0, 96.0, 0.0, 0.0, 0.0, 1.676046830971996E9, 0.0, 2023-02-10 11:33:50.971
8.0, 8859.22567358323, 187500.0, -187500.02235174447, -187500.02235174447, -187500.02235174447, -187500.02235174447, -187500.02235174447, -187500.02235174447, 0.018000000000000002, 0.044, 1.004, 192.0, 0.0, 0.0, 0.0, 0.0, 0.0, 0.0, 0.0, 0.0, 0.0, 1.67604683097202E9, 0.0, 2023-02-10 11:33:50.972
9.0, 8578.063080079923, 187500.0, -187500.02235174447, -187500.02235174447, -187500.02235174447, -187500.02235174447, -187500.02235174447, -187500.02235174447, 0.018000000000000002, 0.044, 1.004, 192.0, 0.0, 0.0, 0.0, 0.0, 0.0, 0.0, 0.0, 0.0, 0.0, 1.67604683097898E9, 0.0, 2023-02-10 11:33:50.978
10.0, 8240.43998008251, 187500.0, -187500.02235174447, -187500.02235174447, -187500.02235174447, -187500.02235174447, -187500.02235174447, -187500.02235174447, 0.018000000000000002, 0.044, 1.004, 192.0, 0.0, 0.0, 0.0, 0.0, 0.0, 0.0, 0.0, 0.0, 0.0, 1.676046830979096E9, 0.0, 2023-02-10 11:33:50.979
11.0, 8228.258279354368, 187500.0, -187500.02235174447, -187500.02235174447, -187500.02235174447, -187500.02235174447, -187500.02235174447, -187500.02235174447, 0.018000000000000002, 0.044, 1.004, 192.0, 0.0, 0.0, 0.0, 0.0, 0.0, 0.0, 0.0, 0.0, 0.0, 1.676046830987994E9, 0.0, 2023-02-10 11:33:50.987
12.0, 8731.261936576599, 187500.0, -187500.02235174447, -187500.02235174447, -187500.02235174447, -187500.02235174447, -187500.02235174447, -187500.02235174447, 0.018000000000000002, 0.044, 1.004, 192.0, 0.0, 0.0, 0.0, 0.0, 0.0, 0.0, 0.0, 0.0, 0.0, 1.676046830988019E9, 0.0, 2023-02-10 11:33:50.988
13.0, 8559.891111837758, 187500.0, -187500.02235174447, -187500.02235174447, -187500.02235174447, -187500.02235174447, -187500.02235174447, -187500.02235174447, 0.018000000000000002, 0.044, 1.004, 192.0, 0.0, 0.0, 0.0, 0.0, 0.0, 0.0, 0.0, 0.0, 0.0, 1.676046830994005E9, 0.0, 2023-02-10 11:33:50.994
14.0, 8246.072619685248, 187500.0, -187500.02235174447, -187500.02235174447, -187500.02235174447, -187500.02235174447, -187500.02235174447, -187500.02235174447, 0.018000000000000002, 0.044, 1.004, 192.0, 0.0, 0.0, 0.0, 0.0, 0.0, 0.0, 0.0, 0.0, 0.0, 1.676046831002139E9, 0.0, 2023-02-10 11:33:51.002
15.0, 8255.147427934102, 187500.0, -187500.02235174447, -187500.02235174447, -187500.02235174447, -187500.02235174447, -187500.02235174447, -187500.02235174447, 0.018000000000000002, 0.044, 1.004, 192.0, 0.0, 0.0, 0.0, 0.0, 0.0, 0.0, 0.0, 0.0, 0.0, 1.676046831002183E9, 0.0, 2023-02-10 11:33:51.002
16.0, 8648.739296047605, 187500.0, -187500.02235174447, -187500.02235174447, -187500.02235174447, -187500.02235174447, -187500.02235174447, -187500.02235174447, 0.014, 0.042, 0.998, 192.0, 0.0, 112.0, 1.0, 80.0, 31.0, 48.0, 0.0, 0.0, 0.0, 1.676046831008542E9, 0.0, 2023-02-10 11:33:51.008
17.0, 8432.396761464686, 187500.0, -187500.02235174447, -187500.02235174447, -187500.02235174447, -187500.02235174447, -187500.02235174447, -187500.02235174447, 0.014, 0.042, 0.998, 192.0, 0.0, 0.0, 0.0, 0.0, 0.0, 0.0, 0.0, 0.0, 0.0, 1.676046831008566E9, 0.0, 2023-02-10 11:33:51.008
18.0, 8229.19705262149, 187500.0, -187500.02235174447, -187500.02235174447, -187500.02235174447, -187500.02235174447, -187500.02235174447, -187500.02235174447, 0.014, 0.042, 0.998, 192.0, 0.0, 0.0, 0.0, 0.0, 0.0, 0.0, 0.0, 0.0, 0.0, 1.676046831016171E9, 0.0, 2023-02-10 11:33:51.016
19.0, 8160.934825054983, 187500.0, -187500.02235174447, -187500.02235174447, -187500.02235174447, -187500.02235174447, -187500.02235174447, -187500.02235174447, 0.014, 0.042, 0.998, 192.0, 0.0, 0.0, 0.0, 0.0, 0.0, 0.0, 0.0, 0.0, 0.0, 1.676046831016191E9, 0.0, 2023-02-10 11:33:51.016
20.0, 8461.364622278765, 187500.0, -187500.02235174447, -187500.02235174447, -187500.02235174447, -187500.02235174447, -187500.02235174447, -187500.02235174447, 0.014, 0.042, 0.998, 192.0, 0.0, 0.0, 0.0, 0.0, 0.0, 0.0, 0.0, 0.0, 0.0, 1.676046831024073E9, 0.0, 2023-02-10 11:33:51.024
21.0, 8676.81308708347, 187500.0, -187500.02235174447, -187500.02235174447, -187500.02235174447, -187500.02235174447, -187500.02235174447, -187500.02235174447, 0.014, 0.042, 0.998, 192.0, 0.0, 0.0, 0.0, 0.0, 0.0, 0.0, 0.0, 0.0, 0.0, 1.676046831024091E9, 0.0, 2023-02-10 11:33:51.024
22.0, 8486.912666191181, 187500.0, -187500.02235174447, -187500.02235174447, -187500.02235174447, -187500.02235174447, -187500.02235174447, -187500.02235174447, 0.014, 0.042, 0.998, 192.0, 0.0, 0.0, 0.0, 0.0, 0.0, 0.0, 0.0, 0.0, 0.0, 1.676046831033569E9, 0.0, 2023-02-10 11:33:51.033
23.0, 8098.595809769132, 187500.0, -187500.02235174447, -187500.02235174447, -187500.02235174447, -187500.02235174447, -187500.02235174447, -187500.02235174447, 0.014, 0.042, 0.998, 192.0, 0.0, 0.0, 0.0, 0.0, 0.0, 0.0, 0.0, 0.0, 0.0, 1.676046831033588E9, 0.0, 2023-02-10 11:33:51.033
24.0, 8161.80654308874, 187500.0, -187500.02235174447, -187500.02235174447, -187500.02235174447, -187500.02235174447, -187500.02235174447, -187500.02235174447, 0.014, 0.042, 0.998, 192.0, 0.0, 0.0, 0.0, 0.0, 0.0, 0.0, 0.0, 0.0, 0.0, 1.676046831039915E9, 0.0, 2023-02-10 11:33:51.039
25.0, 8451.663965185162, 187500.0, -187500.02235174447, -187500.02235174447, -187500.02235174447, -187500.02235174447, -187500.02235174447, -187500.02235174447, 0.014, 0.042, 0.998, 192.0, 0.0, 0.0, 0.0, 0.0, 0.0, 0.0, 0.0, 0.0, 0.0, 1.676046831040083E9, 0.0, 2023-02-10 11:33:51.040
26.0, 8485.01276791248, 187500.0, -187500.02235174447, -187500.02235174447, -187500.02235174447, -187500.02235174447, -187500.02235174447, -187500.02235174447, 0.014, 0.04, 0.998, 192.0, 0.0, 112.0, 1.0, 64.0, 31.0, 48.0, 0.0, 0.0, 0.0, 1.676046831046929E9, 0.0, 2023-02-10 11:33:51.046
27.0, 8299.649751144618, 187500.0, -187500.02235174447, -187500.02235174447, -187500.02235174447, -187500.02235174447, -187500.02235174447, -187500.02235174447, 0.014, 0.04, 0.998, 192.0, 0.0, 0.0, 0.0, 0.0, 0.0, 0.0, 0.0, 0.0, 0.0, 1.676046831046955E9, 0.0, 2023-02-10 11:33:51.046
28.0, 8380.339548628277, 187500.0, -187500.02235174447, -187500.02235174447, -187500.02235174447, -187500.02235174447, -187500.02235174447, -187500.02235174447, 0.014, 0.04, 0.998, 192.0, 0.0, 0.0, 0.0, 0.0, 0.0, 0.0, 0.0, 0.0, 0.0, 1.676046831053924E9, 0.0, 2023-02-10 11:33:51.053
29.0, 8571.178742787688, 187500.0, -187500.02235174447, -187500.02235174447, -187500.02235174447, -187500.02235174447, -187500.02235174447, -187500.02235174447, 0.014, 0.04, 0.998, 192.0, 0.0, 0.0, 0.0, 0.0, 0.0, 0.0, 0.0, 0.0, 0.0, 1.676046831053949E9, 0.0, 2023-02-10 11:33:51.053
30.0, 8385.994539975469, 187500.0, -187500.02235174447, -187500.02235174447, -187500.02235174447, -187500.02235174447, -187500.02235174447, -187500.02235174447, 0.014, 0.04, 0.998, 192.0, 0.0, 0.0, 0.0, 0.0, 0.0, 0.0, 0.0, 0.0, 0.0, 1.676046831060969E9, 0.0, 2023-02-10 11:33:51.060
31.0, 8220.3904653061, 187500.0, -187500.02235174447, -187500.02235174447, -187500.02235174447, -187500.02235174447, -187500.02235174447, -187500.02235174447, 0.014, 0.04, 0.998, 192.0, 0.0, 0.0, 0.0, 0.0, 0.0, 0.0, 0.0, 0.0, 0.0, 1.676046831068532E9, 0.0, 2023-02-10 11:33:51.068
32.0, 8180.246732264368, 187500.0, -187500.02235174447, -187500.02235174447, -187500.02235174447, -187500.02235174447, -187500.02235174447, -187500.02235174447, 0.014, 0.04, 0.998, 192.0, 0.0, 0.0, 0.0, 0.0, 0.0, 0.0, 0.0, 0.0, 0.0, 1.676046831068559E9, 0.0, 2023-02-10 11:33:51.068
33.0, 8359.954757685036, 187500.0, -187500.02235174447, -187500.02235174447, -187500.02235174447, -187500.02235174447, -187500.02235174447, -187500.02235174447, 0.014, 0.04, 0.998, 192.0, 0.0, 0.0, 0.0, 0.0, 0.0, 0.0, 0.0, 0.0, 0.0, 1.676046831076473E9, 0.0, 2023-02-10 11:33:51.076
34.0, 8466.036136869925, 187500.0, -187500.02235174447, -187500.02235174447, -187500.02235174447, -187500.02235174447, -187500.02235174447, -187500.02235174447, 0.014, 0.04, 0.998, 192.0, 0.0, 0.0, 0.0, 0.0, 0.0, 0.0, 0.0, 0.0, 0.0, 1.676046831076496E9, 0.0, 2023-02-10 11:33:51.076
35.0, 8340.978126642482, 187500.0, -187500.02235174447, -187500.02235174447, -187500.02235174447, -187500.02235174447, -187500.02235174447, -187500.02235174447, 0.014, 0.04, 0.998, 192.0, 0.0, 0.0, 0.0, 0.0, 0.0, 0.0, 0.0, 0.0, 0.0, 1.676046831084586E9, 0.0, 2023-02-10 11:33:51.084
36.0, 8256.846160512705, 187500.0, -187500.02235174447, -187500.02235174447, -187500.02235174447, -187500.02235174447, -187500.02235174447, -187500.02235174447, 0.014, 0.038, 1.0, 192.0, 0.0, 112.0, 1.0, 48.0, 31.0, 64.0, 0.0, 0.0, 0.0, 1.67604683108461E9, 0.0, 2023-02-10 11:33:51.084
37.0, 8238.428323081533, 187500.0, -187500.02235174447, -187500.02235174447, -187500.02235174447, -187500.02235174447, -187500.02235174447, -187500.02235174447, 0.014, 0.038, 1.0, 192.0, 0.0, 0.0, 0.0, 0.0, 0.0, 0.0, 0.0, 0.0, 0.0, 1.676046831091193E9, 0.0, 2023-02-10 11:33:51.091
38.0, 8361.18410363008, 187500.0, -187500.02235174447, -187500.02235174447, -187500.02235174447, -187500.02235174447, -187500.02235174447, -187500.02235174447, 0.014, 0.038, 1.0, 192.0, 0.0, 0.0, 0.0, 0.0, 0.0, 0.0, 0.0, 0.0, 0.0, 1.676046831091217E9, 0.0, 2023-02-10 11:33:51.091
39.0, 8328.952888125526, 187500.0, -187500.02235174447, -187500.02235174447, -187500.02235174447, -187500.02235174447, -187500.02235174447, -187500.02235174447, 0.014, 0.038, 1.0, 192.0, 0.0, 0.0, 0.0, 0.0, 0.0, 0.0, 0.0, 0.0, 0.0, 1.676046831099162E9, 0.0, 2023-02-10 11:33:51.099
40.0, 8384.273455652412, 187500.0, -187500.02235174447, -187500.02235174447, -187500.02235174447, -187500.02235174447, -187500.02235174447, -187500.02235174447, 0.014, 0.038, 1.0, 192.0, 0.0, 0.0, 0.0, 0.0, 0.0, 0.0, 0.0, 0.0, 0.0, 1.676046831099302E9, 0.0, 2023-02-10 11:33:51.099
41.0, 8330.182234070568, 187500.0, -187500.02235174447, -187500.02235174447, -187500.02235174447, -187500.02235174447, -187500.02235174447, -187500.02235174447, 0.014, 0.038, 1.0, 192.0, 0.0, 0.0, 0.0, 0.0, 0.0, 0.0, 0.0, 0.0, 0.0, 1.676046831107061E9, 0.0, 2023-02-10 11:33:51.107
42.0, 8398.064481981335, 187500.0, -187500.02235174447, -187500.02235174447, -187500.02235174447, -187500.02235174447, -187500.02235174447, -187500.02235174447, 0.014, 0.038, 1.0, 192.0, 0.0, 0.0, 0.0, 0.0, 0.0, 0.0, 0.0, 0.0, 0.0, 1.676046831107081E9, 0.0, 2023-02-10 11:33:51.107
43.0, 8386.285112653388, 187500.0, -187500.02235174447, -187500.02235174447, -187500.02235174447, -187500.02235174447, -187500.02235174447, -187500.02235174447, 0.014, 0.038, 1.0, 192.0, 0.0, 0.0, 0.0, 0.0, 0.0, 0.0, 0.0, 0.0, 0.0, 1.676046831114101E9, 0.0, 2023-02-10 11:33:51.114
44.0, 8119.293525134746, 187500.0, -187500.02235174447, -187500.02235174447, -187500.02235174447, -187500.02235174447, -187500.02235174447, -187500.02235174447, 0.014, 0.038, 1.0, 192.0, 0.0, 0.0, 0.0, 0.0, 0.0, 0.0, 0.0, 0.0, 0.0, 1.676046831114131E9, 0.0, 2023-02-10 11:33:51.114
45.0, 8257.472009357454, 187500.0, -187500.02235174447, -187500.02235174447, -187500.02235174447, -187500.02235174447, -187500.02235174447, -187500.02235174447, 0.014, 0.038, 1.0, 192.0, 0.0, 0.0, 0.0, 0.0, 0.0, 0.0, 0.0, 0.0, 0.0, 1.676046831120795E9, 0.0, 2023-02-10 11:33:51.120
46.0, 8678.109488261878, 187500.0, -187500.02235174447, -187500.02235174447, -187500.02235174447, -187500.02235174447, -187500.02235174447, -187500.02235174447, 0.012, 0.036000000000000004, 1.0, 192.0, 0.0, 96.0, 1.0, 32.0, 31.0, 64.0, 0.0, 0.0, 0.0, 1.676046831128805E9, 0.0, 2023-02-10 11:33:51.128
47.0, 8334.160844583612, 187500.0, -187500.02235174447, -187500.02235174447, -187500.02235174447, -187500.02235174447, -187500.02235174447, -187500.02235174447, 0.012, 0.036000000000000004, 1.0, 192.0, 0.0, 0.0, 0.0, 0.0, 0.0, 0.0, 0.0, 0.0, 0.0, 1.676046831128827E9, 0.0, 2023-02-10 11:33:51.128
48.0, 8080.915579904984, 187500.0, -187500.02235174447, -187500.02235174447, -187500.02235174447, -187500.02235174447, -187500.02235174447, -187500.02235174447, 0.012, 0.036000000000000004, 1.0, 192.0, 0.0, 0.0, 0.0, 0.0, 0.0, 0.0, 0.0, 0.0, 0.0, 1.676046831136819E9, 0.0, 2023-02-10 11:33:51.136
49.0, 8290.798460340317, 187500.0, -187500.02235174447, -187500.02235174447, -187500.02235174447, -187500.02235174447, -187500.02235174447, -187500.02235174447, 0.012, 0.036000000000000004, 1.0, 192.0, 0.0, 0.0, 0.0, 0.0, 0.0, 0.0, 0.0, 0.0, 0.0, 1.676046831136865E9, 0.0, 2023-02-10 11:33:51.136
50.0, 8341.93925165406, 187500.0, -187500.02235174447, -187500.02235174447, -187500.02235174447, -187500.02235174447, -187500.02235174447, -187500.02235174447, 0.012, 0.036000000000000004, 1.0, 192.0, 0.0, 0.0, 0.0, 0.0, 0.0, 0.0, 0.0, 0.0, 0.0, 1.676046831144034E9, 0.0, 2023-02-10 11:33:51.144
51.0, 8281.522486391365, 187500.0, -187500.02235174447, -187500.02235174447, -187500.02235174447, -187500.02235174447, -187500.02235174447, -187500.02235174447, 0.012, 0.036000000000000004, 1.0, 192.0, 0.0, 0.0, 0.0, 0.0, 0.0, 0.0, 0.0, 0.0, 0.0, 1.676046831144057E9, 0.0, 2023-02-10 11:33:51.144
52.0, 8188.181601546003, 187500.0, -187500.02235174447, -187500.02235174447, -187500.02235174447, -187500.02235174447, -187500.02235174447, -187500.02235174447, 0.012, 0.036000000000000004, 1.0, 192.0, 0.0, 0.0, 0.0, 0.0, 0.0, 0.0, 0.0, 0.0, 0.0, 1.676046831151501E9, 0.0, 2023-02-10 11:33:51.151
53.0, 8313.865460618194, 187500.0, -187500.02235174447, -187500.02235174447, -187500.02235174447, -187500.02235174447, -187500.02235174447, -187500.02235174447, 0.012, 0.036000000000000004, 1.0, 192.0, 0.0, 0.0, 0.0, 0.0, 0.0, 0.0, 0.0, 0.0, 0.0, 1.67604683115153E9, 0.0, 2023-02-10 11:33:51.151
54.0, 8604.505193770552, 187500.0, -187500.02235174447, -187500.02235174447, -187500.02235174447, -187500.02235174447, -187500.02235174447, -187500.02235174447, 0.012, 0.036000000000000004, 1.0, 192.0, 0.0, 0.0, 0.0, 0.0, 0.0, 0.0, 0.0, 0.0, 0.0, 1.676046831159395E9, 0.0, 2023-02-10 11:33:51.159
55.0, 8506.40338735621, 187500.0, -187500.02235174447, -187500.02235174447, -187500.02235174447, -187500.02235174447, -187500.02235174447, -187500.02235174447, 0.012, 0.036000000000000004, 1.0, 192.0, 0.0, 0.0, 0.0, 0.0, 0.0, 0.0, 0.0, 0.0, 0.0, 1.676046831159507E9, 0.0, 2023-02-10 11:33:51.159
56.0, 8182.593665432176, 187500.0, -187500.02235174447, -187500.02235174447, -187500.02235174447, -187500.02235174447, -187500.02235174447, -187500.02235174447, 0.01, 0.04, 1.002, 192.0, 0.0, 80.0, 1.0, 64.0, 31.0, 80.0, 0.0, 0.0, 0.0, 1.676046831167488E9, 0.0, 2023-02-10 11:33:51.167
57.0, 8071.840771656129, 187500.0, -187500.02235174447, -187500.02235174447, -187500.02235174447, -187500.02235174447, -187500.02235174447, -187500.02235174447, 0.01, 0.04, 1.002, 192.0, 0.0, 0.0, 0.0, 0.0, 0.0, 0.0, 0.0, 0.0, 0.0, 1.676046831167516E9, 0.0, 2023-02-10 11:33:51.167
58.0, 8304.16480352459, 187500.0, -187500.02235174447, -187500.02235174447, -187500.02235174447, -187500.02235174447, -187500.02235174447, -187500.02235174447, 0.01, 0.04, 1.002, 192.0, 0.0, 0.0, 0.0, 0.0, 0.0, 0.0, 0.0, 0.0, 0.0, 1.676046831175622E9, 0.0, 2023-02-10 11:33:51.175
59.0, 8417.644610124184, 187500.0, -187500.02235174447, -187500.02235174447, -187500.02235174447, -187500.02235174447, -187500.02235174447, -187500.02235174447, 0.01, 0.04, 1.002, 192.0, 0.0, 0.0, 0.0, 0.0, 0.0, 0.0, 0.0, 0.0, 0.0, 1.676046831175721E9, 0.0, 2023-02-10 11:33:51.175
60.0, 8343.190949343556, 187500.0, -187500.02235174447, -187500.02235174447, -187500.02235174447, -187500.02235174447, -187500.02235174447, -187500.02235174447, 0.01, 0.04, 1.002, 192.0, 0.0, 0.0, 0.0, 0.0, 0.0, 0.0, 0.0, 0.0, 0.0, 1.676046831181626E9, 0.0, 2023-02-10 11:33:51.181
61.0, 8232.05807591177, 187500.0, -187500.02235174447, -187500.02235174447, -187500.02235174447, -187500.02235174447, -187500.02235174447, -187500.02235174447, 0.01, 0.04, 1.002, 192.0, 0.0, 0.0, 0.0, 0.0, 0.0, 0.0, 0.0, 0.0, 0.0, 1.676046831188959E9, 0.0, 2023-02-10 11:33:51.188
62.0, 8260.601253581197, 187500.0, -187500.02235174447, -187500.02235174447, -187500.02235174447, -187500.02235174447, -187500.02235174447, -187500.02235174447, 0.01, 0.04, 1.002, 192.0, 0.0, 0.0, 0.0, 0.0, 0.0, 0.0, 0.0, 0.0, 0.0, 1.676046831188977E9, 0.0, 2023-02-10 11:33:51.188
63.0, 8325.711885179506, 187500.0, -187500.02235174447, -187500.02235174447, -187500.02235174447, -187500.02235174447, -187500.02235174447, -187500.02235174447, 0.01, 0.04, 1.002, 192.0, 0.0, 0.0, 0.0, 0.0, 0.0, 0.0, 0.0, 0.0, 0.0, 1.676046831197001E9, 0.0, 2023-02-10 11:33:51.197
64.0, 8369.096621167257, 187500.0, -187500.02235174447, -187500.02235174447, -187500.02235174447, -187500.02235174447, -187500.02235174447, -187500.02235174447, 0.01, 0.04, 1.002, 192.0, 0.0, 0.0, 0.0, 0.0, 0.0, 0.0, 0.0, 0.0, 0.0, 1.676046831197018E9, 0.0, 2023-02-10 11:33:51.197
65.0, 8182.034871820792, 187500.0, -187500.02235174447, -187500.02235174447, -187500.02235174447, -187500.02235174447, -187500.02235174447, -187500.02235174447, 0.014, 0.044, 1.0, 192.0, 0.0, 112.0, 1.0, 96.0, 31.0, 64.0, 0.0, 0.0, 0.0, 1.676046831203775E9, 0.0, 2023-02-10 11:33:51.203
66.0, 8305.461204702999, 187500.0, -187500.02235174447, -187500.02235174447, -187500.02235174447, -187500.02235174447, -187500.02235174447, -187500.02235174447, 0.014, 0.044, 1.0, 192.0, 0.0, 0.0, 0.0, 0.0, 0.0, 0.0, 0.0, 0.0, 0.0, 1.676046831203797E9, 0.0, 2023-02-10 11:33:51.203
67.0, 8519.412102629198, 187500.0, -187500.02235174447, -187500.02235174447, -187500.02235174447, -187500.02235174447, -187500.02235174447, -187500.02235174447, 0.014, 0.044, 1.0, 192.0, 0.0, 0.0, 0.0, 0.0, 0.0, 0.0, 0.0, 0.0, 0.0, 1.676046831211704E9, 0.0, 2023-02-10 11:33:51.211
68.0, 8230.895785200093, 187500.0, -187500.02235174447, -187500.02235174447, -187500.02235174447, -187500.02235174447, -187500.02235174447, -187500.02235174447, 0.014, 0.044, 1.0, 192.0, 0.0, 0.0, 0.0, 0.0, 0.0, 0.0, 0.0, 0.0, 0.0, 1.676046831211765E9, 0.0, 2023-02-10 11:33:51.211
69.0, 8057.759172649286, 187500.0, -187500.02235174447, -187500.02235174447, -187500.02235174447, -187500.02235174447, -187500.02235174447, -187500.02235174447, 0.014, 0.044, 1.0, 192.0, 0.0, 0.0, 0.0, 0.0, 0.0, 0.0, 0.0, 0.0, 0.0, 1.676046831219809E9, 0.0, 2023-02-10 11:33:51.219
70.0, 8206.733549443907, 187500.0, -187500.02235174447, -187500.02235174447, -187500.02235174447, -187500.02235174447, -187500.02235174447, -187500.02235174447, 0.014, 0.044, 1.0, 192.0, 0.0, 0.0, 0.0, 0.0, 0.0, 0.0, 0.0, 0.0, 0.0, 1.67604683122E9, 0.0, 2023-02-10 11:33:51.220
71.0, 8498.379111096754, 187500.0, -187500.02235174447, -187500.02235174447, -187500.02235174447, -187500.02235174447, -187500.02235174447, -187500.02235174447, 0.014, 0.044, 1.0, 192.0, 0.0, 0.0, 0.0, 0.0, 0.0, 0.0, 0.0, 0.0, 0.0, 1.676046831226357E9, 0.0, 2023-02-10 11:33:51.226
72.0, 8407.385159419198, 187500.0, -187500.02235174447, -187500.02235174447, -187500.02235174447, -187500.02235174447, -187500.02235174447, -187500.02235174447, 0.014, 0.044, 1.0, 192.0, 0.0, 0.0, 0.0, 0.0, 0.0, 0.0, 0.0, 0.0, 0.0, 1.676046831226378E9, 0.0, 2023-02-10 11:33:51.226
73.0, 8149.133103982581, 187500.0, -187500.02235174447, -187500.02235174447, -187500.02235174447, -187500.02235174447, -187500.02235174447, -187500.02235174447, 0.014, 0.044, 1.0, 192.0, 0.0, 0.0, 0.0, 0.0, 0.0, 0.0, 0.0, 0.0, 0.0, 1.676046831234335E9, 0.0, 2023-02-10 11:33:51.234
74.0, 8117.639496045053, 187500.0, -187500.02235174447, -187500.02235174447, -187500.02235174447, -187500.02235174447, -187500.02235174447, -187500.02235174447, 0.014, 0.044, 1.0, 192.0, 0.0, 0.0, 0.0, 0.0, 0.0, 0.0, 0.0, 0.0, 0.0, 1.676046831234356E9, 0.0, 2023-02-10 11:33:51.234
75.0, 8333.155016083123, 187500.0, -187500.02235174447, -187500.02235174447, -187500.02235174447, -187500.02235174447, -187500.02235174447, -187500.02235174447, 0.02, 0.042, 0.996, 192.0, 0.0, 160.0, 1.0, 80.0, 31.0, 32.0, 0.0, 0.0, 0.0, 1.676046831241309E9, 0.0, 2023-02-10 11:33:51.241
76.0, 8371.3764991017, 187500.0, -187500.02235174447, -187500.02235174447, -187500.02235174447, -187500.02235174447, -187500.02235174447, -187500.02235174447, 0.02, 0.042, 0.996, 192.0, 0.0, 0.0, 0.0, 0.0, 0.0, 0.0, 0.0, 0.0, 0.0, 1.676046831249312E9, 0.0, 2023-02-10 11:33:51.249
77.0, 8258.67900355804, 187500.0, -187500.02235174447, -187500.02235174447, -187500.02235174447, -187500.02235174447, -187500.02235174447, -187500.02235174447, 0.02, 0.042, 0.996, 192.0, 0.0, 0.0, 0.0, 0.0, 0.0, 0.0, 0.0, 0.0, 0.0, 1.676046831249335E9, 0.0, 2023-02-10 11:33:51.249
78.0, 8289.2561899729, 187500.0, -187500.02235174447, -187500.02235174447, -187500.02235174447, -187500.02235174447, -187500.02235174447, -187500.02235174447, 0.02, 0.042, 0.996, 192.0, 0.0, 0.0, 0.0, 0.0, 0.0, 0.0, 0.0, 0.0, 0.0, 1.676046831257372E9, 0.0, 2023-02-10 11:33:51.257
79.0, 8493.126451149756, 187500.0, -187500.02235174447, -187500.02235174447, -187500.02235174447, -187500.02235174447, -187500.02235174447, -187500.02235174447, 0.02, 0.042, 0.996, 192.0, 0.0, 0.0, 0.0, 0.0, 0.0, 0.0, 0.0, 0.0, 0.0, 1.676046831257393E9, 0.0, 2023-02-10 11:33:51.257
80.0, 8401.99838900547, 187500.0, -187500.02235174447, -187500.02235174447, -187500.02235174447, -187500.02235174447, -187500.02235174447, -187500.02235174447, 0.02, 0.042, 0.996, 192.0, 0.0, 0.0, 0.0, 0.0, 0.0, 0.0, 0.0, 0.0, 0.0, 1.676046831263919E9, 0.0, 2023-02-10 11:33:51.263
81.0, 8128.345981639145, 187500.0, -187500.02235174447, -187500.02235174447, -187500.02235174447, -187500.02235174447, -187500.02235174447, -187500.02235174447, 0.02, 0.042, 0.996, 192.0, 0.0, 0.0, 0.0, 0.0, 0.0, 0.0, 0.0, 0.0, 0.0, 1.67604683126394E9, 0.0, 2023-02-10 11:33:51.263
82.0, 8053.758210391786, 187500.0, -187500.02235174447, -187500.02235174447, -187500.02235174447, -187500.02235174447, -187500.02235174447, -187500.02235174447, 0.02, 0.042, 0.996, 192.0, 0.0, 0.0, 0.0, 0.0, 0.0, 0.0, 0.0, 0.0, 0.0, 1.676046831271915E9, 0.0, 2023-02-10 11:33:51.271
83.0, 8389.906095255148, 187500.0, -187500.02235174447, -187500.02235174447, -187500.02235174447, -187500.02235174447, -187500.02235174447, -187500.02235174447, 0.02, 0.042, 0.996, 192.0, 0.0, 0.0, 0.0, 0.0, 0.0, 0.0, 0.0, 0.0, 0.0, 1.676046831271935E9, 0.0, 2023-02-10 11:33:51.271
84.0, 8512.706579292606, 187500.0, -187500.02235174447, -187500.02235174447, -187500.02235174447, -187500.02235174447, -187500.02235174447, -187500.02235174447, 0.02, 0.042, 0.996, 192.0, 0.0, 0.0, 0.0, 0.0, 0.0, 0.0, 0.0, 0.0, 0.0, 1.676046831279064E9, 0.0, 2023-02-10 11:33:51.279
85.0, 8339.525263252886, 187500.0, -187500.02235174447, -187500.02235174447, -187500.02235174447, -187500.02235174447, -187500.02235174447, -187500.02235174447, 0.016, 0.048, 0.996, 192.0, 0.0, 128.0, 1.0, 128.0, 31.0, 32.0, 0.0, 0.0, 0.0, 1.676046831279196E9, 0.0, 2023-02-10 11:33:51.279
86.0, 8090.951513165416, 187500.0, -187500.02235174447, -187500.02235174447, -187500.02235174447, -187500.02235174447, -187500.02235174447, -187500.02235174447, 0.016, 0.048, 0.996, 192.0, 0.0, 0.0, 0.0, 0.0, 0.0, 0.0, 0.0, 0.0, 0.0, 1.676046831286584E9, 0.0, 2023-02-10 11:33:51.286
87.0, 8048.818474867163, 187500.0, -187500.02235174447, -187500.02235174447, -187500.02235174447, -187500.02235174447, -187500.02235174447, -187500.02235174447, 0.016, 0.048, 0.996, 192.0, 0.0, 0.0, 0.0, 0.0, 0.0, 0.0, 0.0, 0.0, 0.0, 1.676046831286607E9, 0.0, 2023-02-10 11:33:51.286
88.0, 8297.571038910275, 187500.0, -187500.02235174447, -187500.02235174447, -187500.02235174447, -187500.02235174447, -187500.02235174447, -187500.02235174447, 0.016, 0.048, 0.996, 192.0, 0.0, 0.0, 0.0, 0.0, 0.0, 0.0, 0.0, 0.0, 0.0, 1.676046831294517E9, 0.0, 2023-02-10 11:33:51.294
89.0, 8274.97342526596, 187500.0, -187500.02235174447, -187500.02235174447, -187500.02235174447, -187500.02235174447, -187500.02235174447, -187500.02235174447, 0.016, 0.048, 0.996, 192.0, 0.0, 0.0, 0.0, 0.0, 0.0, 0.0, 0.0, 0.0, 0.0, 1.676046831294538E9, 0.0, 2023-02-10 11:33:51.294
90.0, 8252.711087788473, 187500.0, -187500.02235174447, -187500.02235174447, -187500.02235174447, -187500.02235174447, -187500.02235174447, -187500.02235174447, 0.016, 0.048, 0.996, 192.0, 0.0, 0.0, 0.0, 0.0, 0.0, 0.0, 0.0, 0.0, 0.0, 1.67604683130169E9, 0.0, 2023-02-10 11:33:51.301
91.0, 8290.574942895764, 187500.0, -187500.02235174447, -187500.02235174447, -187500.02235174447, -187500.02235174447, -187500.02235174447, -187500.02235174447, 0.016, 0.048, 0.996, 192.0, 0.0, 0.0, 0.0, 0.0, 0.0, 0.0, 0.0, 0.0, 0.0, 1.676046831301714E9, 0.0, 2023-02-10 11:33:51.301
92.0, 8347.370725556699, 187500.0, -187500.02235174447, -187500.02235174447, -187500.02235174447, -187500.02235174447, -187500.02235174447, -187500.02235174447, 0.016, 0.048, 0.996, 192.0, 0.0, 0.0, 0.0, 0.0, 0.0, 0.0, 0.0, 0.0, 0.0, 1.676046831308652E9, 0.0, 2023-02-10 11:33:51.308
93.0, 8218.736436216406, 187500.0, -187500.02235174447, -187500.02235174447, -187500.02235174447, -187500.02235174447, -187500.02235174447, -187500.02235174447, 0.016, 0.048, 0.996, 192.0, 0.0, 0.0, 0.0, 0.0, 0.0, 0.0, 0.0, 0.0, 0.0, 1.676046831316246E9, 0.0, 2023-02-10 11:33:51.316
94.0, 8067.973919865361, 187500.0, -187500.02235174447, -187500.02235174447, -187500.02235174447, -187500.02235174447, -187500.02235174447, -187500.02235174447, 0.016, 0.048, 0.996, 192.0, 0.0, 0.0, 0.0, 0.0, 0.0, 0.0, 0.0, 0.0, 0.0, 1.676046831316271E9, 0.0, 2023-02-10 11:33:51.316
95.0, 8122.199251913936, 187500.0, -187500.02235174447, -187500.02235174447, -187500.02235174447, -187500.02235174447, -187500.02235174447, -187500.02235174447, 0.014, 0.04, 0.998, 192.0, 0.0, 112.0, 1.0, 64.0, 31.0, 48.0, 0.0, 0.0, 0.0, 1.67604683132424E9, 0.0, 2023-02-10 11:33:51.324
96.0, 8459.084744344324, 187500.0, -187500.02235174447, -187500.02235174447, -187500.02235174447, -187500.02235174447, -187500.02235174447, -187500.02235174447, 0.014, 0.04, 0.998, 192.0, 0.0, 0.0, 0.0, 0.0, 0.0, 0.0, 0.0, 0.0, 0.0, 1.676046831324262E9, 0.0, 2023-02-10 11:33:51.324
97.0, 8491.338311593332, 187500.0, -187500.02235174447, -187500.02235174447, -187500.02235174447, -187500.02235174447, -187500.02235174447, -187500.02235174447, 0.014, 0.04, 0.998, 192.0, 0.0, 0.0, 0.0, 0.0, 0.0, 0.0, 0.0, 0.0, 0.0, 1.676046831332213E9, 0.0, 2023-02-10 11:33:51.332
98.0, 8217.10475887117, 187500.0, -187500.02235174447, -187500.02235174447, -187500.02235174447, -187500.02235174447, -187500.02235174447, -187500.02235174447, 0.014, 0.04, 0.998, 192.0, 0.0, 0.0, 0.0, 0.0, 0.0, 0.0, 0.0, 0.0, 0.0, 1.676046831332235E9, 0.0, 2023-02-10 11:33:51.332
99.0, 8151.815313317217, 187500.0, -187500.02235174447, -187500.02235174447, -187500.02235174447, -187500.02235174447, -187500.02235174447, -187500.02235174447, 0.014, 0.04, 0.998, 192.0, 0.0, 0.0, 0.0, 0.0, 0.0, 0.0, 0.0, 0.0, 0.0, 1.676046831340276E9, 0.0, 2023-02-10 11:33:51.340
100.0, 8270.748945563906, 187500.0, -187500.02235174447, -187500.02235174447, -187500.02235174447, -187500.02235174447, -187500.02235174447, -187500.02235174447, 0.014, 0.04, 0.998, 192.0, 0.0, 0.0, 0.0, 0.0, 0.0, 0.0, 0.0, 0.0, 0.0, 1.676046831340405E9, 0.0, 2023-02-10 11:33:51.340
101.0, 8473.72513696255, 187500.0, -187500.02235174447, -187500.02235174447, -187500.02235174447, -187500.02235174447, -187500.02235174447, -187500.02235174447, 0.014, 0.04, 0.998, 192.0, 0.0, 0.0, 0.0, 0.0, 0.0, 0.0, 0.0, 0.0, 0.0, 1.676046831346801E9, 0.0, 2023-02-10 11:33:51.346
102.0, 8209.661627967553, 187500.0, -187500.02235174447, -187500.02235174447, -187500.02235174447, -187500.02235174447, -187500.02235174447, -187500.02235174447, 0.014, 0.04, 0.998, 192.0, 0.0, 0.0, 0.0, 0.0, 0.0, 0.0, 0.0, 0.0, 0.0, 1.67604683134682E9, 0.0, 2023-02-10 11:33:51.346
103.0, 7912.294019734147, 187500.0, -187500.02235174447, -187500.02235174447, -187500.02235174447, -187500.02235174447, -187500.02235174447, -187500.02235174447, 0.014, 0.04, 0.998, 192.0, 0.0, 0.0, 0.0, 0.0, 0.0, 0.0, 0.0, 0.0, 0.0, 1.676046831355202E9, 0.0, 2023-02-10 11:33:51.355
104.0, 8233.175663134536, 187500.0, -187500.02235174447, -187500.02235174447, -187500.02235174447, -187500.02235174447, -187500.02235174447, -187500.02235174447, 0.014, 0.04, 0.998, 192.0, 0.0, 0.0, 0.0, 0.0, 0.0, 0.0, 0.0, 0.0, 0.0, 1.67604683135522E9, 0.0, 2023-02-10 11:33:51.355
105.0, 8413.420130422131, 187500.0, -187500.02235174447, -187500.02235174447, -187500.02235174447, -187500.02235174447, -187500.02235174447, -187500.02235174447, 0.02, 0.04, 1.004, 192.0, 0.0, 160.0, 1.0, 64.0, 31.0, 96.0, 0.0, 0.0, 0.0, 1.676046831361429E9, 0.0, 2023-02-10 11:33:51.361
106.0, 8125.931993237972, 187500.0, -187500.02235174447, -187500.02235174447, -187500.02235174447, -187500.02235174447, -187500.02235174447, -187500.02235174447, 0.02, 0.04, 1.004, 192.0, 0.0, 0.0, 0.0, 0.0, 0.0, 0.0, 0.0, 0.0, 0.0, 1.676046831361443E9, 0.0, 2023-02-10 11:33:51.361
107.0, 8130.2011764289355, 187500.0, -187500.02235174447, -187500.02235174447, -187500.02235174447, -187500.02235174447, -187500.02235174447, -187500.02235174447, 0.02, 0.04, 1.004, 192.0, 0.0, 0.0, 0.0, 0.0, 0.0, 0.0, 0.0, 0.0, 0.0, 1.676046831368365E9, 0.0, 2023-02-10 11:33:51.368
108.0, 8459.285910044422, 187500.0, -187500.02235174447, -187500.02235174447, -187500.02235174447, -187500.02235174447, -187500.02235174447, -187500.02235174447, 0.02, 0.04, 1.004, 192.0, 0.0, 0.0, 0.0, 0.0, 0.0, 0.0, 0.0, 0.0, 0.0, 1.676046831376423E9, 0.0, 2023-02-10 11:33:51.376
109.0, 8434.743694632494, 187500.0, -187500.02235174447, -187500.02235174447, -187500.02235174447, -187500.02235174447, -187500.02235174447, -187500.02235174447, 0.02, 0.04, 1.004, 192.0, 0.0, 0.0, 0.0, 0.0, 0.0, 0.0, 0.0, 0.0, 0.0, 1.676046831376445E9, 0.0, 2023-02-10 11:33:51.376
110.0, 8110.7104552639075, 187500.0, -187500.02235174447, -187500.02235174447, -187500.02235174447, -187500.02235174447, -187500.02235174447, -187500.02235174447, 0.02, 0.04, 1.004, 192.0, 0.0, 0.0, 0.0, 0.0, 0.0, 0.0, 0.0, 0.0, 0.0, 1.676046831384603E9, 0.0, 2023-02-10 11:33:51.384
111.0, 7930.242470531759, 187500.0, -187500.02235174447, -187500.02235174447, -187500.02235174447, -187500.02235174447, -187500.02235174447, -187500.02235174447, 0.02, 0.04, 1.004, 192.0, 0.0, 0.0, 0.0, 0.0, 0.0, 0.0, 0.0, 0.0, 0.0, 1.676046831384625E9, 0.0, 2023-02-10 11:33:51.384
112.0, 8159.95134829895, 187500.0, -187500.02235174447, -187500.02235174447, -187500.02235174447, -187500.02235174447, -187500.02235174447, -187500.02235174447, 0.02, 0.04, 1.004, 192.0, 0.0, 0.0, 0.0, 0.0, 0.0, 0.0, 0.0, 0.0, 0.0, 1.676046831391133E9, 0.0, 2023-02-10 11:33:51.391
113.0, 8446.232491282522, 187500.0, -187500.02235174447, -187500.02235174447, -187500.02235174447, -187500.02235174447, -187500.02235174447, -187500.02235174447, 0.02, 0.04, 1.004, 192.0, 0.0, 0.0, 0.0, 0.0, 0.0, 0.0, 0.0, 0.0, 0.0, 1.676046831391154E9, 0.0, 2023-02-10 11:33:51.391
114.0, 8421.489110170498, 187500.0, -187500.02235174447, -187500.02235174447, -187500.02235174447, -187500.02235174447, -187500.02235174447, -187500.02235174447, 0.02, 0.042, 1.002, 192.0, 0.0, 160.0, 1.0, 80.0, 31.0, 80.0, 0.0, 0.0, 0.0, 1.676046831399649E9, 0.0, 2023-02-10 11:33:51.399
115.0, 8064.710565174886, 187500.0, -187500.02235174447, -187500.02235174447, -187500.02235174447, -187500.02235174447, -187500.02235174447, -187500.02235174447, 0.02, 0.042, 1.002, 192.0, 0.0, 0.0, 0.0, 0.0, 0.0, 0.0, 0.0, 0.0, 0.0, 1.676046831400077E9, 0.0, 2023-02-10 11:33:51.400
116.0, 8173.608264161142, 187500.0, -187500.02235174447, -187500.02235174447, -187500.02235174447, -187500.02235174447, -187500.02235174447, -187500.02235174447, 0.02, 0.042, 1.002, 192.0, 0.0, 0.0, 0.0, 0.0, 0.0, 0.0, 0.0, 0.0, 0.0, 1.676046831407235E9, 0.0, 2023-02-10 11:33:51.407
117.0, 8328.349391025233, 187500.0, -187500.02235174447, -187500.02235174447, -187500.02235174447, -187500.02235174447, -187500.02235174447, -187500.02235174447, 0.02, 0.042, 1.002, 192.0, 0.0, 0.0, 0.0, 0.0, 0.0, 0.0, 0.0, 0.0, 0.0, 1.676046831407267E9, 0.0, 2023-02-10 11:33:51.407
118.0, 8410.268534453933, 187500.0, -187500.02235174447, -187500.02235174447, -187500.02235174447, -187500.02235174447, -187500.02235174447, -187500.02235174447, 0.02, 0.042, 1.002, 192.0, 0.0, 0.0, 0.0, 0.0, 0.0, 0.0, 0.0, 0.0, 0.0, 1.676046831414225E9, 0.0, 2023-02-10 11:33:51.414
119.0, 8049.891358601018, 187500.0, -187500.02235174447, -187500.02235174447, -187500.02235174447, -187500.02235174447, -187500.02235174447, -187500.02235174447, 0.02, 0.042, 1.002, 192.0, 0.0, 0.0, 0.0, 0.0, 0.0, 0.0, 0.0, 0.0, 0.0, 1.676046831414256E9, 0.0, 2023-02-10 11:33:51.414
120.0, 8133.0174962303045, 187500.0, -187500.02235174447, -187500.02235174447, -187500.02235174447, -187500.02235174447, -187500.02235174447, -187500.02235174447, 0.02, 0.042, 1.002, 192.0, 0.0, 0.0, 0.0, 0.0, 0.0, 0.0, 0.0, 0.0, 0.0, 1.676046831421702E9, 0.0, 2023-02-10 11:33:51.421
121.0, 8429.871014341237, 187500.0, -187500.02235174447, -187500.02235174447, -187500.02235174447, -187500.02235174447, -187500.02235174447, -187500.02235174447, 0.02, 0.042, 1.002, 192.0, 0.0, 0.0, 0.0, 0.0, 0.0, 0.0, 0.0, 0.0, 0.0, 1.676046831421731E9, 0.0, 2023-02-10 11:33:51.421
122.0, 8381.881818995693, 187500.0, -187500.02235174447, -187500.02235174447, -187500.02235174447, -187500.02235174447, -187500.02235174447, -187500.02235174447, 0.02, 0.042, 1.002, 192.0, 0.0, 0.0, 0.0, 0.0, 0.0, 0.0, 0.0, 0.0, 0.0, 1.676046831428837E9, 0.0, 2023-02-10 11:33:51.428
123.0, 8191.757880658852, 187500.0, -187500.02235174447, -187500.02235174447, -187500.02235174447, -187500.02235174447, -187500.02235174447, -187500.02235174447, 0.02, 0.042, 1.002, 192.0, 0.0, 0.0, 0.0, 0.0, 0.0, 0.0, 0.0, 0.0, 0.0, 1.676046831438207E9, 0.0, 2023-02-10 11:33:51.438
124.0, 7902.70512136282, 187500.0, -187500.02235174447, -187500.02235174447, -187500.02235174447, -187500.02235174447, -187500.02235174447, -187500.02235174447, 0.018000000000000002, 0.044, 1.006, 192.0, 0.0, 144.0, 1.0, 96.0, 31.0, 112.0, 0.0, 0.0, 0.0, 1.676046831438238E9, 0.0, 2023-02-10 11:33:51.438
125.0, 8123.182728669969, 187500.0, -187500.02235174447, -187500.02235174447, -187500.02235174447, -187500.02235174447, -187500.02235174447, -187500.02235174447, 0.018000000000000002, 0.044, 1.006, 192.0, 0.0, 0.0, 0.0, 0.0, 0.0, 0.0, 0.0, 0.0, 0.0, 1.676046831444258E9, 0.0, 2023-02-10 11:33:51.444
126.0, 8183.621845677119, 187500.0, -187500.02235174447, -187500.02235174447, -187500.02235174447, -187500.02235174447, -187500.02235174447, -187500.02235174447, 0.018000000000000002, 0.044, 1.006, 192.0, 0.0, 0.0, 0.0, 0.0, 0.0, 0.0, 0.0, 0.0, 0.0, 1.676046831444278E9, 0.0, 2023-02-10 11:33:51.444
127.0, 8024.455073410878, 187500.0, -187500.02235174447, -187500.02235174447, -187500.02235174447, -187500.02235174447, -187500.02235174447, -187500.02235174447, 0.018000000000000002, 0.044, 1.006, 192.0, 0.0, 0.0, 0.0, 0.0, 0.0, 0.0, 0.0, 0.0, 0.0, 1.676046831451366E9, 0.0, 2023-02-10 11:33:51.451
128.0, 7893.496202647234, 187500.0, -187500.02235174447, -187500.02235174447, -187500.02235174447, -187500.02235174447, -187500.02235174447, -187500.02235174447, 0.018000000000000002, 0.044, 1.006, 192.0, 0.0, 0.0, 0.0, 0.0, 0.0, 0.0, 0.0, 0.0, 0.0, 1.676046831451386E9, 0.0, 2023-02-10 11:33:51.451
129.0, 8128.837720017162, 187500.0, -187500.02235174447, -187500.02235174447, -187500.02235174447, -187500.02235174447, -187500.02235174447, -187500.02235174447, 0.018000000000000002, 0.044, 1.006, 192.0, 0.0, 0.0, 0.0, 0.0, 0.0, 0.0, 0.0, 0.0, 0.0, 1.676046831459262E9, 0.0, 2023-02-10 11:33:51.459
130.0, 8304.678893647062, 187500.0, -187500.02235174447, -187500.02235174447, -187500.02235174447, -187500.02235174447, -187500.02235174447, -187500.02235174447, 0.018000000000000002, 0.044, 1.006, 192.0, 0.0, 0.0, 0.0, 0.0, 0.0, 0.0, 0.0, 0.0, 0.0, 1.676046831460594E9, 0.0, 2023-02-10 11:33:51.460
131.0, 8114.1749756544805, 187500.0, -187500.02235174447, -187500.02235174447, -187500.02235174447, -187500.02235174447, -187500.02235174447, -187500.02235174447, 0.018000000000000002, 0.044, 1.006, 192.0, 0.0, 0.0, 0.0, 0.0, 0.0, 0.0, 0.0, 0.0, 0.0, 1.676046831467391E9, 0.0, 2023-02-10 11:33:51.467
132.0, 7987.261770637247, 187500.0, -187500.02235174447, -187500.02235174447, -187500.02235174447, -187500.02235174447, -187500.02235174447, -187500.02235174447, 0.018000000000000002, 0.044, 1.006, 192.0, 0.0, 0.0, 0.0, 0.0, 0.0, 0.0, 0.0, 0.0, 0.0, 1.676046831467411E9, 0.0, 2023-02-10 11:33:51.467
133.0, 8202.307904041756, 187500.0, -187500.02235174447, -187500.02235174447, -187500.02235174447, -187500.02235174447, -187500.02235174447, -187500.02235174447, 0.018000000000000002, 0.044, 1.006, 192.0, 0.0, 0.0, 0.0, 0.0, 0.0, 0.0, 0.0, 0.0, 0.0, 1.67604683147407E9, 0.0, 2023-02-10 11:33:51.474
134.0, 8381.814763762328, 187500.0, -187500.02235174447, -187500.02235174447, -187500.02235174447, -187500.02235174447, -187500.02235174447, -187500.02235174447, 0.018000000000000002, 0.042, 1.004, 192.0, 0.0, 144.0, 1.0, 80.0, 31.0, 96.0, 0.0, 0.0, 0.0, 1.676046831474096E9, 0.0, 2023-02-10 11:33:51.474
135.0, 8266.613872839675, 187500.0, -187500.02235174447, -187500.02235174447, -187500.02235174447, -187500.02235174447, -187500.02235174447, -187500.02235174447, 0.018000000000000002, 0.042, 1.004, 192.0, 0.0, 0.0, 0.0, 0.0, 0.0, 0.0, 0.0, 0.0, 0.0, 1.676046831481964E9, 0.0, 2023-02-10 11:33:51.481
136.0, 7931.360057754524, 187500.0, -187500.02235174447, -187500.02235174447, -187500.02235174447, -187500.02235174447, -187500.02235174447, -187500.02235174447, 0.018000000000000002, 0.042, 1.004, 192.0, 0.0, 0.0, 0.0, 0.0, 0.0, 0.0, 0.0, 0.0, 0.0, 1.676046831481994E9, 0.0, 2023-02-10 11:33:51.481
137.0, 7903.710949863309, 187500.0, -187500.02235174447, -187500.02235174447, -187500.02235174447, -187500.02235174447, -187500.02235174447, -187500.02235174447, 0.018000000000000002, 0.042, 1.004, 192.0, 0.0, 0.0, 0.0, 0.0, 0.0, 0.0, 0.0, 0.0, 0.0, 1.676046831489186E9, 0.0, 2023-02-10 11:33:51.489
138.0, 8171.820124604717, 187500.0, -187500.02235174447, -187500.02235174447, -187500.02235174447, -187500.02235174447, -187500.02235174447, -187500.02235174447, 0.018000000000000002, 0.042, 1.004, 192.0, 0.0, 0.0, 0.0, 0.0, 0.0, 0.0, 0.0, 0.0, 0.0, 1.676046831497156E9, 0.0, 2023-02-10 11:33:51.497
139.0, 8126.17786242698, 187500.0, -187500.02235174447, -187500.02235174447, -187500.02235174447, -187500.02235174447, -187500.02235174447, -187500.02235174447, 0.018000000000000002, 0.042, 1.004, 192.0, 0.0, 0.0, 0.0, 0.0, 0.0, 0.0, 0.0, 0.0, 0.0, 1.676046831497176E9, 0.0, 2023-02-10 11:33:51.497
140.0, 7993.564962573643, 187500.0, -187500.02235174447, -187500.02235174447, -187500.02235174447, -187500.02235174447, -187500.02235174447, -187500.02235174447, 0.018000000000000002, 0.042, 1.004, 192.0, 0.0, 0.0, 0.0, 0.0, 0.0, 0.0, 0.0, 0.0, 0.0, 1.67604683150367E9, 0.0, 2023-02-10 11:33:51.503
141.0, 7990.212200905347, 187500.0, -187500.02235174447, -187500.02235174447, -187500.02235174447, -187500.02235174447, -187500.02235174447, -187500.02235174447, 0.018000000000000002, 0.042, 1.004, 192.0, 0.0, 0.0, 0.0, 0.0, 0.0, 0.0, 0.0, 0.0, 0.0, 1.676046831503693E9, 0.0, 2023-02-10 11:33:51.503
142.0, 8202.62082846413, 187500.0, -187500.02235174447, -187500.02235174447, -187500.02235174447, -187500.02235174447, -187500.02235174447, -187500.02235174447, 0.018000000000000002, 0.042, 1.004, 192.0, 0.0, 0.0, 0.0, 0.0, 0.0, 0.0, 0.0, 0.0, 0.0, 1.676046831511707E9, 0.0, 2023-02-10 11:33:51.511
143.0, 8303.31543723529, 187500.0, -187500.02235174447, -187500.02235174447, -187500.02235174447, -187500.02235174447, -187500.02235174447, -187500.02235174447, 0.018000000000000002, 0.042, 1.004, 192.0, 0.0, 0.0, 0.0, 0.0, 0.0, 0.0, 0.0, 0.0, 0.0, 1.676046831511732E9, 0.0, 2023-02-10 11:33:51.511
144.0, 7979.259846122247, 187500.0, -187500.02235174447, -187500.02235174447, -187500.02235174447, -187500.02235174447, -187500.02235174447, -187500.02235174447, 0.018000000000000002, 0.046, 1.006, 192.0, 0.0, 144.0, 1.0, 112.0, 31.0, 112.0, 0.0, 0.0, 0.0, 1.676046831519834E9, 0.0, 2023-02-10 11:33:51.519
145.0, 7888.735281078253, 187500.0, -187500.02235174447, -187500.02235174447, -187500.02235174447, -187500.02235174447, -187500.02235174447, -187500.02235174447, 0.018000000000000002, 0.046, 1.006, 192.0, 0.0, 0.0, 0.0, 0.0, 0.0, 0.0, 0.0, 0.0, 0.0, 1.676046831520036E9, 0.0, 2023-02-10 11:33:51.520
146.0, 8083.083699117148, 187500.0, -187500.02235174447, -187500.02235174447, -187500.02235174447, -187500.02235174447, -187500.02235174447, -187500.02235174447, 0.018000000000000002, 0.046, 1.006, 192.0, 0.0, 0.0, 0.0, 0.0, 0.0, 0.0, 0.0, 0.0, 0.0, 1.676046831526305E9, 0.0, 2023-02-10 11:33:51.526
147.0, 8141.622917845598, 187500.0, -187500.02235174447, -187500.02235174447, -187500.02235174447, -187500.02235174447, -187500.02235174447, -187500.02235174447, 0.018000000000000002, 0.046, 1.006, 192.0, 0.0, 0.0, 0.0, 0.0, 0.0, 0.0, 0.0, 0.0, 0.0, 1.676046831526327E9, 0.0, 2023-02-10 11:33:51.526
148.0, 7956.483418522289, 187500.0, -187500.02235174447, -187500.02235174447, -187500.02235174447, -187500.02235174447, -187500.02235174447, -187500.02235174447, 0.018000000000000002, 0.046, 1.006, 192.0, 0.0, 0.0, 0.0, 0.0, 0.0, 0.0, 0.0, 0.0, 0.0, 1.676046831534222E9, 0.0, 2023-02-10 11:33:51.534
149.0, 7935.562185712121, 187500.0, -187500.02235174447, -187500.02235174447, -187500.02235174447, -187500.02235174447, -187500.02235174447, -187500.02235174447, 0.018000000000000002, 0.046, 1.006, 192.0, 0.0, 0.0, 0.0, 0.0, 0.0, 0.0, 0.0, 0.0, 0.0, 1.676046831534243E9, 0.0, 2023-02-10 11:33:51.534
150.0, 8173.027118805304, 187500.0, -187500.02235174447, -187500.02235174447, -187500.02235174447, -187500.02235174447, -187500.02235174447, -187500.02235174447, 0.018000000000000002, 0.046, 1.006, 192.0, 0.0, 0.0, 0.0, 0.0, 0.0, 0.0, 0.0, 0.0, 0.0, 1.676046831542257E9, 0.0, 2023-02-10 11:33:51.542
151.0, 8206.018293621337, 187500.0, -187500.02235174447, -187500.02235174447, -187500.02235174447, -187500.02235174447, -187500.02235174447, -187500.02235174447, 0.018000000000000002, 0.046, 1.006, 192.0, 0.0, 0.0, 0.0, 0.0, 0.0, 0.0, 0.0, 0.0, 0.0, 1.676046831542272E9, 0.0, 2023-02-10 11:33:51.542
152.0, 7898.2794759606695, 187500.0, -187500.02235174447, -187500.02235174447, -187500.02235174447, -187500.02235174447, -187500.02235174447, -187500.02235174447, 0.018000000000000002, 0.046, 1.006, 192.0, 0.0, 0.0, 0.0, 0.0, 0.0, 0.0, 0.0, 0.0, 0.0, 1.676046831549396E9, 0.0, 2023-02-10 11:33:51.549
153.0, 7824.295201813603, 187500.0, -187500.02235174447, -187500.02235174447, -187500.02235174447, -187500.02235174447, -187500.02235174447, -187500.02235174447, 0.018000000000000002, 0.046, 1.006, 192.0, 0.0, 0.0, 0.0, 0.0, 0.0, 0.0, 0.0, 0.0, 0.0, 1.676046831549424E9, 0.0, 2023-02-10 11:33:51.549
