%OpenBCI Raw EEG Data
%Number of channels = 8
%Sample Rate = 250 Hz
%Board = OpenBCI_GUI$BoardCytonSerial
Sample Index, EXG Channel 0, EXG Channel 1, EXG Channel 2, EXG Channel 3, EXG Channel 4, EXG Channel 5, EXG Channel 6, EXG Channel 7, Accel Channel 0, Accel Channel 1, Accel Channel 2, Other, Other, Other, Other, Other, Other, Other, Analog Channel 0, Analog Channel 1, Analog Channel 2, Timestamp, Other, Timestamp (Formatted)
65.0, 5647.659975011346, 187500.0, -187500.02235174447, -187500.02235174447, -187500.02235174447, -187500.02235174447, -187500.02235174447, -187500.02235174447, 0.022, 0.044, 0.998, 192.0, 0.0, 176.0, 1.0, 96.0, 31.0, 48.0, 0.0, 0.0, 0.0, 1.67604680080879E9, 0.0, 2023-02-10 11:33:20.808
66.0, 5943.50766462179, 187500.0, -187500.02235174447, -187500.02235174447, -187500.02235174447, -187500.02235174447, -187500.02235174447, -187500.02235174447, 0.022, 0.044, 0.998, 192.0, 0.0, 0.0, 0.0, 0.0, 0.0, 0.0, 0.0, 0.0, 0.0, 1.676046800808812E9, 0.0, 2023-02-10 11:33:20.808
67.0, 6213.94142078655, 187500.0, -187500.02235174447, -187500.02235174447, -187500.02235174447, -187500.02235174447, -187500.02235174447, -187500.02235174447, 0.022, 0.044, 0.998, 192.0, 0.0, 0.0, 0.0, 0.0, 0.0, 0.0, 0.0, 0.0, 0.0, 1.676046800808823E9, 0.0, 2023-02-10 11:33:20.808
68.0, 5966.798182344221, 187500.0, -187500.02235174447, -187500.02235174447, -187500.02235174447, -187500.02235174447, -187500.02235174447, -187500.02235174447, 0.022, 0.044, 0.998, 192.0, 0.0, 0.0, 0.0, 0.0, 0.0, 0.0, 0.0, 0.0, 0.0, 1.676046800808836E9, 0.0, 2023-02-10 11:33:20.808
0.0, 0.0, 0.0, 0.0, 0.0, 0.0, 0.0, 0.0, 0.0, 0.02, 0.048, 0.996, 192.0, 0.0, 160.0, 1.0, 128.0, 31.0, 32.0, 0.0, 0.0, 0.0, 1.676046800899251E9, 0.0, 2023-02-10 11:33:20.899
1.0, 4420.526852670533, 187500.0, -187500.02235174447, -187500.02235174447, -187500.02235174447, -187500.02235174447, -187500.02235174447, -187500.02235174447, 0.02, 0.048, 0.996, 192.0, 0.0, 0.0, 0.0, 0.0, 0.0, 0.0, 0.0, 0.0, 0.0, 1.676046800905584E9, 0.0, 2023-02-10 11:33:20.905
2.0, 4433.177940032237, 187500.0, -187500.02235174447, -187500.02235174447, -187500.02235174447, -187500.02235174447, -187500.02235174447, -187500.02235174447, 0.02, 0.048, 0.996, 192.0, 0.0, 0.0, 0.0, 0.0, 0.0, 0.0, 0.0, 0.0, 0.0, 1.676046800905626E9, 0.0, 2023-02-10 11:33:20.905
3.0, 4561.678118905797, 187500.0, -187500.02235174447, -187500.02235174447, -187500.02235174447, -187500.02235174447, -187500.02235174447, -187500.02235174447, 0.02, 0.048, 0.996, 192.0, 0.0, 0.0, 0.0, 0.0, 0.0, 0.0, 0.0, 0.0, 0.0, 1.676046800912332E9, 0.0, 2023-02-10 11:33:20.912
4.0, 4562.326319495001, 187500.0, -187500.02235174447, -187500.02235174447, -187500.02235174447, -187500.02235174447, -187500.02235174447, -187500.02235174447, 0.02, 0.048, 0.996, 192.0, 0.0, 0.0, 0.0, 0.0, 0.0, 0.0, 0.0, 0.0, 0.0, 1.676046800912354E9, 0.0, 2023-02-10 11:33:20.912
5.0, 4431.769780131553, 187500.0, -187500.02235174447, -187500.02235174447, -187500.02235174447, -187500.02235174447, -187500.02235174447, -187500.02235174447, 0.02, 0.048, 0.996, 192.0, 0.0, 0.0, 0.0, 0.0, 0.0, 0.0, 0.0, 0.0, 0.0, 1.676046800920357E9, 0.0, 2023-02-10 11:33:20.920
6.0, 4430.920413842251, 187500.0, -187500.02235174447, -187500.02235174447, -187500.02235174447, -187500.02235174447, -187500.02235174447, -187500.02235174447, 0.02, 0.048, 0.996, 192.0, 0.0, 0.0, 0.0, 0.0, 0.0, 0.0, 0.0, 0.0, 0.0, 1.676046800920378E9, 0.0, 2023-02-10 11:33:20.920
7.0, 4502.736568777153, 187500.0, -187500.02235174447, -187500.02235174447, -187500.02235174447, -187500.02235174447, -187500.02235174447, -187500.02235174447, 0.018000000000000002, 0.042, 0.994, 192.0, 0.0, 144.0, 1.0, 80.0, 31.0, 16.0, 0.0, 0.0, 0.0, 1.676046800927437E9, 0.0, 2023-02-10 11:33:20.927
8.0, 4493.482946572655, 187500.0, -187500.02235174447, -187500.02235174447, -187500.02235174447, -187500.02235174447, -187500.02235174447, -187500.02235174447, 0.018000000000000002, 0.042, 0.994, 192.0, 0.0, 0.0, 0.0, 0.0, 0.0, 0.0, 0.0, 0.0, 0.0, 1.676046800934115E9, 0.0, 2023-02-10 11:33:20.934
9.0, 4381.612465573843, 187500.0, -187500.02235174447, -187500.02235174447, -187500.02235174447, -187500.02235174447, -187500.02235174447, -187500.02235174447, 0.018000000000000002, 0.042, 0.994, 192.0, 0.0, 0.0, 0.0, 0.0, 0.0, 0.0, 0.0, 0.0, 0.0, 1.676046800934142E9, 0.0, 2023-02-10 11:33:20.934
10.0, 4465.990300892628, 187500.0, -187500.02235174447, -187500.02235174447, -187500.02235174447, -187500.02235174447, -187500.02235174447, -187500.02235174447, 0.018000000000000002, 0.042, 0.994, 192.0, 0.0, 0.0, 0.0, 0.0, 0.0, 0.0, 0.0, 0.0, 0.0, 1.676046800942036E9, 0.0, 2023-02-10 11:33:20.942
11.0, 4621.804311490573, 187500.0, -187500.02235174447, -187500.02235174447, -187500.02235174447, -187500.02235174447, -187500.02235174447, -187500.02235174447, 0.018000000000000002, 0.042, 0.994, 192.0, 0.0, 0.0, 0.0, 0.0, 0.0, 0.0, 0.0, 0.0, 0.0, 1.676046800942056E9, 0.0, 2023-02-10 11:33:20.942
12.0, 4498.55679256401, 187500.0, -187500.02235174447, -187500.02235174447, -187500.02235174447, -187500.02235174447, -187500.02235174447, -187500.02235174447, 0.018000000000000002, 0.042, 0.994, 192.0, 0.0, 0.0, 0.0, 0.0, 0.0, 0.0, 0.0, 0.0, 0.0, 1.676046800950452E9, 0.0, 2023-02-10 11:33:20.950
13.0, 4398.957419271162, 187500.0, -187500.02235174447, -187500.02235174447, -187500.02235174447, -187500.02235174447, -187500.02235174447, -187500.02235174447, 0.018000000000000002, 0.042, 0.994, 192.0, 0.0, 0.0, 0.0, 0.0, 0.0, 0.0, 0.0, 0.0, 0.0, 1.676046800950481E9, 0.0, 2023-02-10 11:33:20.950
14.0, 4419.677486381232, 187500.0, -187500.02235174447, -187500.02235174447, -187500.02235174447, -187500.02235174447, -187500.02235174447, -187500.02235174447, 0.018000000000000002, 0.042, 0.994, 192.0, 0.0, 0.0, 0.0, 0.0, 0.0, 0.0, 0.0, 0.0, 0.0, 1.676046800956648E9, 0.0, 2023-02-10 11:33:20.956
15.0, 4552.804476357041, 187500.0, -187500.02235174447, -187500.02235174447, -187500.02235174447, -187500.02235174447, -187500.02235174447, -187500.02235174447, 0.018000000000000002, 0.042, 0.994, 192.0, 0.0, 0.0, 0.0, 0.0, 0.0, 0.0, 0.0, 0.0, 0.0, 1.676046800956673E9, 0.0, 2023-02-10 11:33:20.956
16.0, 4532.553795880532, 187500.0, -187500.02235174447, -187500.02235174447, -187500.02235174447, -187500.02235174447, -187500.02235174447, -187500.02235174447, 0.018000000000000002, 0.042, 0.994, 192.0, 0.0, 0.0, 0.0, 0.0, 0.0, 0.0, 0.0, 0.0, 0.0, 1.676046800964755E9, 0.0, 2023-02-10 11:33:20.964
17.0, 4424.661925394765, 187500.0, -187500.02235174447, -187500.02235174447, -187500.02235174447, -187500.02235174447, -187500.02235174447, -187500.02235174447, 0.022, 0.04, 0.998, 192.0, 0.0, 176.0, 1.0, 64.0, 31.0, 48.0, 0.0, 0.0, 0.0, 1.676046800964782E9, 0.0, 2023-02-10 11:33:20.964
18.0, 4361.786468241986, 187500.0, -187500.02235174447, -187500.02235174447, -187500.02235174447, -187500.02235174447, -187500.02235174447, -187500.02235174447, 0.022, 0.04, 0.998, 192.0, 0.0, 0.0, 0.0, 0.0, 0.0, 0.0, 0.0, 0.0, 0.0, 1.676046800972703E9, 0.0, 2023-02-10 11:33:20.972
19.0, 4502.334237376957, 187500.0, -187500.02235174447, -187500.02235174447, -187500.02235174447, -187500.02235174447, -187500.02235174447, -187500.02235174447, 0.022, 0.04, 0.998, 192.0, 0.0, 0.0, 0.0, 0.0, 0.0, 0.0, 0.0, 0.0, 0.0, 1.676046800972727E9, 0.0, 2023-02-10 11:33:20.972
20.0, 4622.184291146314, 187500.0, -187500.02235174447, -187500.02235174447, -187500.02235174447, -187500.02235174447, -187500.02235174447, -187500.02235174447, 0.022, 0.04, 0.998, 192.0, 0.0, 0.0, 0.0, 0.0, 0.0, 0.0, 0.0, 0.0, 0.0, 1.676046800979847E9, 0.0, 2023-02-10 11:33:20.979
21.0, 4444.107943070882, 187500.0, -187500.02235174447, -187500.02235174447, -187500.02235174447, -187500.02235174447, -187500.02235174447, -187500.02235174447, 0.022, 0.04, 0.998, 192.0, 0.0, 0.0, 0.0, 0.0, 0.0, 0.0, 0.0, 0.0, 0.0, 1.67604680097987E9, 0.0, 2023-02-10 11:33:20.979
22.0, 4377.164468427238, 187500.0, -187500.02235174447, -187500.02235174447, -187500.02235174447, -187500.02235174447, -187500.02235174447, -187500.02235174447, 0.022, 0.04, 0.998, 192.0, 0.0, 0.0, 0.0, 0.0, 0.0, 0.0, 0.0, 0.0, 0.0, 1.676046800986281E9, 0.0, 2023-02-10 11:33:20.986
23.0, 4486.3080366025015, 187500.0, -187500.02235174447, -187500.02235174447, -187500.02235174447, -187500.02235174447, -187500.02235174447, -187500.02235174447, 0.022, 0.04, 0.998, 192.0, 0.0, 0.0, 0.0, 0.0, 0.0, 0.0, 0.0, 0.0, 0.0, 1.676046800994273E9, 0.0, 2023-02-10 11:33:20.994
24.0, 4563.130982295392, 187500.0, -187500.02235174447, -187500.02235174447, -187500.02235174447, -187500.02235174447, -187500.02235174447, -187500.02235174447, 0.022, 0.04, 0.998, 192.0, 0.0, 0.0, 0.0, 0.0, 0.0, 0.0, 0.0, 0.0, 0.0, 1.676046800994293E9, 0.0, 2023-02-10 11:33:20.994
25.0, 4451.998108863605, 187500.0, -187500.02235174447, -187500.02235174447, -187500.02235174447, -187500.02235174447, -187500.02235174447, -187500.02235174447, 0.022, 0.04, 0.998, 192.0, 0.0, 0.0, 0.0, 0.0, 0.0, 0.0, 0.0, 0.0, 0.0, 1.676046801002293E9, 0.0, 2023-02-10 11:33:21.002
26.0, 4395.649361091776, 187500.0, -187500.02235174447, -187500.02235174447, -187500.02235174447, -187500.02235174447, -187500.02235174447, -187500.02235174447, 0.022, 0.04, 0.998, 192.0, 0.0, 0.0, 0.0, 0.0, 0.0, 0.0, 0.0, 0.0, 0.0, 1.67604680100232E9, 0.0, 2023-02-10 11:33:21.002
27.0, 4361.741764753076, 187500.0, -187500.02235174447, -187500.02235174447, -187500.02235174447, -187500.02235174447, -187500.02235174447, -187500.02235174447, 0.018000000000000002, 0.04, 1.006, 192.0, 0.0, 144.0, 1.0, 64.0, 31.0, 112.0, 0.0, 0.0, 0.0, 1.676046801009366E9, 0.0, 2023-02-10 11:33:21.009
28.0, 4506.044626956538, 187500.0, -187500.02235174447, -187500.02235174447, -187500.02235174447, -187500.02235174447, -187500.02235174447, -187500.02235174447, 0.018000000000000002, 0.04, 1.006, 192.0, 0.0, 0.0, 0.0, 0.0, 0.0, 0.0, 0.0, 0.0, 0.0, 1.676046801009384E9, 0.0, 2023-02-10 11:33:21.009
29.0, 4546.702450120742, 187500.0, -187500.02235174447, -187500.02235174447, -187500.02235174447, -187500.02235174447, -187500.02235174447, -187500.02235174447, 0.018000000000000002, 0.04, 1.006, 192.0, 0.0, 0.0, 0.0, 0.0, 0.0, 0.0, 0.0, 0.0, 0.0, 1.676046801016807E9, 0.0, 2023-02-10 11:33:21.016
30.0, 4374.504610837056, 187500.0, -187500.02235174447, -187500.02235174447, -187500.02235174447, -187500.02235174447, -187500.02235174447, -187500.02235174447, 0.018000000000000002, 0.04, 1.006, 192.0, 0.0, 0.0, 0.0, 0.0, 0.0, 0.0, 0.0, 0.0, 0.0, 1.676046801016826E9, 0.0, 2023-02-10 11:33:21.016
31.0, 4425.667753895254, 187500.0, -187500.02235174447, -187500.02235174447, -187500.02235174447, -187500.02235174447, -187500.02235174447, -187500.02235174447, 0.018000000000000002, 0.04, 1.006, 192.0, 0.0, 0.0, 0.0, 0.0, 0.0, 0.0, 0.0, 0.0, 0.0, 1.676046801024918E9, 0.0, 2023-02-10 11:33:21.024
32.0, 4555.598444413954, 187500.0, -187500.02235174447, -187500.02235174447, -187500.02235174447, -187500.02235174447, -187500.02235174447, -187500.02235174447, 0.018000000000000002, 0.04, 1.006, 192.0, 0.0, 0.0, 0.0, 0.0, 0.0, 0.0, 0.0, 0.0, 0.0, 1.676046801024942E9, 0.0, 2023-02-10 11:33:21.024
33.0, 4541.159217495825, 187500.0, -187500.02235174447, -187500.02235174447, -187500.02235174447, -187500.02235174447, -187500.02235174447, -187500.02235174447, 0.018000000000000002, 0.04, 1.006, 192.0, 0.0, 0.0, 0.0, 0.0, 0.0, 0.0, 0.0, 0.0, 0.0, 1.676046801032949E9, 0.0, 2023-02-10 11:33:21.032
34.0, 4412.681390366721, 187500.0, -187500.02235174447, -187500.02235174447, -187500.02235174447, -187500.02235174447, -187500.02235174447, -187500.02235174447, 0.018000000000000002, 0.04, 1.006, 192.0, 0.0, 0.0, 0.0, 0.0, 0.0, 0.0, 0.0, 0.0, 0.0, 1.676046801032979E9, 0.0, 2023-02-10 11:33:21.032
35.0, 4432.753256887586, 187500.0, -187500.02235174447, -187500.02235174447, -187500.02235174447, -187500.02235174447, -187500.02235174447, -187500.02235174447, 0.018000000000000002, 0.04, 1.006, 192.0, 0.0, 0.0, 0.0, 0.0, 0.0, 0.0, 0.0, 0.0, 0.0, 1.676046801039609E9, 0.0, 2023-02-10 11:33:21.039
36.0, 4516.572298594988, 187500.0, -187500.02235174447, -187500.02235174447, -187500.02235174447, -187500.02235174447, -187500.02235174447, -187500.02235174447, 0.018000000000000002, 0.04, 1.006, 192.0, 0.0, 0.0, 0.0, 0.0, 0.0, 0.0, 0.0, 0.0, 0.0, 1.676046801039633E9, 0.0, 2023-02-10 11:33:21.039
37.0, 4623.3912853469, 187500.0, -187500.02235174447, -187500.02235174447, -187500.02235174447, -187500.02235174447, -187500.02235174447, -187500.02235174447, 0.018000000000000002, 0.04, 1.008, 192.0, 0.0, 144.0, 1.0, 64.0, 31.0, 128.0, 0.0, 0.0, 0.0, 1.676046801046596E9, 0.0, 2023-02-10 11:33:21.046
38.0, 4543.752019852641, 187500.0, -187500.02235174447, -187500.02235174447, -187500.02235174447, -187500.02235174447, -187500.02235174447, -187500.02235174447, 0.018000000000000002, 0.04, 1.008, 192.0, 0.0, 0.0, 0.0, 0.0, 0.0, 0.0, 0.0, 0.0, 0.0, 1.676046801054627E9, 0.0, 2023-02-10 11:33:21.054
39.0, 4396.342265169891, 187500.0, -187500.02235174447, -187500.02235174447, -187500.02235174447, -187500.02235174447, -187500.02235174447, -187500.02235174447, 0.018000000000000002, 0.04, 1.008, 192.0, 0.0, 0.0, 0.0, 0.0, 0.0, 0.0, 0.0, 0.0, 0.0, 1.676046801054665E9, 0.0, 2023-02-10 11:33:21.054
40.0, 4474.662777741287, 187500.0, -187500.02235174447, -187500.02235174447, -187500.02235174447, -187500.02235174447, -187500.02235174447, -187500.02235174447, 0.018000000000000002, 0.04, 1.008, 192.0, 0.0, 0.0, 0.0, 0.0, 0.0, 0.0, 0.0, 0.0, 0.0, 1.676046801062611E9, 0.0, 2023-02-10 11:33:21.062
41.0, 4527.435246400267, 187500.0, -187500.02235174447, -187500.02235174447, -187500.02235174447, -187500.02235174447, -187500.02235174447, -187500.02235174447, 0.018000000000000002, 0.04, 1.008, 192.0, 0.0, 0.0, 0.0, 0.0, 0.0, 0.0, 0.0, 0.0, 0.0, 1.676046801062639E9, 0.0, 2023-02-10 11:33:21.062
42.0, 4417.710532869164, 187500.0, -187500.02235174447, -187500.02235174447, -187500.02235174447, -187500.02235174447, -187500.02235174447, -187500.02235174447, 0.018000000000000002, 0.04, 1.008, 192.0, 0.0, 0.0, 0.0, 0.0, 0.0, 0.0, 0.0, 0.0, 0.0, 1.676046801069217E9, 0.0, 2023-02-10 11:33:21.069
43.0, 4417.531718913522, 187500.0, -187500.02235174447, -187500.02235174447, -187500.02235174447, -187500.02235174447, -187500.02235174447, -187500.02235174447, 0.018000000000000002, 0.04, 1.008, 192.0, 0.0, 0.0, 0.0, 0.0, 0.0, 0.0, 0.0, 0.0, 0.0, 1.676046801069243E9, 0.0, 2023-02-10 11:33:21.069
44.0, 4555.911368836328, 187500.0, -187500.02235174447, -187500.02235174447, -187500.02235174447, -187500.02235174447, -187500.02235174447, -187500.02235174447, 0.018000000000000002, 0.04, 1.008, 192.0, 0.0, 0.0, 0.0, 0.0, 0.0, 0.0, 0.0, 0.0, 0.0, 1.676046801077177E9, 0.0, 2023-02-10 11:33:21.077
45.0, 4550.457543189233, 187500.0, -187500.02235174447, -187500.02235174447, -187500.02235174447, -187500.02235174447, -187500.02235174447, -187500.02235174447, 0.018000000000000002, 0.04, 1.008, 192.0, 0.0, 0.0, 0.0, 0.0, 0.0, 0.0, 0.0, 0.0, 0.0, 1.676046801077206E9, 0.0, 2023-02-10 11:33:21.077
46.0, 4495.852231484918, 187500.0, -187500.02235174447, -187500.02235174447, -187500.02235174447, -187500.02235174447, -187500.02235174447, -187500.02235174447, 0.018000000000000002, 0.04, 1.008, 192.0, 0.0, 0.0, 0.0, 0.0, 0.0, 0.0, 0.0, 0.0, 0.0, 1.67604680108523E9, 0.0, 2023-02-10 11:33:21.085
47.0, 4445.381992504835, 187500.0, -187500.02235174447, -187500.02235174447, -187500.02235174447, -187500.02235174447, -187500.02235174447, -187500.02235174447, 0.016, 0.04, 1.0, 192.0, 0.0, 128.0, 1.0, 64.0, 31.0, 64.0, 0.0, 0.0, 0.0, 1.676046801085252E9, 0.0, 2023-02-10 11:33:21.085
48.0, 4533.805493570029, 187500.0, -187500.02235174447, -187500.02235174447, -187500.02235174447, -187500.02235174447, -187500.02235174447, -187500.02235174447, 0.016, 0.04, 1.0, 192.0, 0.0, 0.0, 0.0, 0.0, 0.0, 0.0, 0.0, 0.0, 0.0, 1.676046801092147E9, 0.0, 2023-02-10 11:33:21.092
49.0, 4613.1541863863695, 187500.0, -187500.02235174447, -187500.02235174447, -187500.02235174447, -187500.02235174447, -187500.02235174447, -187500.02235174447, 0.016, 0.04, 1.0, 192.0, 0.0, 0.0, 0.0, 0.0, 0.0, 0.0, 0.0, 0.0, 0.0, 1.676046801092166E9, 0.0, 2023-02-10 11:33:21.092
50.0, 4537.180606982781, 187500.0, -187500.02235174447, -187500.02235174447, -187500.02235174447, -187500.02235174447, -187500.02235174447, -187500.02235174447, 0.016, 0.04, 1.0, 192.0, 0.0, 0.0, 0.0, 0.0, 0.0, 0.0, 0.0, 0.0, 0.0, 1.676046801099962E9, 0.0, 2023-02-10 11:33:21.099
51.0, 4439.59289069091, 187500.0, -187500.02235174447, -187500.02235174447, -187500.02235174447, -187500.02235174447, -187500.02235174447, -187500.02235174447, 0.016, 0.04, 1.0, 192.0, 0.0, 0.0, 0.0, 0.0, 0.0, 0.0, 0.0, 0.0, 0.0, 1.676046801100004E9, 0.0, 2023-02-10 11:33:21.100
52.0, 4419.789245103508, 187500.0, -187500.02235174447, -187500.02235174447, -187500.02235174447, -187500.02235174447, -187500.02235174447, -187500.02235174447, 0.016, 0.04, 1.0, 192.0, 0.0, 0.0, 0.0, 0.0, 0.0, 0.0, 0.0, 0.0, 0.0, 1.676046801106798E9, 0.0, 2023-02-10 11:33:21.106
53.0, 4636.86938725345, 187500.0, -187500.02235174447, -187500.02235174447, -187500.02235174447, -187500.02235174447, -187500.02235174447, -187500.02235174447, 0.016, 0.04, 1.0, 192.0, 0.0, 0.0, 0.0, 0.0, 0.0, 0.0, 0.0, 0.0, 0.0, 1.67604680110682E9, 0.0, 2023-02-10 11:33:21.106
54.0, 4616.059913165559, 187500.0, -187500.02235174447, -187500.02235174447, -187500.02235174447, -187500.02235174447, -187500.02235174447, -187500.02235174447, 0.016, 0.04, 1.0, 192.0, 0.0, 0.0, 0.0, 0.0, 0.0, 0.0, 0.0, 0.0, 0.0, 1.676046801114901E9, 0.0, 2023-02-10 11:33:21.114
55.0, 4477.523801031566, 187500.0, -187500.02235174447, -187500.02235174447, -187500.02235174447, -187500.02235174447, -187500.02235174447, -187500.02235174447, 0.016, 0.04, 1.0, 192.0, 0.0, 0.0, 0.0, 0.0, 0.0, 0.0, 0.0, 0.0, 0.0, 1.676046801121378E9, 0.0, 2023-02-10 11:33:21.121
56.0, 4500.724911776175, 187500.0, -187500.02235174447, -187500.02235174447, -187500.02235174447, -187500.02235174447, -187500.02235174447, -187500.02235174447, 0.016, 0.04, 1.0, 192.0, 0.0, 0.0, 0.0, 0.0, 0.0, 0.0, 0.0, 0.0, 0.0, 1.676046801121401E9, 0.0, 2023-02-10 11:33:21.121
57.0, 4619.3903230894, 187500.0, -187500.02235174447, -187500.02235174447, -187500.02235174447, -187500.02235174447, -187500.02235174447, -187500.02235174447, 0.014, 0.04, 0.998, 192.0, 0.0, 112.0, 1.0, 64.0, 31.0, 48.0, 0.0, 0.0, 0.0, 1.676046801129458E9, 0.0, 2023-02-10 11:33:21.129
58.0, 4588.790784930085, 187500.0, -187500.02235174447, -187500.02235174447, -187500.02235174447, -187500.02235174447, -187500.02235174447, -187500.02235174447, 0.014, 0.04, 0.998, 192.0, 0.0, 0.0, 0.0, 0.0, 0.0, 0.0, 0.0, 0.0, 0.0, 1.676046801129481E9, 0.0, 2023-02-10 11:33:21.129
59.0, 4460.201199078703, 187500.0, -187500.02235174447, -187500.02235174447, -187500.02235174447, -187500.02235174447, -187500.02235174447, -187500.02235174447, 0.014, 0.04, 0.998, 192.0, 0.0, 0.0, 0.0, 0.0, 0.0, 0.0, 0.0, 0.0, 0.0, 1.676046801137557E9, 0.0, 2023-02-10 11:33:21.137
60.0, 4471.98056840665, 187500.0, -187500.02235174447, -187500.02235174447, -187500.02235174447, -187500.02235174447, -187500.02235174447, -187500.02235174447, 0.014, 0.04, 0.998, 192.0, 0.0, 0.0, 0.0, 0.0, 0.0, 0.0, 0.0, 0.0, 0.0, 1.676046801137581E9, 0.0, 2023-02-10 11:33:21.137
61.0, 4588.835488418995, 187500.0, -187500.02235174447, -187500.02235174447, -187500.02235174447, -187500.02235174447, -187500.02235174447, -187500.02235174447, 0.014, 0.04, 0.998, 192.0, 0.0, 0.0, 0.0, 0.0, 0.0, 0.0, 0.0, 0.0, 0.0, 1.676046801144562E9, 0.0, 2023-02-10 11:33:21.144
62.0, 4566.059060819038, 187500.0, -187500.02235174447, -187500.02235174447, -187500.02235174447, -187500.02235174447, -187500.02235174447, -187500.02235174447, 0.014, 0.04, 0.998, 192.0, 0.0, 0.0, 0.0, 0.0, 0.0, 0.0, 0.0, 0.0, 0.0, 1.676046801144581E9, 0.0, 2023-02-10 11:33:21.144
63.0, 4470.773574206063, 187500.0, -187500.02235174447, -187500.02235174447, -187500.02235174447, -187500.02235174447, -187500.02235174447, -187500.02235174447, 0.014, 0.04, 0.998, 192.0, 0.0, 0.0, 0.0, 0.0, 0.0, 0.0, 0.0, 0.0, 0.0, 1.676046801152101E9, 0.0, 2023-02-10 11:33:21.152
64.0, 4459.061260111483, 187500.0, -187500.02235174447, -187500.02235174447, -187500.02235174447, -187500.02235174447, -187500.02235174447, -187500.02235174447, 0.014, 0.04, 0.998, 192.0, 0.0, 0.0, 0.0, 0.0, 0.0, 0.0, 0.0, 0.0, 0.0, 1.676046801152145E9, 0.0, 2023-02-10 11:33:21.152
65.0, 4663.803239322096, 187500.0, -187500.02235174447, -187500.02235174447, -187500.02235174447, -187500.02235174447, -187500.02235174447, -187500.02235174447, 0.014, 0.04, 0.998, 192.0, 0.0, 0.0, 0.0, 0.0, 0.0, 0.0, 0.0, 0.0, 0.0, 1.67604680116012E9, 0.0, 2023-02-10 11:33:21.160
66.0, 4737.921623935893, 187500.0, -187500.02235174447, -187500.02235174447, -187500.02235174447, -187500.02235174447, -187500.02235174447, -187500.02235174447, 0.012, 0.04, 1.002, 192.0, 0.0, 96.0, 1.0, 64.0, 31.0, 80.0, 0.0, 0.0, 0.0, 1.676046801160144E9, 0.0, 2023-02-10 11:33:21.160
67.0, 4477.41204230929, 187500.0, -187500.02235174447, -187500.02235174447, -187500.02235174447, -187500.02235174447, -187500.02235174447, -187500.02235174447, 0.012, 0.04, 1.002, 192.0, 0.0, 0.0, 0.0, 0.0, 0.0, 0.0, 0.0, 0.0, 0.0, 1.67604680116803E9, 0.0, 2023-02-10 11:33:21.168
68.0, 4421.242108493103, 187500.0, -187500.02235174447, -187500.02235174447, -187500.02235174447, -187500.02235174447, -187500.02235174447, -187500.02235174447, 0.012, 0.04, 1.002, 192.0, 0.0, 0.0, 0.0, 0.0, 0.0, 0.0, 0.0, 0.0, 0.0, 1.676046801168054E9, 0.0, 2023-02-10 11:33:21.168
69.0, 4598.916125168339, 187500.0, -187500.02235174447, -187500.02235174447, -187500.02235174447, -187500.02235174447, -187500.02235174447, -187500.02235174447, 0.012, 0.04, 1.002, 192.0, 0.0, 0.0, 0.0, 0.0, 0.0, 0.0, 0.0, 0.0, 0.0, 1.676046801174125E9, 0.0, 2023-02-10 11:33:21.174
70.0, 4760.005147457737, 187500.0, -187500.02235174447, -187500.02235174447, -187500.02235174447, -187500.02235174447, -187500.02235174447, -187500.02235174447, 0.012, 0.04, 1.002, 192.0, 0.0, 0.0, 0.0, 0.0, 0.0, 0.0, 0.0, 0.0, 0.0, 1.676046801181728E9, 0.0, 2023-02-10 11:33:21.181
71.0, 4642.144398944903, 187500.0, -187500.02235174447, -187500.02235174447, -187500.02235174447, -187500.02235174447, -187500.02235174447, -187500.02235174447, 0.012, 0.04, 1.002, 192.0, 0.0, 0.0, 0.0, 0.0, 0.0, 0.0, 0.0, 0.0, 0.0, 1.676046801181749E9, 0.0, 2023-02-10 11:33:21.181
72.0, 4407.384026930813, 187500.0, -187500.02235174447, -187500.02235174447, -187500.02235174447, -187500.02235174447, -187500.02235174447, -187500.02235174447, 0.012, 0.04, 1.002, 192.0, 0.0, 0.0, 0.0, 0.0, 0.0, 0.0, 0.0, 0.0, 0.0, 1.676046801189647E9, 0.0, 2023-02-10 11:33:21.189
73.0, 4554.458505446733, 187500.0, -187500.02235174447, -187500.02235174447, -187500.02235174447, -187500.02235174447, -187500.02235174447, -187500.02235174447, 0.012, 0.04, 1.002, 192.0, 0.0, 0.0, 0.0, 0.0, 0.0, 0.0, 0.0, 0.0, 0.0, 1.676046801189673E9, 0.0, 2023-02-10 11:33:21.189
74.0, 4744.627147272486, 187500.0, -187500.02235174447, -187500.02235174447, -187500.02235174447, -187500.02235174447, -187500.02235174447, -187500.02235174447, 0.012, 0.04, 1.002, 192.0, 0.0, 0.0, 0.0, 0.0, 0.0, 0.0, 0.0, 0.0, 0.0, 1.676046801198044E9, 0.0, 2023-02-10 11:33:21.198
75.0, 4662.708003843785, 187500.0, -187500.02235174447, -187500.02235174447, -187500.02235174447, -187500.02235174447, -187500.02235174447, -187500.02235174447, 0.012, 0.04, 1.002, 192.0, 0.0, 0.0, 0.0, 0.0, 0.0, 0.0, 0.0, 0.0, 0.0, 1.676046801198082E9, 0.0, 2023-02-10 11:33:21.198
76.0, 4448.9135681287735, 187500.0, -187500.02235174447, -187500.02235174447, -187500.02235174447, -187500.02235174447, -187500.02235174447, -187500.02235174447, 0.02, 0.04, 1.006, 192.0, 0.0, 160.0, 1.0, 64.0, 31.0, 112.0, 0.0, 0.0, 0.0, 1.67604680120517E9, 0.0, 2023-02-10 11:33:21.205
77.0, 4483.178792378759, 187500.0, -187500.02235174447, -187500.02235174447, -187500.02235174447, -187500.02235174447, -187500.02235174447, -187500.02235174447, 0.02, 0.04, 1.006, 192.0, 0.0, 0.0, 0.0, 0.0, 0.0, 0.0, 0.0, 0.0, 0.0, 1.6760468012052E9, 0.0, 2023-02-10 11:33:21.205
78.0, 4645.9665472467605, 187500.0, -187500.02235174447, -187500.02235174447, -187500.02235174447, -187500.02235174447, -187500.02235174447, -187500.02235174447, 0.02, 0.04, 1.006, 192.0, 0.0, 0.0, 0.0, 0.0, 0.0, 0.0, 0.0, 0.0, 0.0, 1.676046801212242E9, 0.0, 2023-02-10 11:33:21.212
79.0, 4637.852864009484, 187500.0, -187500.02235174447, -187500.02235174447, -187500.02235174447, -187500.02235174447, -187500.02235174447, -187500.02235174447, 0.02, 0.04, 1.006, 192.0, 0.0, 0.0, 0.0, 0.0, 0.0, 0.0, 0.0, 0.0, 0.0, 1.676046801212265E9, 0.0, 2023-02-10 11:33:21.212
80.0, 4530.765656324107, 187500.0, -187500.02235174447, -187500.02235174447, -187500.02235174447, -187500.02235174447, -187500.02235174447, -187500.02235174447, 0.02, 0.04, 1.006, 192.0, 0.0, 0.0, 0.0, 0.0, 0.0, 0.0, 0.0, 0.0, 0.0, 1.676046801219697E9, 0.0, 2023-02-10 11:33:21.219
81.0, 4667.357166690489, 187500.0, -187500.02235174447, -187500.02235174447, -187500.02235174447, -187500.02235174447, -187500.02235174447, -187500.02235174447, 0.02, 0.04, 1.006, 192.0, 0.0, 0.0, 0.0, 0.0, 0.0, 0.0, 0.0, 0.0, 0.0, 1.676046801219732E9, 0.0, 2023-02-10 11:33:21.219
82.0, 4735.284118090167, 187500.0, -187500.02235174447, -187500.02235174447, -187500.02235174447, -187500.02235174447, -187500.02235174447, -187500.02235174447, 0.02, 0.04, 1.006, 192.0, 0.0, 0.0, 0.0, 0.0, 0.0, 0.0, 0.0, 0.0, 0.0, 1.67604680122779E9, 0.0, 2023-02-10 11:33:21.227
83.0, 4583.225200560713, 187500.0, -187500.02235174447, -187500.02235174447, -187500.02235174447, -187500.02235174447, -187500.02235174447, -187500.02235174447, 0.02, 0.04, 1.006, 192.0, 0.0, 0.0, 0.0, 0.0, 0.0, 0.0, 0.0, 0.0, 0.0, 1.676046801227813E9, 0.0, 2023-02-10 11:33:21.227
84.0, 4505.619943811887, 187500.0, -187500.02235174447, -187500.02235174447, -187500.02235174447, -187500.02235174447, -187500.02235174447, -187500.02235174447, 0.02, 0.04, 1.006, 192.0, 0.0, 0.0, 0.0, 0.0, 0.0, 0.0, 0.0, 0.0, 0.0, 1.676046801234811E9, 0.0, 2023-02-10 11:33:21.234
85.0, 4543.036764030071, 187500.0, -187500.02235174447, -187500.02235174447, -187500.02235174447, -187500.02235174447, -187500.02235174447, -187500.02235174447, 0.02, 0.04, 1.006, 192.0, 0.0, 0.0, 0.0, 0.0, 0.0, 0.0, 0.0, 0.0, 0.0, 1.676046801241729E9, 0.0, 2023-02-10 11:33:21.241
86.0, 4726.991620897248, 187500.0, -187500.02235174447, -187500.02235174447, -187500.02235174447, -187500.02235174447, -187500.02235174447, -187500.02235174447, 0.014, 0.046, 1.0, 192.0, 0.0, 112.0, 1.0, 112.0, 31.0, 64.0, 0.0, 0.0, 0.0, 1.676046801241752E9, 0.0, 2023-02-10 11:33:21.241
87.0, 4786.08963323708, 187500.0, -187500.02235174447, -187500.02235174447, -187500.02235174447, -187500.02235174447, -187500.02235174447, -187500.02235174447, 0.014, 0.046, 1.0, 192.0, 0.0, 0.0, 0.0, 0.0, 0.0, 0.0, 0.0, 0.0, 0.0, 1.676046801249377E9, 0.0, 2023-02-10 11:33:21.249
88.0, 4510.17969968077, 187500.0, -187500.02235174447, -187500.02235174447, -187500.02235174447, -187500.02235174447, -187500.02235174447, -187500.02235174447, 0.014, 0.046, 1.0, 192.0, 0.0, 0.0, 0.0, 0.0, 0.0, 0.0, 0.0, 0.0, 0.0, 1.676046801249397E9, 0.0, 2023-02-10 11:33:21.249
89.0, 4409.39568393179, 187500.0, -187500.02235174447, -187500.02235174447, -187500.02235174447, -187500.02235174447, -187500.02235174447, -187500.02235174447, 0.014, 0.046, 1.0, 192.0, 0.0, 0.0, 0.0, 0.0, 0.0, 0.0, 0.0, 0.0, 0.0, 1.676046801257208E9, 0.0, 2023-02-10 11:33:21.257
90.0, 4599.1843461018025, 187500.0, -187500.02235174447, -187500.02235174447, -187500.02235174447, -187500.02235174447, -187500.02235174447, -187500.02235174447, 0.014, 0.046, 1.0, 192.0, 0.0, 0.0, 0.0, 0.0, 0.0, 0.0, 0.0, 0.0, 0.0, 1.676046801257226E9, 0.0, 2023-02-10 11:33:21.257
91.0, 4710.540736978142, 187500.0, -187500.02235174447, -187500.02235174447, -187500.02235174447, -187500.02235174447, -187500.02235174447, -187500.02235174447, 0.014, 0.046, 1.0, 192.0, 0.0, 0.0, 0.0, 0.0, 0.0, 0.0, 0.0, 0.0, 0.0, 1.676046801265456E9, 0.0, 2023-02-10 11:33:21.265
92.0, 4545.9424908092615, 187500.0, -187500.02235174447, -187500.02235174447, -187500.02235174447, -187500.02235174447, -187500.02235174447, -187500.02235174447, 0.014, 0.046, 1.0, 192.0, 0.0, 0.0, 0.0, 0.0, 0.0, 0.0, 0.0, 0.0, 0.0, 1.676046801265496E9, 0.0, 2023-02-10 11:33:21.265
93.0, 4484.944580190728, 187500.0, -187500.02235174447, -187500.02235174447, -187500.02235174447, -187500.02235174447, -187500.02235174447, -187500.02235174447, 0.014, 0.046, 1.0, 192.0, 0.0, 0.0, 0.0, 0.0, 0.0, 0.0, 0.0, 0.0, 0.0, 1.676046801272243E9, 0.0, 2023-02-10 11:33:21.272
94.0, 4657.723564830251, 187500.0, -187500.02235174447, -187500.02235174447, -187500.02235174447, -187500.02235174447, -187500.02235174447, -187500.02235174447, 0.014, 0.046, 1.0, 192.0, 0.0, 0.0, 0.0, 0.0, 0.0, 0.0, 0.0, 0.0, 0.0, 1.676046801272283E9, 0.0, 2023-02-10 11:33:21.272
95.0, 4719.615545226997, 187500.0, -187500.02235174447, -187500.02235174447, -187500.02235174447, -187500.02235174447, -187500.02235174447, -187500.02235174447, 0.014, 0.046, 1.0, 192.0, 0.0, 0.0, 0.0, 0.0, 0.0, 0.0, 0.0, 0.0, 0.0, 1.676046801280133E9, 0.0, 2023-02-10 11:33:21.280
96.0, 4599.296104824079, 187500.0, -187500.02235174447, -187500.02235174447, -187500.02235174447, -187500.02235174447, -187500.02235174447, -187500.02235174447, 0.014, 0.044, 0.998, 192.0, 0.0, 112.0, 1.0, 96.0, 31.0, 48.0, 0.0, 0.0, 0.0, 1.676046801280168E9, 0.0, 2023-02-10 11:33:21.280
97.0, 4577.011415602138, 187500.0, -187500.02235174447, -187500.02235174447, -187500.02235174447, -187500.02235174447, -187500.02235174447, -187500.02235174447, 0.014, 0.044, 0.998, 192.0, 0.0, 0.0, 0.0, 0.0, 0.0, 0.0, 0.0, 0.0, 0.0, 1.676046801288169E9, 0.0, 2023-02-10 11:33:21.288
98.0, 4638.948099487794, 187500.0, -187500.02235174447, -187500.02235174447, -187500.02235174447, -187500.02235174447, -187500.02235174447, -187500.02235174447, 0.014, 0.044, 0.998, 192.0, 0.0, 0.0, 0.0, 0.0, 0.0, 0.0, 0.0, 0.0, 0.0, 1.676046801288197E9, 0.0, 2023-02-10 11:33:21.288
99.0, 4672.766288848673, 187500.0, -187500.02235174447, -187500.02235174447, -187500.02235174447, -187500.02235174447, -187500.02235174447, -187500.02235174447, 0.014, 0.044, 0.998, 192.0, 0.0, 0.0, 0.0, 0.0, 0.0, 0.0, 0.0, 0.0, 0.0, 1.676046801295057E9, 0.0, 2023-02-10 11:33:21.295
100.0, 4663.535018388631, 187500.0, -187500.02235174447, -187500.02235174447, -187500.02235174447, -187500.02235174447, -187500.02235174447, -187500.02235174447, 0.014, 0.044, 0.998, 192.0, 0.0, 0.0, 0.0, 0.0, 0.0, 0.0, 0.0, 0.0, 0.0, 1.67604680130155E9, 0.0, 2023-02-10 11:33:21.301
101.0, 4531.436208657767, 187500.0, -187500.02235174447, -187500.02235174447, -187500.02235174447, -187500.02235174447, -187500.02235174447, -187500.02235174447, 0.014, 0.044, 0.998, 192.0, 0.0, 0.0, 0.0, 0.0, 0.0, 0.0, 0.0, 0.0, 0.0, 1.676046801301576E9, 0.0, 2023-02-10 11:33:21.301
102.0, 4577.503153980155, 187500.0, -187500.02235174447, -187500.02235174447, -187500.02235174447, -187500.02235174447, -187500.02235174447, -187500.02235174447, 0.014, 0.044, 0.998, 192.0, 0.0, 0.0, 0.0, 0.0, 0.0, 0.0, 0.0, 0.0, 0.0, 1.676046801309646E9, 0.0, 2023-02-10 11:33:21.309
103.0, 4612.662448008353, 187500.0, -187500.02235174447, -187500.02235174447, -187500.02235174447, -187500.02235174447, -187500.02235174447, -187500.02235174447, 0.014, 0.044, 0.998, 192.0, 0.0, 0.0, 0.0, 0.0, 0.0, 0.0, 0.0, 0.0, 0.0, 1.676046801309668E9, 0.0, 2023-02-10 11:33:21.309
104.0, 4547.909444321328, 187500.0, -187500.02235174447, -187500.02235174447, -187500.02235174447, -187500.02235174447, -187500.02235174447, -187500.02235174447, 0.014, 0.044, 0.998, 192.0, 0.0, 0.0, 0.0, 0.0, 0.0, 0.0, 0.0, 0.0, 0.0, 1.676046801317633E9, 0.0, 2023-02-10 11:33:21.317
105.0, 4488.073824414471, 187500.0, -187500.02235174447, -187500.02235174447, -187500.02235174447, -187500.02235174447, -187500.02235174447, -187500.02235174447, 0.014, 0.044, 0.998, 192.0, 0.0, 0.0, 0.0, 0.0, 0.0, 0.0, 0.0, 0.0, 0.0, 1.676046801317654E9, 0.0, 2023-02-10 11:33:21.317
106.0, 4554.860836846929, 187500.0, -187500.02235174447, -187500.02235174447, -187500.02235174447, -187500.02235174447, -187500.02235174447, -187500.02235174447, 0.016, 0.042, 0.998, 192.0, 0.0, 128.0, 1.0, 80.0, 31.0, 48.0, 0.0, 0.0, 0.0, 1.67604680132435E9, 0.0, 2023-02-10 11:33:21.324
107.0, 4677.124879017458, 187500.0, -187500.02235174447, -187500.02235174447, -187500.02235174447, -187500.02235174447, -187500.02235174447, -187500.02235174447, 0.016, 0.042, 0.998, 192.0, 0.0, 0.0, 0.0, 0.0, 0.0, 0.0, 0.0, 0.0, 0.0, 1.676046801324374E9, 0.0, 2023-02-10 11:33:21.324
108.0, 4684.143326776424, 187500.0, -187500.02235174447, -187500.02235174447, -187500.02235174447, -187500.02235174447, -187500.02235174447, -187500.02235174447, 0.016, 0.042, 0.998, 192.0, 0.0, 0.0, 0.0, 0.0, 0.0, 0.0, 0.0, 0.0, 0.0, 1.67604680133226E9, 0.0, 2023-02-10 11:33:21.332
109.0, 4587.71790119623, 187500.0, -187500.02235174447, -187500.02235174447, -187500.02235174447, -187500.02235174447, -187500.02235174447, -187500.02235174447, 0.016, 0.042, 0.998, 192.0, 0.0, 0.0, 0.0, 0.0, 0.0, 0.0, 0.0, 0.0, 0.0, 1.676046801332287E9, 0.0, 2023-02-10 11:33:21.332
110.0, 4579.112479580936, 187500.0, -187500.02235174447, -187500.02235174447, -187500.02235174447, -187500.02235174447, -187500.02235174447, -187500.02235174447, 0.016, 0.042, 0.998, 192.0, 0.0, 0.0, 0.0, 0.0, 0.0, 0.0, 0.0, 0.0, 0.0, 1.676046801340184E9, 0.0, 2023-02-10 11:33:21.340
111.0, 4691.5194024466755, 187500.0, -187500.02235174447, -187500.02235174447, -187500.02235174447, -187500.02235174447, -187500.02235174447, -187500.02235174447, 0.016, 0.042, 0.998, 192.0, 0.0, 0.0, 0.0, 0.0, 0.0, 0.0, 0.0, 0.0, 0.0, 1.676046801340205E9, 0.0, 2023-02-10 11:33:21.340
112.0, 4630.521491828143, 187500.0, -187500.02235174447, -187500.02235174447, -187500.02235174447, -187500.02235174447, -187500.02235174447, -187500.02235174447, 0.016, 0.042, 0.998, 192.0, 0.0, 0.0, 0.0, 0.0, 0.0, 0.0, 0.0, 0.0, 0.0, 1.676046801347246E9, 0.0, 2023-02-10 11:33:21.347
113.0, 4517.3546096509235, 187500.0, -187500.02235174447, -187500.02235174447, -187500.02235174447, -187500.02235174447, -187500.02235174447, -187500.02235174447, 0.016, 0.042, 0.998, 192.0, 0.0, 0.0, 0.0, 0.0, 0.0, 0.0, 0.0, 0.0, 0.0, 1.676046801347266E9, 0.0, 2023-02-10 11:33:21.347
114.0, 4521.579089352977, 187500.0, -187500.02235174447, -187500.02235174447, -187500.02235174447, -187500.02235174447, -187500.02235174447, -187500.02235174447, 0.016, 0.042, 0.998, 192.0, 0.0, 0.0, 0.0, 0.0, 0.0, 0.0, 0.0, 0.0, 0.0, 1.676046801353798E9, 0.0, 2023-02-10 11:33:21.353
115.0, 4741.2967373486445, 187500.0, -187500.02235174447, -187500.02235174447, -187500.02235174447, -187500.02235174447, -187500.02235174447, -187500.02235174447, 0.016, 0.04, 0.996, 192.0, 0.0, 128.0, 1.0, 64.0, 31.0, 32.0, 0.0, 0.0, 0.0, 1.676046801353821E9, 0.0, 2023-02-10 11:33:21.353
116.0, 4771.449240618854, 187500.0, -187500.02235174447, -187500.02235174447, -187500.02235174447, -187500.02235174447, -187500.02235174447, -187500.02235174447, 0.016, 0.04, 0.996, 192.0, 0.0, 0.0, 0.0, 0.0, 0.0, 0.0, 0.0, 0.0, 0.0, 1.676046801361954E9, 0.0, 2023-02-10 11:33:21.361
117.0, 4526.541176622054, 187500.0, -187500.02235174447, -187500.02235174447, -187500.02235174447, -187500.02235174447, -187500.02235174447, -187500.02235174447, 0.016, 0.04, 0.996, 192.0, 0.0, 0.0, 0.0, 0.0, 0.0, 0.0, 0.0, 0.0, 0.0, 1.676046801369938E9, 0.0, 2023-02-10 11:33:21.369
118.0, 4387.401567387768, 187500.0, -187500.02235174447, -187500.02235174447, -187500.02235174447, -187500.02235174447, -187500.02235174447, -187500.02235174447, 0.016, 0.04, 0.996, 192.0, 0.0, 0.0, 0.0, 0.0, 0.0, 0.0, 0.0, 0.0, 0.0, 1.676046801369968E9, 0.0, 2023-02-10 11:33:21.369
119.0, 4588.4331570188, 187500.0, -187500.02235174447, -187500.02235174447, -187500.02235174447, -187500.02235174447, -187500.02235174447, -187500.02235174447, 0.016, 0.04, 0.996, 192.0, 0.0, 0.0, 0.0, 0.0, 0.0, 0.0, 0.0, 0.0, 0.0, 1.676046801377044E9, 0.0, 2023-02-10 11:33:21.377
120.0, 4676.16375400588, 187500.0, -187500.02235174447, -187500.02235174447, -187500.02235174447, -187500.02235174447, -187500.02235174447, -187500.02235174447, 0.016, 0.04, 0.996, 192.0, 0.0, 0.0, 0.0, 0.0, 0.0, 0.0, 0.0, 0.0, 0.0, 1.676046801377084E9, 0.0, 2023-02-10 11:33:21.377
121.0, 4563.242741017669, 187500.0, -187500.02235174447, -187500.02235174447, -187500.02235174447, -187500.02235174447, -187500.02235174447, -187500.02235174447, 0.016, 0.04, 0.996, 192.0, 0.0, 0.0, 0.0, 0.0, 0.0, 0.0, 0.0, 0.0, 0.0, 1.676046801384578E9, 0.0, 2023-02-10 11:33:21.384
122.0, 4447.795980906008, 187500.0, -187500.02235174447, -187500.02235174447, -187500.02235174447, -187500.02235174447, -187500.02235174447, -187500.02235174447, 0.016, 0.04, 0.996, 192.0, 0.0, 0.0, 0.0, 0.0, 0.0, 0.0, 0.0, 0.0, 0.0, 1.676046801384599E9, 0.0, 2023-02-10 11:33:21.384
123.0, 4623.100712668981, 187500.0, -187500.02235174447, -187500.02235174447, -187500.02235174447, -187500.02235174447, -187500.02235174447, -187500.02235174447, 0.016, 0.04, 0.996, 192.0, 0.0, 0.0, 0.0, 0.0, 0.0, 0.0, 0.0, 0.0, 0.0, 1.67604680139247E9, 0.0, 2023-02-10 11:33:21.392
124.0, 4709.691370688841, 187500.0, -187500.02235174447, -187500.02235174447, -187500.02235174447, -187500.02235174447, -187500.02235174447, -187500.02235174447, 0.016, 0.04, 0.996, 192.0, 0.0, 0.0, 0.0, 0.0, 0.0, 0.0, 0.0, 0.0, 0.0, 1.676046801392496E9, 0.0, 2023-02-10 11:33:21.392
125.0, 4583.538124983087, 187500.0, -187500.02235174447, -187500.02235174447, -187500.02235174447, -187500.02235174447, -187500.02235174447, -187500.02235174447, 0.012, 0.044, 0.994, 192.0, 0.0, 96.0, 1.0, 96.0, 31.0, 16.0, 0.0, 0.0, 0.0, 1.676046801400467E9, 0.0, 2023-02-10 11:33:21.400
126.0, 4454.1438763313145, 187500.0, -187500.02235174447, -187500.02235174447, -187500.02235174447, -187500.02235174447, -187500.02235174447, -187500.02235174447, 0.012, 0.044, 0.994, 192.0, 0.0, 0.0, 0.0, 0.0, 0.0, 0.0, 0.0, 0.0, 0.0, 1.67604680140049E9, 0.0, 2023-02-10 11:33:21.400
127.0, 4485.011635424094, 187500.0, -187500.02235174447, -187500.02235174447, -187500.02235174447, -187500.02235174447, -187500.02235174447, -187500.02235174447, 0.012, 0.044, 0.994, 192.0, 0.0, 0.0, 0.0, 0.0, 0.0, 0.0, 0.0, 0.0, 0.0, 1.676046801407052E9, 0.0, 2023-02-10 11:33:21.407
128.0, 4574.61977894542, 187500.0, -187500.02235174447, -187500.02235174447, -187500.02235174447, -187500.02235174447, -187500.02235174447, -187500.02235174447, 0.012, 0.044, 0.994, 192.0, 0.0, 0.0, 0.0, 0.0, 0.0, 0.0, 0.0, 0.0, 0.0, 1.676046801407073E9, 0.0, 2023-02-10 11:33:21.407
129.0, 4615.702285254274, 187500.0, -187500.02235174447, -187500.02235174447, -187500.02235174447, -187500.02235174447, -187500.02235174447, -187500.02235174447, 0.012, 0.044, 0.994, 192.0, 0.0, 0.0, 0.0, 0.0, 0.0, 0.0, 0.0, 0.0, 0.0, 1.676046801415157E9, 0.0, 2023-02-10 11:33:21.415
130.0, 4496.813356496496, 187500.0, -187500.02235174447, -187500.02235174447, -187500.02235174447, -187500.02235174447, -187500.02235174447, -187500.02235174447, 0.012, 0.044, 0.994, 192.0, 0.0, 0.0, 0.0, 0.0, 0.0, 0.0, 0.0, 0.0, 0.0, 1.676046801415181E9, 0.0, 2023-02-10 11:33:21.415
131.0, 4547.775333854596, 187500.0, -187500.02235174447, -187500.02235174447, -187500.02235174447, -187500.02235174447, -187500.02235174447, -187500.02235174447, 0.012, 0.044, 0.994, 192.0, 0.0, 0.0, 0.0, 0.0, 0.0, 0.0, 0.0, 0.0, 0.0, 1.676046801422171E9, 0.0, 2023-02-10 11:33:21.422
132.0, 4736.312298335111, 187500.0, -187500.02235174447, -187500.02235174447, -187500.02235174447, -187500.02235174447, -187500.02235174447, -187500.02235174447, 0.012, 0.044, 0.994, 192.0, 0.0, 0.0, 0.0, 0.0, 0.0, 0.0, 0.0, 0.0, 0.0, 1.676046801430168E9, 0.0, 2023-02-10 11:33:21.430
133.0, 4680.902323830405, 187500.0, -187500.02235174447, -187500.02235174447, -187500.02235174447, -187500.02235174447, -187500.02235174447, -187500.02235174447, 0.012, 0.044, 0.994, 192.0, 0.0, 0.0, 0.0, 0.0, 0.0, 0.0, 0.0, 0.0, 0.0, 1.676046801430189E9, 0.0, 2023-02-10 11:33:21.430
134.0, 4443.996184348605, 187500.0, -187500.02235174447, -187500.02235174447, -187500.02235174447, -187500.02235174447, -187500.02235174447, -187500.02235174447, 0.012, 0.044, 0.994, 192.0, 0.0, 0.0, 0.0, 0.0, 0.0, 0.0, 0.0, 0.0, 0.0, 1.676046801436796E9, 0.0, 2023-02-10 11:33:21.436
135.0, 4421.890309082307, 187500.0, -187500.02235174447, -187500.02235174447, -187500.02235174447, -187500.02235174447, -187500.02235174447, -187500.02235174447, 0.012, 0.046, 0.998, 192.0, 0.0, 96.0, 1.0, 112.0, 31.0, 48.0, 0.0, 0.0, 0.0, 1.67604680143682E9, 0.0, 2023-02-10 11:33:21.436
136.0, 4695.11803330398, 187500.0, -187500.02235174447, -187500.02235174447, -187500.02235174447, -187500.02235174447, -187500.02235174447, -187500.02235174447, 0.012, 0.046, 0.998, 192.0, 0.0, 0.0, 0.0, 0.0, 0.0, 0.0, 0.0, 0.0, 0.0, 1.676046801444773E9, 0.0, 2023-02-10 11:33:21.444
137.0, 4749.209254885824, 187500.0, -187500.02235174447, -187500.02235174447, -187500.02235174447, -187500.02235174447, -187500.02235174447, -187500.02235174447, 0.012, 0.046, 0.998, 192.0, 0.0, 0.0, 0.0, 0.0, 0.0, 0.0, 0.0, 0.0, 0.0, 1.676046801444795E9, 0.0, 2023-02-10 11:33:21.444
138.0, 4525.84827254394, 187500.0, -187500.02235174447, -187500.02235174447, -187500.02235174447, -187500.02235174447, -187500.02235174447, -187500.02235174447, 0.012, 0.046, 0.998, 192.0, 0.0, 0.0, 0.0, 0.0, 0.0, 0.0, 0.0, 0.0, 0.0, 1.676046801454029E9, 0.0, 2023-02-10 11:33:21.454
139.0, 4475.310978330491, 187500.0, -187500.02235174447, -187500.02235174447, -187500.02235174447, -187500.02235174447, -187500.02235174447, -187500.02235174447, 0.012, 0.046, 0.998, 192.0, 0.0, 0.0, 0.0, 0.0, 0.0, 0.0, 0.0, 0.0, 0.0, 1.676046801454049E9, 0.0, 2023-02-10 11:33:21.454
140.0, 4636.310593642067, 187500.0, -187500.02235174447, -187500.02235174447, -187500.02235174447, -187500.02235174447, -187500.02235174447, -187500.02235174447, 0.012, 0.046, 0.998, 192.0, 0.0, 0.0, 0.0, 0.0, 0.0, 0.0, 0.0, 0.0, 0.0, 1.676046801460109E9, 0.0, 2023-02-10 11:33:21.460
141.0, 4681.885800586439, 187500.0, -187500.02235174447, -187500.02235174447, -187500.02235174447, -187500.02235174447, -187500.02235174447, -187500.02235174447, 0.012, 0.046, 0.998, 192.0, 0.0, 0.0, 0.0, 0.0, 0.0, 0.0, 0.0, 0.0, 0.0, 1.676046801460125E9, 0.0, 2023-02-10 11:33:21.460
142.0, 4581.660578448842, 187500.0, -187500.02235174447, -187500.02235174447, -187500.02235174447, -187500.02235174447, -187500.02235174447, -187500.02235174447, 0.012, 0.046, 0.998, 192.0, 0.0, 0.0, 0.0, 0.0, 0.0, 0.0, 0.0, 0.0, 0.0, 1.676046801467278E9, 0.0, 2023-02-10 11:33:21.467
143.0, 4493.326484361468, 187500.0, -187500.02235174447, -187500.02235174447, -187500.02235174447, -187500.02235174447, -187500.02235174447, -187500.02235174447, 0.012, 0.046, 0.998, 192.0, 0.0, 0.0, 0.0, 0.0, 0.0, 0.0, 0.0, 0.0, 0.0, 1.6760468014673E9, 0.0, 2023-02-10 11:33:21.467
144.0, 4591.3835872869, 187500.0, -187500.02235174447, -187500.02235174447, -187500.02235174447, -187500.02235174447, -187500.02235174447, -187500.02235174447, 0.012, 0.046, 0.998, 192.0, 0.0, 0.0, 0.0, 0.0, 0.0, 0.0, 0.0, 0.0, 0.0, 1.676046801475407E9, 0.0, 2023-02-10 11:33:21.475
145.0, 4672.051033026103, 187500.0, -187500.02235174447, -187500.02235174447, -187500.02235174447, -187500.02235174447, -187500.02235174447, -187500.02235174447, 0.012, 0.044, 0.998, 192.0, 0.0, 96.0, 1.0, 96.0, 31.0, 48.0, 0.0, 0.0, 0.0, 1.676046801475439E9, 0.0, 2023-02-10 11:33:21.475
146.0, 4568.204828286747, 187500.0, -187500.02235174447, -187500.02235174447, -187500.02235174447, -187500.02235174447, -187500.02235174447, -187500.02235174447, 0.012, 0.044, 0.998, 192.0, 0.0, 0.0, 0.0, 0.0, 0.0, 0.0, 0.0, 0.0, 0.0, 1.676046801482511E9, 0.0, 2023-02-10 11:33:21.482
147.0, 4486.17392613577, 187500.0, -187500.02235174447, -187500.02235174447, -187500.02235174447, -187500.02235174447, -187500.02235174447, -187500.02235174447, 0.012, 0.044, 0.998, 192.0, 0.0, 0.0, 0.0, 0.0, 0.0, 0.0, 0.0, 0.0, 0.0, 1.676046801488972E9, 0.0, 2023-02-10 11:33:21.488
148.0, 4540.622775628898, 187500.0, -187500.02235174447, -187500.02235174447, -187500.02235174447, -187500.02235174447, -187500.02235174447, -187500.02235174447, 0.012, 0.044, 0.998, 192.0, 0.0, 0.0, 0.0, 0.0, 0.0, 0.0, 0.0, 0.0, 0.0, 1.676046801488994E9, 0.0, 2023-02-10 11:33:21.488
149.0, 4618.183328888814, 187500.0, -187500.02235174447, -187500.02235174447, -187500.02235174447, -187500.02235174447, -187500.02235174447, -187500.02235174447, 0.012, 0.044, 0.998, 192.0, 0.0, 0.0, 0.0, 0.0, 0.0, 0.0, 0.0, 0.0, 0.0, 1.676046801496968E9, 0.0, 2023-02-10 11:33:21.496
150.0, 4583.00168311616, 187500.0, -187500.02235174447, -187500.02235174447, -187500.02235174447, -187500.02235174447, -187500.02235174447, -187500.02235174447, 0.012, 0.044, 0.998, 192.0, 0.0, 0.0, 0.0, 0.0, 0.0, 0.0, 0.0, 0.0, 0.0, 1.676046801496988E9, 0.0, 2023-02-10 11:33:21.496
151.0, 4535.124246492893, 187500.0, -187500.02235174447, -187500.02235174447, -187500.02235174447, -187500.02235174447, -187500.02235174447, -187500.02235174447, 0.012, 0.044, 0.998, 192.0, 0.0, 0.0, 0.0, 0.0, 0.0, 0.0, 0.0, 0.0, 0.0, 1.676046801505074E9, 0.0, 2023-02-10 11:33:21.505
152.0, 4612.416578819344, 187500.0, -187500.02235174447, -187500.02235174447, -187500.02235174447, -187500.02235174447, -187500.02235174447, -187500.02235174447, 0.012, 0.044, 0.998, 192.0, 0.0, 0.0, 0.0, 0.0, 0.0, 0.0, 0.0, 0.0, 0.0, 1.676046801505099E9, 0.0, 2023-02-10 11:33:21.505
153.0, 4705.243373542235, 187500.0, -187500.02235174447, -187500.02235174447, -187500.02235174447, -187500.02235174447, -187500.02235174447, -187500.02235174447, 0.012, 0.044, 0.998, 192.0, 0.0, 0.0, 0.0, 0.0, 0.0, 0.0, 0.0, 0.0, 0.0, 1.676046801512287E9, 0.0, 2023-02-10 11:33:21.512
154.0, 4665.099640500503, 187500.0, -187500.02235174447, -187500.02235174447, -187500.02235174447, -187500.02235174447, -187500.02235174447, -187500.02235174447, 0.012, 0.044, 0.998, 192.0, 0.0, 0.0, 0.0, 0.0, 0.0, 0.0, 0.0, 0.0, 0.0, 1.676046801512312E9, 0.0, 2023-02-10 11:33:21.512
155.0, 4533.000830769638, 187500.0, -187500.02235174447, -187500.02235174447, -187500.02235174447, -187500.02235174447, -187500.02235174447, -187500.02235174447, 0.012, 0.044, 1.0, 192.0, 0.0, 96.0, 1.0, 96.0, 31.0, 64.0, 0.0, 0.0, 0.0, 1.67604680151974E9, 0.0, 2023-02-10 11:33:21.519
156.0, 4590.24364831968, 187500.0, -187500.02235174447, -187500.02235174447, -187500.02235174447, -187500.02235174447, -187500.02235174447, -187500.02235174447, 0.012, 0.044, 1.0, 192.0, 0.0, 0.0, 0.0, 0.0, 0.0, 0.0, 0.0, 0.0, 0.0, 1.676046801519778E9, 0.0, 2023-02-10 11:33:21.519
157.0, 4666.731317845741, 187500.0, -187500.02235174447, -187500.02235174447, -187500.02235174447, -187500.02235174447, -187500.02235174447, -187500.02235174447, 0.012, 0.044, 1.0, 192.0, 0.0, 0.0, 0.0, 0.0, 0.0, 0.0, 0.0, 0.0, 0.0, 1.676046801529086E9, 0.0, 2023-02-10 11:33:21.529
158.0, 4725.874033674483, 187500.0, -187500.02235174447, -187500.02235174447, -187500.02235174447, -187500.02235174447, -187500.02235174447, -187500.02235174447, 0.012, 0.044, 1.0, 192.0, 0.0, 0.0, 0.0, 0.0, 0.0, 0.0, 0.0, 0.0, 0.0, 1.676046801529111E9, 0.0, 2023-02-10 11:33:21.529
159.0, 4645.564215846564, 187500.0, -187500.02235174447, -187500.02235174447, -187500.02235174447, -187500.02235174447, -187500.02235174447, -187500.02235174447, 0.012, 0.044, 1.0, 192.0, 0.0, 0.0, 0.0, 0.0, 0.0, 0.0, 0.0, 0.0, 0.0, 1.676046801535659E9, 0.0, 2023-02-10 11:33:21.535
160.0, 4558.548874682054, 187500.0, -187500.02235174447, -187500.02235174447, -187500.02235174447, -187500.02235174447, -187500.02235174447, -187500.02235174447, 0.012, 0.044, 1.0, 192.0, 0.0, 0.0, 0.0, 0.0, 0.0, 0.0, 0.0, 0.0, 0.0, 1.67604680153568E9, 0.0, 2023-02-10 11:33:21.535
161.0, 4811.391807960487, 187500.0, -187500.02235174447, -187500.02235174447, -187500.02235174447, -187500.02235174447, -187500.02235174447, -187500.02235174447, 0.012, 0.044, 1.0, 192.0, 0.0, 0.0, 0.0, 0.0, 0.0, 0.0, 0.0, 0.0, 0.0, 1.676046801541705E9, 0.0, 2023-02-10 11:33:21.541
162.0, 4835.755209416772, 187500.0, -187500.02235174447, -187500.02235174447, -187500.02235174447, -187500.02235174447, -187500.02235174447, -187500.02235174447, 0.012, 0.044, 1.0, 192.0, 0.0, 0.0, 0.0, 0.0, 0.0, 0.0, 0.0, 0.0, 0.0, 1.67604680154919E9, 0.0, 2023-02-10 11:33:21.549
163.0, 4559.889979349373, 187500.0, -187500.02235174447, -187500.02235174447, -187500.02235174447, -187500.02235174447, -187500.02235174447, -187500.02235174447, 0.012, 0.044, 1.0, 192.0, 0.0, 0.0, 0.0, 0.0, 0.0, 0.0, 0.0, 0.0, 0.0, 1.676046801549209E9, 0.0, 2023-02-10 11:33:21.549
164.0, 4512.548984593032, 187500.0, -187500.02235174447, -187500.02235174447, -187500.02235174447, -187500.02235174447, -187500.02235174447, -187500.02235174447, 0.018000000000000002, 0.042, 1.002, 192.0, 0.0, 144.0, 1.0, 80.0, 31.0, 80.0, 0.0, 0.0, 0.0, 1.676046801557404E9, 0.0, 2023-02-10 11:33:21.557
165.0, 4607.409788061355, 187500.0, -187500.02235174447, -187500.02235174447, -187500.02235174447, -187500.02235174447, -187500.02235174447, -187500.02235174447, 0.018000000000000002, 0.042, 1.002, 192.0, 0.0, 0.0, 0.0, 0.0, 0.0, 0.0, 0.0, 0.0, 0.0, 1.67604680155743E9, 0.0, 2023-02-10 11:33:21.557
166.0, 4592.747043698674, 187500.0, -187500.02235174447, -187500.02235174447, -187500.02235174447, -187500.02235174447, -187500.02235174447, -187500.02235174447, 0.018000000000000002, 0.042, 1.002, 192.0, 0.0, 0.0, 0.0, 0.0, 0.0, 0.0, 0.0, 0.0, 0.0, 1.676046801565438E9, 0.0, 2023-02-10 11:33:21.565
167.0, 4566.327281752501, 187500.0, -187500.02235174447, -187500.02235174447, -187500.02235174447, -187500.02235174447, -187500.02235174447, -187500.02235174447, 0.018000000000000002, 0.042, 1.002, 192.0, 0.0, 0.0, 0.0, 0.0, 0.0, 0.0, 0.0, 0.0, 0.0, 1.676046801565464E9, 0.0, 2023-02-10 11:33:21.565
168.0, 4545.495455920155, 187500.0, -187500.02235174447, -187500.02235174447, -187500.02235174447, -187500.02235174447, -187500.02235174447, -187500.02235174447, 0.018000000000000002, 0.042, 1.002, 192.0, 0.0, 0.0, 0.0, 0.0, 0.0, 0.0, 0.0, 0.0, 0.0, 1.676046801571922E9, 0.0, 2023-02-10 11:33:21.571
169.0, 4656.11423922947, 187500.0, -187500.02235174447, -187500.02235174447, -187500.02235174447, -187500.02235174447, -187500.02235174447, -187500.02235174447, 0.018000000000000002, 0.042, 1.002, 192.0, 0.0, 0.0, 0.0, 0.0, 0.0, 0.0, 0.0, 0.0, 0.0, 1.676046801571945E9, 0.0, 2023-02-10 11:33:21.571
170.0, 4766.75537428324, 187500.0, -187500.02235174447, -187500.02235174447, -187500.02235174447, -187500.02235174447, -187500.02235174447, -187500.02235174447, 0.018000000000000002, 0.042, 1.002, 192.0, 0.0, 0.0, 0.0, 0.0, 0.0, 0.0, 0.0, 0.0, 0.0, 1.676046801580011E9, 0.0, 2023-02-10 11:33:21.580
171.0, 4724.085894118059, 187500.0, -187500.02235174447, -187500.02235174447, -187500.02235174447, -187500.02235174447, -187500.02235174447, -187500.02235174447, 0.018000000000000002, 0.042, 1.002, 192.0, 0.0, 0.0, 0.0, 0.0, 0.0, 0.0, 0.0, 0.0, 0.0, 1.676046801580091E9, 0.0, 2023-02-10 11:33:21.580
172.0, 4568.5401044535765, 187500.0, -187500.02235174447, -187500.02235174447, -187500.02235174447, -187500.02235174447, -187500.02235174447, -187500.02235174447, 0.018000000000000002, 0.042, 1.002, 192.0, 0.0, 0.0, 0.0, 0.0, 0.0, 0.0, 0.0, 0.0, 0.0, 1.676046801588032E9, 0.0, 2023-02-10 11:33:21.588
173.0, 4616.283430610112, 187500.0, -187500.02235174447, -187500.02235174447, -187500.02235174447, -187500.02235174447, -187500.02235174447, -187500.02235174447, 0.018000000000000002, 0.042, 1.002, 192.0, 0.0, 0.0, 0.0, 0.0, 0.0, 0.0, 0.0, 0.0, 0.0, 1.676046801588055E9, 0.0, 2023-02-10 11:33:21.588
174.0, 4715.435769013854, 187500.0, -187500.02235174447, -187500.02235174447, -187500.02235174447, -187500.02235174447, -187500.02235174447, -187500.02235174447, 0.018000000000000002, 0.046, 1.002, 192.0, 0.0, 144.0, 1.0, 112.0, 31.0, 80.0, 0.0, 0.0, 0.0, 1.676046801594643E9, 0.0, 2023-02-10 11:33:21.594
175.0, 4636.556462831076, 187500.0, -187500.02235174447, -187500.02235174447, -187500.02235174447, -187500.02235174447, -187500.02235174447, -187500.02235174447, 0.018000000000000002, 0.046, 1.002, 192.0, 0.0, 0.0, 0.0, 0.0, 0.0, 0.0, 0.0, 0.0, 0.0, 1.676046801594666E9, 0.0, 2023-02-10 11:33:21.594
176.0, 4538.477008161189, 187500.0, -187500.02235174447, -187500.02235174447, -187500.02235174447, -187500.02235174447, -187500.02235174447, -187500.02235174447, 0.018000000000000002, 0.046, 1.002, 192.0, 0.0, 0.0, 0.0, 0.0, 0.0, 0.0, 0.0, 0.0, 0.0, 1.676046801601669E9, 0.0, 2023-02-10 11:33:21.601
177.0, 4486.218629624681, 187500.0, -187500.02235174447, -187500.02235174447, -187500.02235174447, -187500.02235174447, -187500.02235174447, -187500.02235174447, 0.018000000000000002, 0.046, 1.002, 192.0, 0.0, 0.0, 0.0, 0.0, 0.0, 0.0, 0.0, 0.0, 0.0, 1.676046801601806E9, 0.0, 2023-02-10 11:33:21.601
178.0, 4640.132741943925, 187500.0, -187500.02235174447, -187500.02235174447, -187500.02235174447, -187500.02235174447, -187500.02235174447, -187500.02235174447, 0.018000000000000002, 0.046, 1.002, 192.0, 0.0, 0.0, 0.0, 0.0, 0.0, 0.0, 0.0, 0.0, 0.0, 1.676046801609698E9, 0.0, 2023-02-10 11:33:21.609
179.0, 4817.2479650077785, 187500.0, -187500.02235174447, -187500.02235174447, -187500.02235174447, -187500.02235174447, -187500.02235174447, -187500.02235174447, 0.018000000000000002, 0.046, 1.002, 192.0, 0.0, 0.0, 0.0, 0.0, 0.0, 0.0, 0.0, 0.0, 0.0, 1.676046801617661E9, 0.0, 2023-02-10 11:33:21.617
180.0, 4617.2669073661455, 187500.0, -187500.02235174447, -187500.02235174447, -187500.02235174447, -187500.02235174447, -187500.02235174447, -187500.02235174447, 0.018000000000000002, 0.046, 1.002, 192.0, 0.0, 0.0, 0.0, 0.0, 0.0, 0.0, 0.0, 0.0, 0.0, 1.676046801617693E9, 0.0, 2023-02-10 11:33:21.617
181.0, 4530.072752245993, 187500.0, -187500.02235174447, -187500.02235174447, -187500.02235174447, -187500.02235174447, -187500.02235174447, -187500.02235174447, 0.018000000000000002, 0.046, 1.002, 192.0, 0.0, 0.0, 0.0, 0.0, 0.0, 0.0, 0.0, 0.0, 0.0, 1.676046801624152E9, 0.0, 2023-02-10 11:33:21.624
182.0, 4695.0956815595255, 187500.0, -187500.02235174447, -187500.02235174447, -187500.02235174447, -187500.02235174447, -187500.02235174447, -187500.02235174447, 0.018000000000000002, 0.046, 1.002, 192.0, 0.0, 0.0, 0.0, 0.0, 0.0, 0.0, 0.0, 0.0, 0.0, 1.676046801624168E9, 0.0, 2023-02-10 11:33:21.624
183.0, 4699.096643817025, 187500.0, -187500.02235174447, -187500.02235174447, -187500.02235174447, -187500.02235174447, -187500.02235174447, -187500.02235174447, 0.018000000000000002, 0.046, 1.002, 192.0, 0.0, 0.0, 0.0, 0.0, 0.0, 0.0, 0.0, 0.0, 0.0, 1.676046801632164E9, 0.0, 2023-02-10 11:33:21.632
184.0, 4570.216485287725, 187500.0, -187500.02235174447, -187500.02235174447, -187500.02235174447, -187500.02235174447, -187500.02235174447, -187500.02235174447, 0.014, 0.044, 1.0, 192.0, 0.0, 112.0, 1.0, 96.0, 31.0, 64.0, 0.0, 0.0, 0.0, 1.676046801632184E9, 0.0, 2023-02-10 11:33:21.632
185.0, 4582.711110438241, 187500.0, -187500.02235174447, -187500.02235174447, -187500.02235174447, -187500.02235174447, -187500.02235174447, -187500.02235174447, 0.014, 0.044, 1.0, 192.0, 0.0, 0.0, 0.0, 0.0, 0.0, 0.0, 0.0, 0.0, 0.0, 1.67604680164021E9, 0.0, 2023-02-10 11:33:21.640
186.0, 4692.368768735978, 187500.0, -187500.02235174447, -187500.02235174447, -187500.02235174447, -187500.02235174447, -187500.02235174447, -187500.02235174447, 0.014, 0.044, 1.0, 192.0, 0.0, 0.0, 0.0, 0.0, 0.0, 0.0, 0.0, 0.0, 0.0, 1.67604680164023E9, 0.0, 2023-02-10 11:33:21.640
187.0, 4694.6262949259635, 187500.0, -187500.02235174447, -187500.02235174447, -187500.02235174447, -187500.02235174447, -187500.02235174447, -187500.02235174447, 0.014, 0.044, 1.0, 192.0, 0.0, 0.0, 0.0, 0.0, 0.0, 0.0, 0.0, 0.0, 0.0, 1.676046801647358E9, 0.0, 2023-02-10 11:33:21.647
188.0, 4590.735386697696, 187500.0, -187500.02235174447, -187500.02235174447, -187500.02235174447, -187500.02235174447, -187500.02235174447, -187500.02235174447, 0.014, 0.044, 1.0, 192.0, 0.0, 0.0, 0.0, 0.0, 0.0, 0.0, 0.0, 0.0, 0.0, 1.676046801647381E9, 0.0, 2023-02-10 11:33:21.647
189.0, 4611.634267763408, 187500.0, -187500.02235174447, -187500.02235174447, -187500.02235174447, -187500.02235174447, -187500.02235174447, -187500.02235174447, 0.014, 0.044, 1.0, 192.0, 0.0, 0.0, 0.0, 0.0, 0.0, 0.0, 0.0, 0.0, 0.0, 1.67604680165482E9, 0.0, 2023-02-10 11:33:21.654
190.0, 4740.201501870335, 187500.0, -187500.02235174447, -187500.02235174447, -187500.02235174447, -187500.02235174447, -187500.02235174447, -187500.02235174447, 0.014, 0.044, 1.0, 192.0, 0.0, 0.0, 0.0, 0.0, 0.0, 0.0, 0.0, 0.0, 0.0, 1.676046801654842E9, 0.0, 2023-02-10 11:33:21.654
191.0, 4747.823446729594, 187500.0, -187500.02235174447, -187500.02235174447, -187500.02235174447, -187500.02235174447, -187500.02235174447, -187500.02235174447, 0.014, 0.044, 1.0, 192.0, 0.0, 0.0, 0.0, 0.0, 0.0, 0.0, 0.0, 0.0, 0.0, 1.67604680166293E9, 0.0, 2023-02-10 11:33:21.662
192.0, 4689.507745445699, 187500.0, -187500.02235174447, -187500.02235174447, -187500.02235174447, -187500.02235174447, -187500.02235174447, -187500.02235174447, 0.014, 0.044, 1.0, 192.0, 0.0, 0.0, 0.0, 0.0, 0.0, 0.0, 0.0, 0.0, 0.0, 1.676046801663089E9, 0.0, 2023-02-10 11:33:21.663
193.0, 4519.925060263284, 187500.0, -187500.02235174447, -187500.02235174447, -187500.02235174447, -187500.02235174447, -187500.02235174447, -187500.02235174447, 0.014, 0.044, 1.0, 192.0, 0.0, 0.0, 0.0, 0.0, 0.0, 0.0, 0.0, 0.0, 0.0, 1.676046801669906E9, 0.0, 2023-02-10 11:33:21.669
194.0, 4603.252363592668, 187500.0, -187500.02235174447, -187500.02235174447, -187500.02235174447, -187500.02235174447, -187500.02235174447, -187500.02235174447, 0.014, 0.042, 0.996, 192.0, 0.0, 112.0, 1.0, 80.0, 31.0, 32.0, 0.0, 0.0, 0.0, 1.676046801676892E9, 0.0, 2023-02-10 11:33:21.676
195.0, 4714.496995746732, 187500.0, -187500.02235174447, -187500.02235174447, -187500.02235174447, -187500.02235174447, -187500.02235174447, -187500.02235174447, 0.014, 0.042, 0.996, 192.0, 0.0, 0.0, 0.0, 0.0, 0.0, 0.0, 0.0, 0.0, 0.0, 1.676046801676913E9, 0.0, 2023-02-10 11:33:21.676
196.0, 4646.592396091509, 187500.0, -187500.02235174447, -187500.02235174447, -187500.02235174447, -187500.02235174447, -187500.02235174447, -187500.02235174447, 0.014, 0.042, 0.996, 192.0, 0.0, 0.0, 0.0, 0.0, 0.0, 0.0, 0.0, 0.0, 0.0, 1.67604680168475E9, 0.0, 2023-02-10 11:33:21.684
197.0, 4543.349688452446, 187500.0, -187500.02235174447, -187500.02235174447, -187500.02235174447, -187500.02235174447, -187500.02235174447, -187500.02235174447, 0.014, 0.042, 0.996, 192.0, 0.0, 0.0, 0.0, 0.0, 0.0, 0.0, 0.0, 0.0, 0.0, 1.676046801684828E9, 0.0, 2023-02-10 11:33:21.684
198.0, 4615.568174787542, 187500.0, -187500.02235174447, -187500.02235174447, -187500.02235174447, -187500.02235174447, -187500.02235174447, -187500.02235174447, 0.014, 0.042, 0.996, 192.0, 0.0, 0.0, 0.0, 0.0, 0.0, 0.0, 0.0, 0.0, 0.0, 1.67604680169267E9, 0.0, 2023-02-10 11:33:21.692
199.0, 4634.656564552375, 187500.0, -187500.02235174447, -187500.02235174447, -187500.02235174447, -187500.02235174447, -187500.02235174447, -187500.02235174447, 0.014, 0.042, 0.996, 192.0, 0.0, 0.0, 0.0, 0.0, 0.0, 0.0, 0.0, 0.0, 0.0, 1.676046801692701E9, 0.0, 2023-02-10 11:33:21.692
200.0, 4615.165843387347, 187500.0, -187500.02235174447, -187500.02235174447, -187500.02235174447, -187500.02235174447, -187500.02235174447, -187500.02235174447, 0.014, 0.042, 0.996, 192.0, 0.0, 0.0, 0.0, 0.0, 0.0, 0.0, 0.0, 0.0, 0.0, 1.67604680170046E9, 0.0, 2023-02-10 11:33:21.700
201.0, 4572.026976588604, 187500.0, -187500.02235174447, -187500.02235174447, -187500.02235174447, -187500.02235174447, -187500.02235174447, -187500.02235174447, 0.014, 0.042, 0.996, 192.0, 0.0, 0.0, 0.0, 0.0, 0.0, 0.0, 0.0, 0.0, 0.0, 1.676046801700484E9, 0.0, 2023-02-10 11:33:21.700
202.0, 4632.4660935957545, 187500.0, -187500.02235174447, -187500.02235174447, -187500.02235174447, -187500.02235174447, -187500.02235174447, -187500.02235174447, 0.014, 0.042, 0.996, 192.0, 0.0, 0.0, 0.0, 0.0, 0.0, 0.0, 0.0, 0.0, 0.0, 1.676046801707175E9, 0.0, 2023-02-10 11:33:21.707
203.0, 4754.841894488561, 187500.0, -187500.02235174447, -187500.02235174447, -187500.02235174447, -187500.02235174447, -187500.02235174447, -187500.02235174447, 0.014, 0.042, 0.996, 192.0, 0.0, 0.0, 0.0, 0.0, 0.0, 0.0, 0.0, 0.0, 0.0, 1.676046801707207E9, 0.0, 2023-02-10 11:33:21.707
204.0, 4732.445446544343, 187500.0, -187500.02235174447, -187500.02235174447, -187500.02235174447, -187500.02235174447, -187500.02235174447, -187500.02235174447, 0.018000000000000002, 0.046, 1.0, 192.0, 0.0, 144.0, 1.0, 112.0, 31.0, 64.0, 0.0, 0.0, 0.0, 1.676046801715153E9, 0.0, 2023-02-10 11:33:21.715
205.0, 4585.19215407278, 187500.0, -187500.02235174447, -187500.02235174447, -187500.02235174447, -187500.02235174447, -187500.02235174447, -187500.02235174447, 0.018000000000000002, 0.046, 1.0, 192.0, 0.0, 0.0, 0.0, 0.0, 0.0, 0.0, 0.0, 0.0, 0.0, 1.676046801715198E9, 0.0, 2023-02-10 11:33:21.715
206.0, 4633.986012218716, 187500.0, -187500.02235174447, -187500.02235174447, -187500.02235174447, -187500.02235174447, -187500.02235174447, -187500.02235174447, 0.018000000000000002, 0.046, 1.0, 192.0, 0.0, 0.0, 0.0, 0.0, 0.0, 0.0, 0.0, 0.0, 0.0, 1.676046801723062E9, 0.0, 2023-02-10 11:33:21.723
207.0, 4797.6454851204735, 187500.0, -187500.02235174447, -187500.02235174447, -187500.02235174447, -187500.02235174447, -187500.02235174447, -187500.02235174447, 0.018000000000000002, 0.046, 1.0, 192.0, 0.0, 0.0, 0.0, 0.0, 0.0, 0.0, 0.0, 0.0, 0.0, 1.67604680172317E9, 0.0, 2023-02-10 11:33:21.723
208.0, 4801.802909589161, 187500.0, -187500.02235174447, -187500.02235174447, -187500.02235174447, -187500.02235174447, -187500.02235174447, -187500.02235174447, 0.018000000000000002, 0.046, 1.0, 192.0, 0.0, 0.0, 0.0, 0.0, 0.0, 0.0, 0.0, 0.0, 0.0, 1.676046801729205E9, 0.0, 2023-02-10 11:33:21.729
209.0, 4548.870569332907, 187500.0, -187500.02235174447, -187500.02235174447, -187500.02235174447, -187500.02235174447, -187500.02235174447, -187500.02235174447, 0.018000000000000002, 0.046, 1.0, 192.0, 0.0, 0.0, 0.0, 0.0, 0.0, 0.0, 0.0, 0.0, 0.0, 1.67604680173671E9, 0.0, 2023-02-10 11:33:21.736
210.0, 4563.734479395685, 187500.0, -187500.02235174447, -187500.02235174447, -187500.02235174447, -187500.02235174447, -187500.02235174447, -187500.02235174447, 0.018000000000000002, 0.046, 1.0, 192.0, 0.0, 0.0, 0.0, 0.0, 0.0, 0.0, 0.0, 0.0, 0.0, 1.67604680173673E9, 0.0, 2023-02-10 11:33:21.736
211.0, 4781.060490734636, 187500.0, -187500.02235174447, -187500.02235174447, -187500.02235174447, -187500.02235174447, -187500.02235174447, -187500.02235174447, 0.018000000000000002, 0.046, 1.0, 192.0, 0.0, 0.0, 0.0, 0.0, 0.0, 0.0, 0.0, 0.0, 0.0, 1.676046801744885E9, 0.0, 2023-02-10 11:33:21.744
212.0, 4757.926435223393, 187500.0, -187500.02235174447, -187500.02235174447, -187500.02235174447, -187500.02235174447, -187500.02235174447, -187500.02235174447, 0.018000000000000002, 0.046, 1.0, 192.0, 0.0, 0.0, 0.0, 0.0, 0.0, 0.0, 0.0, 0.0, 0.0, 1.676046801744913E9, 0.0, 2023-02-10 11:33:21.744
213.0, 4610.986067174204, 187500.0, -187500.02235174447, -187500.02235174447, -187500.02235174447, -187500.02235174447, -187500.02235174447, -187500.02235174447, 0.016, 0.044, 0.998, 192.0, 0.0, 128.0, 1.0, 96.0, 31.0, 48.0, 0.0, 0.0, 0.0, 1.676046801752855E9, 0.0, 2023-02-10 11:33:21.752
214.0, 4531.145635979848, 187500.0, -187500.02235174447, -187500.02235174447, -187500.02235174447, -187500.02235174447, -187500.02235174447, -187500.02235174447, 0.016, 0.044, 0.998, 192.0, 0.0, 0.0, 0.0, 0.0, 0.0, 0.0, 0.0, 0.0, 0.0, 1.67604680175288E9, 0.0, 2023-02-10 11:33:21.752
215.0, 4676.5437336616205, 187500.0, -187500.02235174447, -187500.02235174447, -187500.02235174447, -187500.02235174447, -187500.02235174447, -187500.02235174447, 0.016, 0.044, 0.998, 192.0, 0.0, 0.0, 0.0, 0.0, 0.0, 0.0, 0.0, 0.0, 0.0, 1.676046801759338E9, 0.0, 2023-02-10 11:33:21.759
216.0, 4760.18396141338, 187500.0, -187500.02235174447, -187500.02235174447, -187500.02235174447, -187500.02235174447, -187500.02235174447, -187500.02235174447, 0.016, 0.044, 0.998, 192.0, 0.0, 0.0, 0.0, 0.0, 0.0, 0.0, 0.0, 0.0, 0.0, 1.676046801759359E9, 0.0, 2023-02-10 11:33:21.759
217.0, 4664.831419567039, 187500.0, -187500.02235174447, -187500.02235174447, -187500.02235174447, -187500.02235174447, -187500.02235174447, -187500.02235174447, 0.016, 0.044, 0.998, 192.0, 0.0, 0.0, 0.0, 0.0, 0.0, 0.0, 0.0, 0.0, 0.0, 1.676046801767471E9, 0.0, 2023-02-10 11:33:21.767
218.0, 4574.731537667696, 187500.0, -187500.02235174447, -187500.02235174447, -187500.02235174447, -187500.02235174447, -187500.02235174447, -187500.02235174447, 0.016, 0.044, 0.998, 192.0, 0.0, 0.0, 0.0, 0.0, 0.0, 0.0, 0.0, 0.0, 0.0, 1.676046801767517E9, 0.0, 2023-02-10 11:33:21.767
219.0, 4617.401017832878, 187500.0, -187500.02235174447, -187500.02235174447, -187500.02235174447, -187500.02235174447, -187500.02235174447, -187500.02235174447, 0.016, 0.044, 0.998, 192.0, 0.0, 0.0, 0.0, 0.0, 0.0, 0.0, 0.0, 0.0, 0.0, 1.676046801775449E9, 0.0, 2023-02-10 11:33:21.775
220.0, 4709.043170099637, 187500.0, -187500.02235174447, -187500.02235174447, -187500.02235174447, -187500.02235174447, -187500.02235174447, -187500.02235174447, 0.016, 0.044, 0.998, 192.0, 0.0, 0.0, 0.0, 0.0, 0.0, 0.0, 0.0, 0.0, 0.0, 1.676046801775474E9, 0.0, 2023-02-10 11:33:21.775
221.0, 4643.73137280123, 187500.0, -187500.02235174447, -187500.02235174447, -187500.02235174447, -187500.02235174447, -187500.02235174447, -187500.02235174447, 0.016, 0.044, 0.998, 192.0, 0.0, 0.0, 0.0, 0.0, 0.0, 0.0, 0.0, 0.0, 0.0, 1.676046801782513E9, 0.0, 2023-02-10 11:33:21.782
222.0, 4538.052325016538, 187500.0, -187500.02235174447, -187500.02235174447, -187500.02235174447, -187500.02235174447, -187500.02235174447, -187500.02235174447, 0.016, 0.044, 0.998, 192.0, 0.0, 0.0, 0.0, 0.0, 0.0, 0.0, 0.0, 0.0, 0.0, 1.67604680178262E9, 0.0, 2023-02-10 11:33:21.782
223.0, 4593.127023354415, 187500.0, -187500.02235174447, -187500.02235174447, -187500.02235174447, -187500.02235174447, -187500.02235174447, -187500.02235174447, 0.018000000000000002, 0.044, 0.998, 192.0, 0.0, 144.0, 1.0, 96.0, 31.0, 48.0, 0.0, 0.0, 0.0, 1.676046801789209E9, 0.0, 2023-02-10 11:33:21.789
224.0, 4744.56009203912, 187500.0, -187500.02235174447, -187500.02235174447, -187500.02235174447, -187500.02235174447, -187500.02235174447, -187500.02235174447, 0.018000000000000002, 0.044, 0.998, 192.0, 0.0, 0.0, 0.0, 0.0, 0.0, 0.0, 0.0, 0.0, 0.0, 1.676046801797099E9, 0.0, 2023-02-10 11:33:21.797
225.0, 4722.096588861536, 187500.0, -187500.02235174447, -187500.02235174447, -187500.02235174447, -187500.02235174447, -187500.02235174447, -187500.02235174447, 0.018000000000000002, 0.044, 0.998, 192.0, 0.0, 0.0, 0.0, 0.0, 0.0, 0.0, 0.0, 0.0, 0.0, 1.676046801797121E9, 0.0, 2023-02-10 11:33:21.797
226.0, 4600.726616469218, 187500.0, -187500.02235174447, -187500.02235174447, -187500.02235174447, -187500.02235174447, -187500.02235174447, -187500.02235174447, 0.018000000000000002, 0.044, 0.998, 192.0, 0.0, 0.0, 0.0, 0.0, 0.0, 0.0, 0.0, 0.0, 0.0, 1.676046801805029E9, 0.0, 2023-02-10 11:33:21.805
227.0, 4640.937404744316, 187500.0, -187500.02235174447, -187500.02235174447, -187500.02235174447, -187500.02235174447, -187500.02235174447, -187500.02235174447, 0.018000000000000002, 0.044, 0.998, 192.0, 0.0, 0.0, 0.0, 0.0, 0.0, 0.0, 0.0, 0.0, 0.0, 1.676046801805048E9, 0.0, 2023-02-10 11:33:21.805
228.0, 4794.248019963267, 187500.0, -187500.02235174447, -187500.02235174447, -187500.02235174447, -187500.02235174447, -187500.02235174447, -187500.02235174447, 0.018000000000000002, 0.044, 0.998, 192.0, 0.0, 0.0, 0.0, 0.0, 0.0, 0.0, 0.0, 0.0, 0.0, 1.676046801812005E9, 0.0, 2023-02-10 11:33:21.812
229.0, 4855.380041048532, 187500.0, -187500.02235174447, -187500.02235174447, -187500.02235174447, -187500.02235174447, -187500.02235174447, -187500.02235174447, 0.018000000000000002, 0.044, 0.998, 192.0, 0.0, 0.0, 0.0, 0.0, 0.0, 0.0, 0.0, 0.0, 0.0, 1.676046801812024E9, 0.0, 2023-02-10 11:33:21.812
230.0, 4661.478657898743, 187500.0, -187500.02235174447, -187500.02235174447, -187500.02235174447, -187500.02235174447, -187500.02235174447, -187500.02235174447, 0.018000000000000002, 0.044, 0.998, 192.0, 0.0, 0.0, 0.0, 0.0, 0.0, 0.0, 0.0, 0.0, 0.0, 1.676046801819616E9, 0.0, 2023-02-10 11:33:21.819
231.0, 4589.975427386216, 187500.0, -187500.02235174447, -187500.02235174447, -187500.02235174447, -187500.02235174447, -187500.02235174447, -187500.02235174447, 0.018000000000000002, 0.044, 0.998, 192.0, 0.0, 0.0, 0.0, 0.0, 0.0, 0.0, 0.0, 0.0, 0.0, 1.676046801819662E9, 0.0, 2023-02-10 11:33:21.819
232.0, 4729.830292443072, 187500.0, -187500.02235174447, -187500.02235174447, -187500.02235174447, -187500.02235174447, -187500.02235174447, -187500.02235174447, 0.018000000000000002, 0.044, 0.998, 192.0, 0.0, 0.0, 0.0, 0.0, 0.0, 0.0, 0.0, 0.0, 0.0, 1.67604680182765E9, 0.0, 2023-02-10 11:33:21.827
233.0, 4698.023760083171, 187500.0, -187500.02235174447, -187500.02235174447, -187500.02235174447, -187500.02235174447, -187500.02235174447, -187500.02235174447, 0.016, 0.042, 1.002, 192.0, 0.0, 128.0, 1.0, 80.0, 31.0, 80.0, 0.0, 0.0, 0.0, 1.676046801827691E9, 0.0, 2023-02-10 11:33:21.827
234.0, 4556.939549081272, 187500.0, -187500.02235174447, -187500.02235174447, -187500.02235174447, -187500.02235174447, -187500.02235174447, -187500.02235174447, 0.016, 0.042, 1.002, 192.0, 0.0, 0.0, 0.0, 0.0, 0.0, 0.0, 0.0, 0.0, 0.0, 1.676046801835705E9, 0.0, 2023-02-10 11:33:21.835
235.0, 4517.935755006762, 187500.0, -187500.02235174447, -187500.02235174447, -187500.02235174447, -187500.02235174447, -187500.02235174447, -187500.02235174447, 0.016, 0.042, 1.002, 192.0, 0.0, 0.0, 0.0, 0.0, 0.0, 0.0, 0.0, 0.0, 0.0, 1.676046801835732E9, 0.0, 2023-02-10 11:33:21.835
236.0, 4690.491222201732, 187500.0, -187500.02235174447, -187500.02235174447, -187500.02235174447, -187500.02235174447, -187500.02235174447, -187500.02235174447, 0.016, 0.042, 1.002, 192.0, 0.0, 0.0, 0.0, 0.0, 0.0, 0.0, 0.0, 0.0, 0.0, 1.676046801842347E9, 0.0, 2023-02-10 11:33:21.842
237.0, 4747.532874051675, 187500.0, -187500.02235174447, -187500.02235174447, -187500.02235174447, -187500.02235174447, -187500.02235174447, -187500.02235174447, 0.016, 0.042, 1.002, 192.0, 0.0, 0.0, 0.0, 0.0, 0.0, 0.0, 0.0, 0.0, 0.0, 1.676046801842476E9, 0.0, 2023-02-10 11:33:21.842
238.0, 4624.15124465838, 187500.0, -187500.02235174447, -187500.02235174447, -187500.02235174447, -187500.02235174447, -187500.02235174447, -187500.02235174447, 0.016, 0.042, 1.002, 192.0, 0.0, 0.0, 0.0, 0.0, 0.0, 0.0, 0.0, 0.0, 0.0, 1.676046801849425E9, 0.0, 2023-02-10 11:33:21.849
239.0, 4495.673417529276, 187500.0, -187500.02235174447, -187500.02235174447, -187500.02235174447, -187500.02235174447, -187500.02235174447, -187500.02235174447, 0.016, 0.042, 1.002, 192.0, 0.0, 0.0, 0.0, 0.0, 0.0, 0.0, 0.0, 0.0, 0.0, 1.676046801849449E9, 0.0, 2023-02-10 11:33:21.849
240.0, 4648.402887392389, 187500.0, -187500.02235174447, -187500.02235174447, -187500.02235174447, -187500.02235174447, -187500.02235174447, -187500.02235174447, 0.016, 0.042, 1.002, 192.0, 0.0, 0.0, 0.0, 0.0, 0.0, 0.0, 0.0, 0.0, 0.0, 1.676046801857774E9, 0.0, 2023-02-10 11:33:21.857
241.0, 4781.75339481275, 187500.0, -187500.02235174447, -187500.02235174447, -187500.02235174447, -187500.02235174447, -187500.02235174447, -187500.02235174447, 0.016, 0.042, 1.002, 192.0, 0.0, 0.0, 0.0, 0.0, 0.0, 0.0, 0.0, 0.0, 0.0, 1.676046801865354E9, 0.0, 2023-02-10 11:33:21.865
242.0, 4676.744899361718, 187500.0, -187500.02235174447, -187500.02235174447, -187500.02235174447, -187500.02235174447, -187500.02235174447, -187500.02235174447, 0.016, 0.042, 1.002, 192.0, 0.0, 0.0, 0.0, 0.0, 0.0, 0.0, 0.0, 0.0, 0.0, 1.676046801865376E9, 0.0, 2023-02-10 11:33:21.865
243.0, 4578.397223758367, 187500.0, -187500.02235174447, -187500.02235174447, -187500.02235174447, -187500.02235174447, -187500.02235174447, -187500.02235174447, 0.016, 0.04, 1.0, 192.0, 0.0, 128.0, 1.0, 64.0, 31.0, 64.0, 0.0, 0.0, 0.0, 1.676046801872078E9, 0.0, 2023-02-10 11:33:21.872
244.0, 4661.769230576662, 187500.0, -187500.02235174447, -187500.02235174447, -187500.02235174447, -187500.02235174447, -187500.02235174447, -187500.02235174447, 0.016, 0.04, 1.0, 192.0, 0.0, 0.0, 0.0, 0.0, 0.0, 0.0, 0.0, 0.0, 0.0, 1.676046801872105E9, 0.0, 2023-02-10 11:33:21.872
245.0, 4777.774784299706, 187500.0, -187500.02235174447, -187500.02235174447, -187500.02235174447, -187500.02235174447, -187500.02235174447, -187500.02235174447, 0.016, 0.04, 1.0, 192.0, 0.0, 0.0, 0.0, 0.0, 0.0, 0.0, 0.0, 0.0, 0.0, 1.676046801879976E9, 0.0, 2023-02-10 11:33:21.879
246.0, 4696.615600182486, 187500.0, -187500.02235174447, -187500.02235174447, -187500.02235174447, -187500.02235174447, -187500.02235174447, -187500.02235174447, 0.016, 0.04, 1.0, 192.0, 0.0, 0.0, 0.0, 0.0, 0.0, 0.0, 0.0, 0.0, 0.0, 1.676046801879998E9, 0.0, 2023-02-10 11:33:21.879
247.0, 4584.968636628227, 187500.0, -187500.02235174447, -187500.02235174447, -187500.02235174447, -187500.02235174447, -187500.02235174447, -187500.02235174447, 0.016, 0.04, 1.0, 192.0, 0.0, 0.0, 0.0, 0.0, 0.0, 0.0, 0.0, 0.0, 0.0, 1.676046801887824E9, 0.0, 2023-02-10 11:33:21.887
248.0, 4632.220224406747, 187500.0, -187500.02235174447, -187500.02235174447, -187500.02235174447, -187500.02235174447, -187500.02235174447, -187500.02235174447, 0.016, 0.04, 1.0, 192.0, 0.0, 0.0, 0.0, 0.0, 0.0, 0.0, 0.0, 0.0, 0.0, 1.676046801887844E9, 0.0, 2023-02-10 11:33:21.887
249.0, 4761.435659102876, 187500.0, -187500.02235174447, -187500.02235174447, -187500.02235174447, -187500.02235174447, -187500.02235174447, -187500.02235174447, 0.016, 0.04, 1.0, 192.0, 0.0, 0.0, 0.0, 0.0, 0.0, 0.0, 0.0, 0.0, 0.0, 1.676046801894525E9, 0.0, 2023-02-10 11:33:21.894
250.0, 4716.5757079810755, 187500.0, -187500.02235174447, -187500.02235174447, -187500.02235174447, -187500.02235174447, -187500.02235174447, -187500.02235174447, 0.016, 0.04, 1.0, 192.0, 0.0, 0.0, 0.0, 0.0, 0.0, 0.0, 0.0, 0.0, 0.0, 1.676046801894558E9, 0.0, 2023-02-10 11:33:21.894
251.0, 4585.750947684163, 187500.0, -187500.02235174447, -187500.02235174447, -187500.02235174447, -187500.02235174447, -187500.02235174447, -187500.02235174447, 0.016, 0.04, 1.0, 192.0, 0.0, 0.0, 0.0, 0.0, 0.0, 0.0, 0.0, 0.0, 0.0, 1.676046801902645E9, 0.0, 2023-02-10 11:33:21.902
252.0, 4610.4496253072775, 187500.0, -187500.02235174447, -187500.02235174447, -187500.02235174447, -187500.02235174447, -187500.02235174447, -187500.02235174447, 0.016, 0.04, 1.0, 192.0, 0.0, 0.0, 0.0, 0.0, 0.0, 0.0, 0.0, 0.0, 0.0, 1.676046801902862E9, 0.0, 2023-02-10 11:33:21.902
253.0, 4743.330746094078, 187500.0, -187500.02235174447, -187500.02235174447, -187500.02235174447, -187500.02235174447, -187500.02235174447, -187500.02235174447, 0.018000000000000002, 0.042, 0.998, 192.0, 0.0, 144.0, 1.0, 80.0, 31.0, 48.0, 0.0, 0.0, 0.0, 1.676046801910539E9, 0.0, 2023-02-10 11:33:21.910
254.0, 4795.991456030781, 187500.0, -187500.02235174447, -187500.02235174447, -187500.02235174447, -187500.02235174447, -187500.02235174447, -187500.02235174447, 0.018000000000000002, 0.042, 0.998, 192.0, 0.0, 0.0, 0.0, 0.0, 0.0, 0.0, 0.0, 0.0, 0.0, 1.676046801910566E9, 0.0, 2023-02-10 11:33:21.910
255.0, 4738.5921762695525, 187500.0, -187500.02235174447, -187500.02235174447, -187500.02235174447, -187500.02235174447, -187500.02235174447, -187500.02235174447, 0.018000000000000002, 0.042, 0.998, 192.0, 0.0, 0.0, 0.0, 0.0, 0.0, 0.0, 0.0, 0.0, 0.0, 1.6760468019177E9, 0.0, 2023-02-10 11:33:21.917
0.0, 4724.845853429539, 187500.0, -187500.02235174447, -187500.02235174447, -187500.02235174447, -187500.02235174447, -187500.02235174447, -187500.02235174447, 0.018000000000000002, 0.042, 0.998, 192.0, 0.0, 0.0, 0.0, 0.0, 0.0, 0.0, 0.0, 0.0, 0.0, 1.676046801924229E9, 0.0, 2023-02-10 11:33:21.924
1.0, 4713.714684690796, 187500.0, -187500.02235174447, -187500.02235174447, -187500.02235174447, -187500.02235174447, -187500.02235174447, -187500.02235174447, 0.018000000000000002, 0.042, 0.998, 192.0, 0.0, 0.0, 0.0, 0.0, 0.0, 0.0, 0.0, 0.0, 0.0, 1.676046801924253E9, 0.0, 2023-02-10 11:33:21.924
2.0, 4646.68180306933, 187500.0, -187500.02235174447, -187500.02235174447, -187500.02235174447, -187500.02235174447, -187500.02235174447, -187500.02235174447, 0.018000000000000002, 0.042, 0.998, 192.0, 0.0, 0.0, 0.0, 0.0, 0.0, 0.0, 0.0, 0.0, 0.0, 1.676046801932203E9, 0.0, 2023-02-10 11:33:21.932
3.0, 4607.76741597264, 187500.0, -187500.02235174447, -187500.02235174447, -187500.02235174447, -187500.02235174447, -187500.02235174447, -187500.02235174447, 0.018000000000000002, 0.042, 0.998, 192.0, 0.0, 0.0, 0.0, 0.0, 0.0, 0.0, 0.0, 0.0, 0.0, 1.676046801932233E9, 0.0, 2023-02-10 11:33:21.932
4.0, 4569.836505631984, 187500.0, -187500.02235174447, -187500.02235174447, -187500.02235174447, -187500.02235174447, -187500.02235174447, -187500.02235174447, 0.018000000000000002, 0.042, 0.998, 192.0, 0.0, 0.0, 0.0, 0.0, 0.0, 0.0, 0.0, 0.0, 0.0, 1.676046801940194E9, 0.0, 2023-02-10 11:33:21.940
5.0, 4681.528172675154, 187500.0, -187500.02235174447, -187500.02235174447, -187500.02235174447, -187500.02235174447, -187500.02235174447, -187500.02235174447, 0.018000000000000002, 0.042, 0.998, 192.0, 0.0, 0.0, 0.0, 0.0, 0.0, 0.0, 0.0, 0.0, 0.0, 1.676046801940219E9, 0.0, 2023-02-10 11:33:21.940
6.0, 4749.164551396912, 187500.0, -187500.02235174447, -187500.02235174447, -187500.02235174447, -187500.02235174447, -187500.02235174447, -187500.02235174447, 0.018000000000000002, 0.042, 0.998, 192.0, 0.0, 0.0, 0.0, 0.0, 0.0, 0.0, 0.0, 0.0, 0.0, 1.676046801947232E9, 0.0, 2023-02-10 11:33:21.947
7.0, 4611.030770663116, 187500.0, -187500.02235174447, -187500.02235174447, -187500.02235174447, -187500.02235174447, -187500.02235174447, -187500.02235174447, 0.018000000000000002, 0.042, 1.004, 192.0, 0.0, 144.0, 1.0, 80.0, 31.0, 96.0, 0.0, 0.0, 0.0, 1.676046801947258E9, 0.0, 2023-02-10 11:33:21.947
8.0, 4618.563308544553, 187500.0, -187500.02235174447, -187500.02235174447, -187500.02235174447, -187500.02235174447, -187500.02235174447, -187500.02235174447, 0.018000000000000002, 0.042, 1.004, 192.0, 0.0, 0.0, 0.0, 0.0, 0.0, 0.0, 0.0, 0.0, 0.0, 1.676046801954971E9, 0.0, 2023-02-10 11:33:21.954
9.0, 4667.133649245936, 187500.0, -187500.02235174447, -187500.02235174447, -187500.02235174447, -187500.02235174447, -187500.02235174447, -187500.02235174447, 0.018000000000000002, 0.042, 1.004, 192.0, 0.0, 0.0, 0.0, 0.0, 0.0, 0.0, 0.0, 0.0, 0.0, 1.676046801955003E9, 0.0, 2023-02-10 11:33:21.955
10.0, 4697.017931582682, 187500.0, -187500.02235174447, -187500.02235174447, -187500.02235174447, -187500.02235174447, -187500.02235174447, -187500.02235174447, 0.018000000000000002, 0.042, 1.004, 192.0, 0.0, 0.0, 0.0, 0.0, 0.0, 0.0, 0.0, 0.0, 0.0, 1.676046801962862E9, 0.0, 2023-02-10 11:33:21.962
11.0, 4634.030715707626, 187500.0, -187500.02235174447, -187500.02235174447, -187500.02235174447, -187500.02235174447, -187500.02235174447, -187500.02235174447, 0.018000000000000002, 0.042, 1.004, 192.0, 0.0, 0.0, 0.0, 0.0, 0.0, 0.0, 0.0, 0.0, 0.0, 1.676046801962978E9, 0.0, 2023-02-10 11:33:21.962
12.0, 4596.211564089246, 187500.0, -187500.02235174447, -187500.02235174447, -187500.02235174447, -187500.02235174447, -187500.02235174447, -187500.02235174447, 0.018000000000000002, 0.042, 1.004, 192.0, 0.0, 0.0, 0.0, 0.0, 0.0, 0.0, 0.0, 0.0, 0.0, 1.676046801970752E9, 0.0, 2023-02-10 11:33:21.970
13.0, 4628.86746273845, 187500.0, -187500.02235174447, -187500.02235174447, -187500.02235174447, -187500.02235174447, -187500.02235174447, -187500.02235174447, 0.018000000000000002, 0.042, 1.004, 192.0, 0.0, 0.0, 0.0, 0.0, 0.0, 0.0, 0.0, 0.0, 0.0, 1.676046801970771E9, 0.0, 2023-02-10 11:33:21.970
14.0, 4686.222039010768, 187500.0, -187500.02235174447, -187500.02235174447, -187500.02235174447, -187500.02235174447, -187500.02235174447, -187500.02235174447, 0.018000000000000002, 0.042, 1.004, 192.0, 0.0, 0.0, 0.0, 0.0, 0.0, 0.0, 0.0, 0.0, 0.0, 1.676046801976816E9, 0.0, 2023-02-10 11:33:21.976
15.0, 4687.6972541448185, 187500.0, -187500.02235174447, -187500.02235174447, -187500.02235174447, -187500.02235174447, -187500.02235174447, -187500.02235174447, 0.018000000000000002, 0.042, 1.004, 192.0, 0.0, 0.0, 0.0, 0.0, 0.0, 0.0, 0.0, 0.0, 0.0, 1.6760468019844E9, 0.0, 2023-02-10 11:33:21.984
16.0, 4690.133594290447, 187500.0, -187500.02235174447, -187500.02235174447, -187500.02235174447, -187500.02235174447, -187500.02235174447, -187500.02235174447, 0.016, 0.038, 0.998, 192.0, 0.0, 128.0, 1.0, 48.0, 31.0, 48.0, 0.0, 0.0, 0.0, 1.67604680198442E9, 0.0, 2023-02-10 11:33:21.984
17.0, 4721.716609205796, 187500.0, -187500.02235174447, -187500.02235174447, -187500.02235174447, -187500.02235174447, -187500.02235174447, -187500.02235174447, 0.016, 0.038, 0.998, 192.0, 0.0, 0.0, 0.0, 0.0, 0.0, 0.0, 0.0, 0.0, 0.0, 1.676046801992479E9, 0.0, 2023-02-10 11:33:21.992
18.0, 4709.914888133394, 187500.0, -187500.02235174447, -187500.02235174447, -187500.02235174447, -187500.02235174447, -187500.02235174447, -187500.02235174447, 0.016, 0.038, 0.998, 192.0, 0.0, 0.0, 0.0, 0.0, 0.0, 0.0, 0.0, 0.0, 0.0, 1.676046801992505E9, 0.0, 2023-02-10 11:33:21.992
19.0, 4719.2802690601675, 187500.0, -187500.02235174447, -187500.02235174447, -187500.02235174447, -187500.02235174447, -187500.02235174447, -187500.02235174447, 0.016, 0.038, 0.998, 192.0, 0.0, 0.0, 0.0, 0.0, 0.0, 0.0, 0.0, 0.0, 0.0, 1.676046802001084E9, 0.0, 2023-02-10 11:33:22.001
20.0, 4556.023127558605, 187500.0, -187500.02235174447, -187500.02235174447, -187500.02235174447, -187500.02235174447, -187500.02235174447, -187500.02235174447, 0.016, 0.038, 0.998, 192.0, 0.0, 0.0, 0.0, 0.0, 0.0, 0.0, 0.0, 0.0, 0.0, 1.676046802001138E9, 0.0, 2023-02-10 11:33:22.001
21.0, 4539.035801772571, 187500.0, -187500.02235174447, -187500.02235174447, -187500.02235174447, -187500.02235174447, -187500.02235174447, -187500.02235174447, 0.016, 0.038, 0.998, 192.0, 0.0, 0.0, 0.0, 0.0, 0.0, 0.0, 0.0, 0.0, 0.0, 1.676046802007178E9, 0.0, 2023-02-10 11:33:22.007
22.0, 4710.048998600126, 187500.0, -187500.02235174447, -187500.02235174447, -187500.02235174447, -187500.02235174447, -187500.02235174447, -187500.02235174447, 0.016, 0.038, 0.998, 192.0, 0.0, 0.0, 0.0, 0.0, 0.0, 0.0, 0.0, 0.0, 0.0, 1.676046802007199E9, 0.0, 2023-02-10 11:33:22.007
23.0, 4736.4240570573875, 187500.0, -187500.02235174447, -187500.02235174447, -187500.02235174447, -187500.02235174447, -187500.02235174447, -187500.02235174447, 0.016, 0.038, 0.998, 192.0, 0.0, 0.0, 0.0, 0.0, 0.0, 0.0, 0.0, 0.0, 0.0, 1.676046802015225E9, 0.0, 2023-02-10 11:33:22.015
24.0, 4631.035581950615, 187500.0, -187500.02235174447, -187500.02235174447, -187500.02235174447, -187500.02235174447, -187500.02235174447, -187500.02235174447, 0.016, 0.038, 0.998, 192.0, 0.0, 0.0, 0.0, 0.0, 0.0, 0.0, 0.0, 0.0, 0.0, 1.676046802015254E9, 0.0, 2023-02-10 11:33:22.015
25.0, 4650.638061837919, 187500.0, -187500.02235174447, -187500.02235174447, -187500.02235174447, -187500.02235174447, -187500.02235174447, -187500.02235174447, 0.016, 0.038, 0.998, 192.0, 0.0, 0.0, 0.0, 0.0, 0.0, 0.0, 0.0, 0.0, 0.0, 1.676046802023209E9, 0.0, 2023-02-10 11:33:22.023
26.0, 4652.470904883255, 187500.0, -187500.02235174447, -187500.02235174447, -187500.02235174447, -187500.02235174447, -187500.02235174447, -187500.02235174447, 0.014, 0.038, 1.006, 192.0, 0.0, 112.0, 1.0, 48.0, 31.0, 112.0, 0.0, 0.0, 0.0, 1.676046802023328E9, 0.0, 2023-02-10 11:33:22.023
27.0, 4622.67602952433, 187500.0, -187500.02235174447, -187500.02235174447, -187500.02235174447, -187500.02235174447, -187500.02235174447, -187500.02235174447, 0.014, 0.038, 1.006, 192.0, 0.0, 0.0, 0.0, 0.0, 0.0, 0.0, 0.0, 0.0, 0.0, 1.676046802029693E9, 0.0, 2023-02-10 11:33:22.029
28.0, 4573.658653933841, 187500.0, -187500.02235174447, -187500.02235174447, -187500.02235174447, -187500.02235174447, -187500.02235174447, -187500.02235174447, 0.014, 0.038, 1.006, 192.0, 0.0, 0.0, 0.0, 0.0, 0.0, 0.0, 0.0, 0.0, 0.0, 1.676046802029713E9, 0.0, 2023-02-10 11:33:22.029
29.0, 4552.536255423576, 187500.0, -187500.02235174447, -187500.02235174447, -187500.02235174447, -187500.02235174447, -187500.02235174447, -187500.02235174447, 0.014, 0.038, 1.006, 192.0, 0.0, 0.0, 0.0, 0.0, 0.0, 0.0, 0.0, 0.0, 0.0, 1.676046802036964E9, 0.0, 2023-02-10 11:33:22.036
30.0, 4727.416304041899, 187500.0, -187500.02235174447, -187500.02235174447, -187500.02235174447, -187500.02235174447, -187500.02235174447, -187500.02235174447, 0.014, 0.038, 1.006, 192.0, 0.0, 0.0, 0.0, 0.0, 0.0, 0.0, 0.0, 0.0, 0.0, 1.676046802044843E9, 0.0, 2023-02-10 11:33:22.044
31.0, 4862.107916129579, 187500.0, -187500.02235174447, -187500.02235174447, -187500.02235174447, -187500.02235174447, -187500.02235174447, -187500.02235174447, 0.014, 0.038, 1.006, 192.0, 0.0, 0.0, 0.0, 0.0, 0.0, 0.0, 0.0, 0.0, 0.0, 1.676046802044864E9, 0.0, 2023-02-10 11:33:22.044
32.0, 4604.168785115336, 187500.0, -187500.02235174447, -187500.02235174447, -187500.02235174447, -187500.02235174447, -187500.02235174447, -187500.02235174447, 0.014, 0.038, 1.006, 192.0, 0.0, 0.0, 0.0, 0.0, 0.0, 0.0, 0.0, 0.0, 0.0, 1.676046802052712E9, 0.0, 2023-02-10 11:33:22.052
33.0, 4493.505298317111, 187500.0, -187500.02235174447, -187500.02235174447, -187500.02235174447, -187500.02235174447, -187500.02235174447, -187500.02235174447, 0.014, 0.038, 1.006, 192.0, 0.0, 0.0, 0.0, 0.0, 0.0, 0.0, 0.0, 0.0, 0.0, 1.676046802052732E9, 0.0, 2023-02-10 11:33:22.052
34.0, 4699.811899639595, 187500.0, -187500.02235174447, -187500.02235174447, -187500.02235174447, -187500.02235174447, -187500.02235174447, -187500.02235174447, 0.014, 0.038, 1.006, 192.0, 0.0, 0.0, 0.0, 0.0, 0.0, 0.0, 0.0, 0.0, 0.0, 1.676046802059314E9, 0.0, 2023-02-10 11:33:22.059
35.0, 4745.3424030950555, 187500.0, -187500.02235174447, -187500.02235174447, -187500.02235174447, -187500.02235174447, -187500.02235174447, -187500.02235174447, 0.014, 0.038, 1.006, 192.0, 0.0, 0.0, 0.0, 0.0, 0.0, 0.0, 0.0, 0.0, 0.0, 1.676046802059328E9, 0.0, 2023-02-10 11:33:22.059
36.0, 4666.172524234357, 187500.0, -187500.02235174447, -187500.02235174447, -187500.02235174447, -187500.02235174447, -187500.02235174447, -187500.02235174447, 0.02, 0.042, 1.006, 192.0, 0.0, 160.0, 1.0, 80.0, 31.0, 112.0, 0.0, 0.0, 0.0, 1.676046802067347E9, 0.0, 2023-02-10 11:33:22.067
37.0, 4529.268089445602, 187500.0, -187500.02235174447, -187500.02235174447, -187500.02235174447, -187500.02235174447, -187500.02235174447, -187500.02235174447, 0.02, 0.042, 1.006, 192.0, 0.0, 0.0, 0.0, 0.0, 0.0, 0.0, 0.0, 0.0, 0.0, 1.676046802067365E9, 0.0, 2023-02-10 11:33:22.067
38.0, 4607.655657250364, 187500.0, -187500.02235174447, -187500.02235174447, -187500.02235174447, -187500.02235174447, -187500.02235174447, -187500.02235174447, 0.02, 0.042, 1.006, 192.0, 0.0, 0.0, 0.0, 0.0, 0.0, 0.0, 0.0, 0.0, 0.0, 1.676046802075329E9, 0.0, 2023-02-10 11:33:22.075
39.0, 4771.449240618854, 187500.0, -187500.02235174447, -187500.02235174447, -187500.02235174447, -187500.02235174447, -187500.02235174447, -187500.02235174447, 0.02, 0.042, 1.006, 192.0, 0.0, 0.0, 0.0, 0.0, 0.0, 0.0, 0.0, 0.0, 0.0, 1.676046802075349E9, 0.0, 2023-02-10 11:33:22.075
40.0, 4734.568862267597, 187500.0, -187500.02235174447, -187500.02235174447, -187500.02235174447, -187500.02235174447, -187500.02235174447, -187500.02235174447, 0.02, 0.042, 1.006, 192.0, 0.0, 0.0, 0.0, 0.0, 0.0, 0.0, 0.0, 0.0, 0.0, 1.676046802082357E9, 0.0, 2023-02-10 11:33:22.082
41.0, 4465.722079959164, 187500.0, -187500.02235174447, -187500.02235174447, -187500.02235174447, -187500.02235174447, -187500.02235174447, -187500.02235174447, 0.02, 0.042, 1.006, 192.0, 0.0, 0.0, 0.0, 0.0, 0.0, 0.0, 0.0, 0.0, 0.0, 1.67604680208261E9, 0.0, 2023-02-10 11:33:22.082
42.0, 4580.81121215954, 187500.0, -187500.02235174447, -187500.02235174447, -187500.02235174447, -187500.02235174447, -187500.02235174447, -187500.02235174447, 0.02, 0.042, 1.006, 192.0, 0.0, 0.0, 0.0, 0.0, 0.0, 0.0, 0.0, 0.0, 0.0, 1.676046802090185E9, 0.0, 2023-02-10 11:33:22.090
43.0, 4758.596987557053, 187500.0, -187500.02235174447, -187500.02235174447, -187500.02235174447, -187500.02235174447, -187500.02235174447, -187500.02235174447, 0.02, 0.042, 1.006, 192.0, 0.0, 0.0, 0.0, 0.0, 0.0, 0.0, 0.0, 0.0, 0.0, 1.676046802090208E9, 0.0, 2023-02-10 11:33:22.090
44.0, 4739.866225703505, 187500.0, -187500.02235174447, -187500.02235174447, -187500.02235174447, -187500.02235174447, -187500.02235174447, -187500.02235174447, 0.02, 0.042, 1.006, 192.0, 0.0, 0.0, 0.0, 0.0, 0.0, 0.0, 0.0, 0.0, 0.0, 1.676046802097272E9, 0.0, 2023-02-10 11:33:22.097
45.0, 4595.7198257112295, 187500.0, -187500.02235174447, -187500.02235174447, -187500.02235174447, -187500.02235174447, -187500.02235174447, -187500.02235174447, 0.02, 0.042, 1.006, 192.0, 0.0, 0.0, 0.0, 0.0, 0.0, 0.0, 0.0, 0.0, 0.0, 1.676046802097306E9, 0.0, 2023-02-10 11:33:22.097
46.0, 4560.0911450494705, 187500.0, -187500.02235174447, -187500.02235174447, -187500.02235174447, -187500.02235174447, -187500.02235174447, -187500.02235174447, 0.022, 0.044, 1.002, 192.0, 0.0, 176.0, 1.0, 96.0, 31.0, 80.0, 0.0, 0.0, 0.0, 1.676046802105227E9, 0.0, 2023-02-10 11:33:22.105
47.0, 4726.119902863491, 187500.0, -187500.02235174447, -187500.02235174447, -187500.02235174447, -187500.02235174447, -187500.02235174447, -187500.02235174447, 0.022, 0.044, 1.002, 192.0, 0.0, 0.0, 0.0, 0.0, 0.0, 0.0, 0.0, 0.0, 0.0, 1.676046802112182E9, 0.0, 2023-02-10 11:33:22.112
48.0, 4693.3969489809215, 187500.0, -187500.02235174447, -187500.02235174447, -187500.02235174447, -187500.02235174447, -187500.02235174447, -187500.02235174447, 0.022, 0.044, 1.002, 192.0, 0.0, 0.0, 0.0, 0.0, 0.0, 0.0, 0.0, 0.0, 0.0, 1.676046802112219E9, 0.0, 2023-02-10 11:33:22.112
49.0, 4563.622720673409, 187500.0, -187500.02235174447, -187500.02235174447, -187500.02235174447, -187500.02235174447, -187500.02235174447, -187500.02235174447, 0.022, 0.044, 1.002, 192.0, 0.0, 0.0, 0.0, 0.0, 0.0, 0.0, 0.0, 0.0, 0.0, 1.676046802119838E9, 0.0, 2023-02-10 11:33:22.119
50.0, 4559.398240971356, 187500.0, -187500.02235174447, -187500.02235174447, -187500.02235174447, -187500.02235174447, -187500.02235174447, -187500.02235174447, 0.022, 0.044, 1.002, 192.0, 0.0, 0.0, 0.0, 0.0, 0.0, 0.0, 0.0, 0.0, 0.0, 1.676046802119863E9, 0.0, 2023-02-10 11:33:22.119
51.0, 4716.262783558701, 187500.0, -187500.02235174447, -187500.02235174447, -187500.02235174447, -187500.02235174447, -187500.02235174447, -187500.02235174447, 0.022, 0.044, 1.002, 192.0, 0.0, 0.0, 0.0, 0.0, 0.0, 0.0, 0.0, 0.0, 0.0, 1.676046802127655E9, 0.0, 2023-02-10 11:33:22.127
52.0, 4654.4155066508665, 187500.0, -187500.02235174447, -187500.02235174447, -187500.02235174447, -187500.02235174447, -187500.02235174447, -187500.02235174447, 0.022, 0.044, 1.002, 192.0, 0.0, 0.0, 0.0, 0.0, 0.0, 0.0, 0.0, 0.0, 0.0, 1.676046802127676E9, 0.0, 2023-02-10 11:33:22.127
53.0, 4563.399203228856, 187500.0, -187500.02235174447, -187500.02235174447, -187500.02235174447, -187500.02235174447, -187500.02235174447, -187500.02235174447, 0.022, 0.044, 1.002, 192.0, 0.0, 0.0, 0.0, 0.0, 0.0, 0.0, 0.0, 0.0, 0.0, 1.676046802135643E9, 0.0, 2023-02-10 11:33:22.135
54.0, 4582.95697962725, 187500.0, -187500.02235174447, -187500.02235174447, -187500.02235174447, -187500.02235174447, -187500.02235174447, -187500.02235174447, 0.022, 0.044, 1.002, 192.0, 0.0, 0.0, 0.0, 0.0, 0.0, 0.0, 0.0, 0.0, 0.0, 1.676046802135666E9, 0.0, 2023-02-10 11:33:22.135
55.0, 4729.6067749985195, 187500.0, -187500.02235174447, -187500.02235174447, -187500.02235174447, -187500.02235174447, -187500.02235174447, -187500.02235174447, 0.022, 0.044, 1.002, 192.0, 0.0, 0.0, 0.0, 0.0, 0.0, 0.0, 0.0, 0.0, 0.0, 1.676046802142267E9, 0.0, 2023-02-10 11:33:22.142
56.0, 4594.982218144205, 187500.0, -187500.02235174447, -187500.02235174447, -187500.02235174447, -187500.02235174447, -187500.02235174447, -187500.02235174447, 0.018000000000000002, 0.042, 1.0, 192.0, 0.0, 144.0, 1.0, 80.0, 31.0, 64.0, 0.0, 0.0, 0.0, 1.676046802142366E9, 0.0, 2023-02-10 11:33:22.142
57.0, 4554.078525790993, 187500.0, -187500.02235174447, -187500.02235174447, -187500.02235174447, -187500.02235174447, -187500.02235174447, -187500.02235174447, 0.018000000000000002, 0.042, 1.0, 192.0, 0.0, 0.0, 0.0, 0.0, 0.0, 0.0, 0.0, 0.0, 0.0, 1.676046802150352E9, 0.0, 2023-02-10 11:33:22.150
58.0, 4529.692772590252, 187500.0, -187500.02235174447, -187500.02235174447, -187500.02235174447, -187500.02235174447, -187500.02235174447, -187500.02235174447, 0.018000000000000002, 0.042, 1.0, 192.0, 0.0, 0.0, 0.0, 0.0, 0.0, 0.0, 0.0, 0.0, 0.0, 1.676046802150377E9, 0.0, 2023-02-10 11:33:22.150
59.0, 4634.969488974749, 187500.0, -187500.02235174447, -187500.02235174447, -187500.02235174447, -187500.02235174447, -187500.02235174447, -187500.02235174447, 0.018000000000000002, 0.042, 1.0, 192.0, 0.0, 0.0, 0.0, 0.0, 0.0, 0.0, 0.0, 0.0, 0.0, 1.676046802158228E9, 0.0, 2023-02-10 11:33:22.158
60.0, 4749.790400241662, 187500.0, -187500.02235174447, -187500.02235174447, -187500.02235174447, -187500.02235174447, -187500.02235174447, -187500.02235174447, 0.018000000000000002, 0.042, 1.0, 192.0, 0.0, 0.0, 0.0, 0.0, 0.0, 0.0, 0.0, 0.0, 0.0, 1.67604680215825E9, 0.0, 2023-02-10 11:33:22.158
61.0, 4705.7798154091615, 187500.0, -187500.02235174447, -187500.02235174447, -187500.02235174447, -187500.02235174447, -187500.02235174447, -187500.02235174447, 0.018000000000000002, 0.042, 1.0, 192.0, 0.0, 0.0, 0.0, 0.0, 0.0, 0.0, 0.0, 0.0, 0.0, 1.676046802164323E9, 0.0, 2023-02-10 11:33:22.164
62.0, 4543.617909385909, 187500.0, -187500.02235174447, -187500.02235174447, -187500.02235174447, -187500.02235174447, -187500.02235174447, -187500.02235174447, 0.018000000000000002, 0.042, 1.0, 192.0, 0.0, 0.0, 0.0, 0.0, 0.0, 0.0, 0.0, 0.0, 0.0, 1.6760468021719E9, 0.0, 2023-02-10 11:33:22.171
63.0, 4544.131999508381, 187500.0, -187500.02235174447, -187500.02235174447, -187500.02235174447, -187500.02235174447, -187500.02235174447, -187500.02235174447, 0.018000000000000002, 0.042, 1.0, 192.0, 0.0, 0.0, 0.0, 0.0, 0.0, 0.0, 0.0, 0.0, 0.0, 1.676046802171922E9, 0.0, 2023-02-10 11:33:22.171
64.0, 4646.905320513883, 187500.0, -187500.02235174447, -187500.02235174447, -187500.02235174447, -187500.02235174447, -187500.02235174447, -187500.02235174447, 0.018000000000000002, 0.042, 1.0, 192.0, 0.0, 0.0, 0.0, 0.0, 0.0, 0.0, 0.0, 0.0, 0.0, 1.676046802180042E9, 0.0, 2023-02-10 11:33:22.180
65.0, 4670.776983592151, 187500.0, -187500.02235174447, -187500.02235174447, -187500.02235174447, -187500.02235174447, -187500.02235174447, -187500.02235174447, 0.02, 0.042, 0.998, 192.0, 0.0, 160.0, 1.0, 80.0, 31.0, 48.0, 0.0, 0.0, 0.0, 1.676046802180068E9, 0.0, 2023-02-10 11:33:22.180
66.0, 4638.076381454037, 187500.0, -187500.02235174447, -187500.02235174447, -187500.02235174447, -187500.02235174447, -187500.02235174447, -187500.02235174447, 0.02, 0.042, 0.998, 192.0, 0.0, 0.0, 0.0, 0.0, 0.0, 0.0, 0.0, 0.0, 0.0, 1.676046802188153E9, 0.0, 2023-02-10 11:33:22.188
67.0, 4536.130074993382, 187500.0, -187500.02235174447, -187500.02235174447, -187500.02235174447, -187500.02235174447, -187500.02235174447, -187500.02235174447, 0.02, 0.042, 0.998, 192.0, 0.0, 0.0, 0.0, 0.0, 0.0, 0.0, 0.0, 0.0, 0.0, 1.676046802188191E9, 0.0, 2023-02-10 11:33:22.188
68.0, 4617.959811444261, 187500.0, -187500.02235174447, -187500.02235174447, -187500.02235174447, -187500.02235174447, -187500.02235174447, -187500.02235174447, 0.02, 0.042, 0.998, 192.0, 0.0, 0.0, 0.0, 0.0, 0.0, 0.0, 0.0, 0.0, 0.0, 1.67604680219452E9, 0.0, 2023-02-10 11:33:22.194
69.0, 4636.087076197515, 187500.0, -187500.02235174447, -187500.02235174447, -187500.02235174447, -187500.02235174447, -187500.02235174447, -187500.02235174447, 0.02, 0.042, 0.998, 192.0, 0.0, 0.0, 0.0, 0.0, 0.0, 0.0, 0.0, 0.0, 0.0, 1.676046802194542E9, 0.0, 2023-02-10 11:33:22.194
70.0, 4505.709350789708, 187500.0, -187500.02235174447, -187500.02235174447, -187500.02235174447, -187500.02235174447, -187500.02235174447, -187500.02235174447, 0.02, 0.042, 0.998, 192.0, 0.0, 0.0, 0.0, 0.0, 0.0, 0.0, 0.0, 0.0, 0.0, 1.676046802202458E9, 0.0, 2023-02-10 11:33:22.202
71.0, 4540.890996562362, 187500.0, -187500.02235174447, -187500.02235174447, -187500.02235174447, -187500.02235174447, -187500.02235174447, -187500.02235174447, 0.02, 0.042, 0.998, 192.0, 0.0, 0.0, 0.0, 0.0, 0.0, 0.0, 0.0, 0.0, 0.0, 1.676046802202565E9, 0.0, 2023-02-10 11:33:22.202
72.0, 4695.900344359916, 187500.0, -187500.02235174447, -187500.02235174447, -187500.02235174447, -187500.02235174447, -187500.02235174447, -187500.02235174447, 0.02, 0.042, 0.998, 192.0, 0.0, 0.0, 0.0, 0.0, 0.0, 0.0, 0.0, 0.0, 0.0, 1.676046802210515E9, 0.0, 2023-02-10 11:33:22.210
73.0, 4715.033437613659, 187500.0, -187500.02235174447, -187500.02235174447, -187500.02235174447, -187500.02235174447, -187500.02235174447, -187500.02235174447, 0.02, 0.042, 0.998, 192.0, 0.0, 0.0, 0.0, 0.0, 0.0, 0.0, 0.0, 0.0, 0.0, 1.676046802210533E9, 0.0, 2023-02-10 11:33:22.210
74.0, 4581.727633682208, 187500.0, -187500.02235174447, -187500.02235174447, -187500.02235174447, -187500.02235174447, -187500.02235174447, -187500.02235174447, 0.02, 0.042, 0.998, 192.0, 0.0, 0.0, 0.0, 0.0, 0.0, 0.0, 0.0, 0.0, 0.0, 1.676046802217595E9, 0.0, 2023-02-10 11:33:22.217
75.0, 4552.4021449568445, 187500.0, -187500.02235174447, -187500.02235174447, -187500.02235174447, -187500.02235174447, -187500.02235174447, -187500.02235174447, 0.02, 0.042, 0.998, 192.0, 0.0, 160.0, 1.0, 80.0, 31.0, 48.0, 0.0, 0.0, 0.0, 1.676046802217611E9, 0.0, 2023-02-10 11:33:22.217
76.0, 4740.872054203994, 187500.0, -187500.02235174447, -187500.02235174447, -187500.02235174447, -187500.02235174447, -187500.02235174447, -187500.02235174447, 0.02, 0.042, 0.998, 192.0, 0.0, 0.0, 0.0, 0.0, 0.0, 0.0, 0.0, 0.0, 0.0, 1.676046802224159E9, 0.0, 2023-02-10 11:33:22.224
77.0, 4775.651368576452, 187500.0, -187500.02235174447, -187500.02235174447, -187500.02235174447, -187500.02235174447, -187500.02235174447, -187500.02235174447, 0.02, 0.042, 0.998, 192.0, 0.0, 0.0, 0.0, 0.0, 0.0, 0.0, 0.0, 0.0, 0.0, 1.676046802232189E9, 0.0, 2023-02-10 11:33:22.232
78.0, 4604.302895582067, 187500.0, -187500.02235174447, -187500.02235174447, -187500.02235174447, -187500.02235174447, -187500.02235174447, -187500.02235174447, 0.02, 0.042, 0.998, 192.0, 0.0, 0.0, 0.0, 0.0, 0.0, 0.0, 0.0, 0.0, 0.0, 1.676046802232211E9, 0.0, 2023-02-10 11:33:22.232
79.0, 4483.178792378759, 187500.0, -187500.02235174447, -187500.02235174447, -187500.02235174447, -187500.02235174447, -187500.02235174447, -187500.02235174447, 0.02, 0.042, 0.998, 192.0, 0.0, 0.0, 0.0, 0.0, 0.0, 0.0, 0.0, 0.0, 0.0, 1.676046802240287E9, 0.0, 2023-02-10 11:33:22.240
80.0, 4599.720787968729, 187500.0, -187500.02235174447, -187500.02235174447, -187500.02235174447, -187500.02235174447, -187500.02235174447, -187500.02235174447, 0.02, 0.042, 0.998, 192.0, 0.0, 0.0, 0.0, 0.0, 0.0, 0.0, 0.0, 0.0, 0.0, 1.676046802240309E9, 0.0, 2023-02-10 11:33:22.240
81.0, 4714.318181791089, 187500.0, -187500.02235174447, -187500.02235174447, -187500.02235174447, -187500.02235174447, -187500.02235174447, -187500.02235174447, 0.02, 0.042, 0.998, 192.0, 0.0, 0.0, 0.0, 0.0, 0.0, 0.0, 0.0, 0.0, 0.0, 1.676046802247277E9, 0.0, 2023-02-10 11:33:22.247
82.0, 4603.185308359302, 187500.0, -187500.02235174447, -187500.02235174447, -187500.02235174447, -187500.02235174447, -187500.02235174447, -187500.02235174447, 0.02, 0.042, 0.998, 192.0, 0.0, 0.0, 0.0, 0.0, 0.0, 0.0, 0.0, 0.0, 0.0, 1.676046802247299E9, 0.0, 2023-02-10 11:33:22.247
83.0, 4530.318621435002, 187500.0, -187500.02235174447, -187500.02235174447, -187500.02235174447, -187500.02235174447, -187500.02235174447, -187500.02235174447, 0.02, 0.042, 0.998, 192.0, 0.0, 0.0, 0.0, 0.0, 0.0, 0.0, 0.0, 0.0, 0.0, 1.67604680225479E9, 0.0, 2023-02-10 11:33:22.254
84.0, 4665.434916667333, 187500.0, -187500.02235174447, -187500.02235174447, -187500.02235174447, -187500.02235174447, -187500.02235174447, -187500.02235174447, 0.02, 0.042, 0.998, 192.0, 0.0, 0.0, 0.0, 0.0, 0.0, 0.0, 0.0, 0.0, 0.0, 1.676046802254812E9, 0.0, 2023-02-10 11:33:22.254
85.0, 4679.740033118729, 187500.0, -187500.02235174447, -187500.02235174447, -187500.02235174447, -187500.02235174447, -187500.02235174447, -187500.02235174447, 0.014, 0.046, 0.998, 192.0, 0.0, 112.0, 1.0, 112.0, 31.0, 48.0, 0.0, 0.0, 0.0, 1.676046802262817E9, 0.0, 2023-02-10 11:33:22.262
86.0, 4611.120177640936, 187500.0, -187500.02235174447, -187500.02235174447, -187500.02235174447, -187500.02235174447, -187500.02235174447, -187500.02235174447, 0.014, 0.046, 0.998, 192.0, 0.0, 0.0, 0.0, 0.0, 0.0, 0.0, 0.0, 0.0, 0.0, 1.676046802262933E9, 0.0, 2023-02-10 11:33:22.262
87.0, 4531.9726505246945, 187500.0, -187500.02235174447, -187500.02235174447, -187500.02235174447, -187500.02235174447, -187500.02235174447, -187500.02235174447, 0.014, 0.046, 0.998, 192.0, 0.0, 0.0, 0.0, 0.0, 0.0, 0.0, 0.0, 0.0, 0.0, 1.676046802270955E9, 0.0, 2023-02-10 11:33:22.270
88.0, 4558.861799104428, 187500.0, -187500.02235174447, -187500.02235174447, -187500.02235174447, -187500.02235174447, -187500.02235174447, -187500.02235174447, 0.014, 0.046, 0.998, 192.0, 0.0, 0.0, 0.0, 0.0, 0.0, 0.0, 0.0, 0.0, 0.0, 1.676046802270979E9, 0.0, 2023-02-10 11:33:22.270
89.0, 4672.565123148575, 187500.0, -187500.02235174447, -187500.02235174447, -187500.02235174447, -187500.02235174447, -187500.02235174447, -187500.02235174447, 0.014, 0.046, 0.998, 192.0, 0.0, 0.0, 0.0, 0.0, 0.0, 0.0, 0.0, 0.0, 0.0, 1.67604680227748E9, 0.0, 2023-02-10 11:33:22.277
90.0, 4653.499085128198, 187500.0, -187500.02235174447, -187500.02235174447, -187500.02235174447, -187500.02235174447, -187500.02235174447, -187500.02235174447, 0.014, 0.046, 0.998, 192.0, 0.0, 0.0, 0.0, 0.0, 0.0, 0.0, 0.0, 0.0, 0.0, 1.676046802277501E9, 0.0, 2023-02-10 11:33:22.277
91.0, 4534.811322070518, 187500.0, -187500.02235174447, -187500.02235174447, -187500.02235174447, -187500.02235174447, -187500.02235174447, -187500.02235174447, 0.014, 0.046, 0.998, 192.0, 0.0, 0.0, 0.0, 0.0, 0.0, 0.0, 0.0, 0.0, 0.0, 1.676046802284432E9, 0.0, 2023-02-10 11:33:22.284
92.0, 4569.3671189984225, 187500.0, -187500.02235174447, -187500.02235174447, -187500.02235174447, -187500.02235174447, -187500.02235174447, -187500.02235174447, 0.014, 0.046, 0.998, 192.0, 0.0, 0.0, 0.0, 0.0, 0.0, 0.0, 0.0, 0.0, 0.0, 1.676046802292397E9, 0.0, 2023-02-10 11:33:22.292
93.0, 4706.964457865293, 187500.0, -187500.02235174447, -187500.02235174447, -187500.02235174447, -187500.02235174447, -187500.02235174447, -187500.02235174447, 0.014, 0.046, 0.998, 192.0, 0.0, 0.0, 0.0, 0.0, 0.0, 0.0, 0.0, 0.0, 0.0, 1.676046802292423E9, 0.0, 2023-02-10 11:33:22.292
94.0, 4685.283265743646, 187500.0, -187500.02235174447, -187500.02235174447, -187500.02235174447, -187500.02235174447, -187500.02235174447, -187500.02235174447, 0.014, 0.046, 0.998, 192.0, 0.0, 0.0, 0.0, 0.0, 0.0, 0.0, 0.0, 0.0, 0.0, 1.676046802299518E9, 0.0, 2023-02-10 11:33:22.299
95.0, 4533.447865658744, 187500.0, -187500.02235174447, -187500.02235174447, -187500.02235174447, -187500.02235174447, -187500.02235174447, -187500.02235174447, 0.018000000000000002, 0.048, 0.998, 192.0, 0.0, 144.0, 1.0, 128.0, 31.0, 48.0, 0.0, 0.0, 0.0, 1.676046802299541E9, 0.0, 2023-02-10 11:33:22.299
96.0, 4538.834636072474, 187500.0, -187500.02235174447, -187500.02235174447, -187500.02235174447, -187500.02235174447, -187500.02235174447, -187500.02235174447, 0.018000000000000002, 0.048, 0.998, 192.0, 0.0, 0.0, 0.0, 0.0, 0.0, 0.0, 0.0, 0.0, 0.0, 1.676046802307101E9, 0.0, 2023-02-10 11:33:22.307
97.0, 4783.027444246703, 187500.0, -187500.02235174447, -187500.02235174447, -187500.02235174447, -187500.02235174447, -187500.02235174447, -187500.02235174447, 0.018000000000000002, 0.048, 0.998, 192.0, 0.0, 0.0, 0.0, 0.0, 0.0, 0.0, 0.0, 0.0, 0.0, 1.676046802307117E9, 0.0, 2023-02-10 11:33:22.307
98.0, 4756.026536944692, 187500.0, -187500.02235174447, -187500.02235174447, -187500.02235174447, -187500.02235174447, -187500.02235174447, -187500.02235174447, 0.018000000000000002, 0.048, 0.998, 192.0, 0.0, 0.0, 0.0, 0.0, 0.0, 0.0, 0.0, 0.0, 0.0, 1.676046802315032E9, 0.0, 2023-02-10 11:33:22.315
99.0, 4523.031952742571, 187500.0, -187500.02235174447, -187500.02235174447, -187500.02235174447, -187500.02235174447, -187500.02235174447, -187500.02235174447, 0.018000000000000002, 0.048, 0.998, 192.0, 0.0, 0.0, 0.0, 0.0, 0.0, 0.0, 0.0, 0.0, 0.0, 1.676046802315053E9, 0.0, 2023-02-10 11:33:22.315
100.0, 4613.802386975573, 187500.0, -187500.02235174447, -187500.02235174447, -187500.02235174447, -187500.02235174447, -187500.02235174447, -187500.02235174447, 0.018000000000000002, 0.048, 0.998, 192.0, 0.0, 0.0, 0.0, 0.0, 0.0, 0.0, 0.0, 0.0, 0.0, 1.676046802323087E9, 0.0, 2023-02-10 11:33:22.323
101.0, 4733.898309933938, 187500.0, -187500.02235174447, -187500.02235174447, -187500.02235174447, -187500.02235174447, -187500.02235174447, -187500.02235174447, 0.018000000000000002, 0.048, 0.998, 192.0, 0.0, 0.0, 0.0, 0.0, 0.0, 0.0, 0.0, 0.0, 0.0, 1.676046802323203E9, 0.0, 2023-02-10 11:33:22.323
102.0, 4635.2824133971235, 187500.0, -187500.02235174447, -187500.02235174447, -187500.02235174447, -187500.02235174447, -187500.02235174447, -187500.02235174447, 0.018000000000000002, 0.048, 0.998, 192.0, 0.0, 0.0, 0.0, 0.0, 0.0, 0.0, 0.0, 0.0, 0.0, 1.67604680232971E9, 0.0, 2023-02-10 11:33:22.329
103.0, 4511.341990392446, 187500.0, -187500.02235174447, -187500.02235174447, -187500.02235174447, -187500.02235174447, -187500.02235174447, -187500.02235174447, 0.018000000000000002, 0.048, 0.998, 192.0, 0.0, 0.0, 0.0, 0.0, 0.0, 0.0, 0.0, 0.0, 0.0, 1.676046802329729E9, 0.0, 2023-02-10 11:33:22.329
104.0, 4499.115586175392, 187500.0, -187500.02235174447, -187500.02235174447, -187500.02235174447, -187500.02235174447, -187500.02235174447, -187500.02235174447, 0.018000000000000002, 0.048, 0.998, 192.0, 0.0, 0.0, 0.0, 0.0, 0.0, 0.0, 0.0, 0.0, 0.0, 1.676046802339081E9, 0.0, 2023-02-10 11:33:22.339
105.0, 4606.493366538688, 187500.0, -187500.02235174447, -187500.02235174447, -187500.02235174447, -187500.02235174447, -187500.02235174447, -187500.02235174447, 0.012, 0.05, 0.994, 192.0, 0.0, 96.0, 1.0, 144.0, 31.0, 16.0, 0.0, 0.0, 0.0, 1.676046802339105E9, 0.0, 2023-02-10 11:33:22.339
106.0, 4684.568009921076, 187500.0, -187500.02235174447, -187500.02235174447, -187500.02235174447, -187500.02235174447, -187500.02235174447, -187500.02235174447, 0.012, 0.05, 0.994, 192.0, 0.0, 0.0, 0.0, 0.0, 0.0, 0.0, 0.0, 0.0, 0.0, 1.676046802345161E9, 0.0, 2023-02-10 11:33:22.345
107.0, 4615.121139898436, 187500.0, -187500.02235174447, -187500.02235174447, -187500.02235174447, -187500.02235174447, -187500.02235174447, -187500.02235174447, 0.012, 0.05, 0.994, 192.0, 0.0, 0.0, 0.0, 0.0, 0.0, 0.0, 0.0, 0.0, 0.0, 1.676046802345187E9, 0.0, 2023-02-10 11:33:22.345
108.0, 4530.318621435002, 187500.0, -187500.02235174447, -187500.02235174447, -187500.02235174447, -187500.02235174447, -187500.02235174447, -187500.02235174447, 0.012, 0.05, 0.994, 192.0, 0.0, 0.0, 0.0, 0.0, 0.0, 0.0, 0.0, 0.0, 0.0, 1.676046802352906E9, 0.0, 2023-02-10 11:33:22.352
109.0, 4589.19311633028, 187500.0, -187500.02235174447, -187500.02235174447, -187500.02235174447, -187500.02235174447, -187500.02235174447, -187500.02235174447, 0.012, 0.05, 0.994, 192.0, 0.0, 0.0, 0.0, 0.0, 0.0, 0.0, 0.0, 0.0, 0.0, 1.676046802359449E9, 0.0, 2023-02-10 11:33:22.359
110.0, 4714.765216680195, 187500.0, -187500.02235174447, -187500.02235174447, -187500.02235174447, -187500.02235174447, -187500.02235174447, -187500.02235174447, 0.012, 0.05, 0.994, 192.0, 0.0, 0.0, 0.0, 0.0, 0.0, 0.0, 0.0, 0.0, 0.0, 1.676046802359493E9, 0.0, 2023-02-10 11:33:22.359
111.0, 4651.979166505238, 187500.0, -187500.02235174447, -187500.02235174447, -187500.02235174447, -187500.02235174447, -187500.02235174447, -187500.02235174447, 0.012, 0.05, 0.994, 192.0, 0.0, 0.0, 0.0, 0.0, 0.0, 0.0, 0.0, 0.0, 0.0, 1.676046802367458E9, 0.0, 2023-02-10 11:33:22.367
112.0, 4515.410007883312, 187500.0, -187500.02235174447, -187500.02235174447, -187500.02235174447, -187500.02235174447, -187500.02235174447, -187500.02235174447, 0.012, 0.05, 0.994, 192.0, 0.0, 0.0, 0.0, 0.0, 0.0, 0.0, 0.0, 0.0, 0.0, 1.676046802367483E9, 0.0, 2023-02-10 11:33:22.367
113.0, 4522.920194020295, 187500.0, -187500.02235174447, -187500.02235174447, -187500.02235174447, -187500.02235174447, -187500.02235174447, -187500.02235174447, 0.012, 0.05, 0.994, 192.0, 0.0, 0.0, 0.0, 0.0, 0.0, 0.0, 0.0, 0.0, 0.0, 1.67604680237556E9, 0.0, 2023-02-10 11:33:22.375
114.0, 4652.090925227514, 187500.0, -187500.02235174447, -187500.02235174447, -187500.02235174447, -187500.02235174447, -187500.02235174447, -187500.02235174447, 0.014, 0.056, 0.994, 192.0, 0.0, 112.0, 1.0, 192.0, 31.0, 16.0, 0.0, 0.0, 0.0, 1.676046802375595E9, 0.0, 2023-02-10 11:33:22.375
115.0, 4703.11995781898, 187500.0, -187500.02235174447, -187500.02235174447, -187500.02235174447, -187500.02235174447, -187500.02235174447, -187500.02235174447, 0.014, 0.056, 0.994, 192.0, 0.0, 0.0, 0.0, 0.0, 0.0, 0.0, 0.0, 0.0, 0.0, 1.676046802382498E9, 0.0, 2023-02-10 11:33:22.382
116.0, 4559.33118573799, 187500.0, -187500.02235174447, -187500.02235174447, -187500.02235174447, -187500.02235174447, -187500.02235174447, -187500.02235174447, 0.014, 0.056, 0.994, 192.0, 0.0, 0.0, 0.0, 0.0, 0.0, 0.0, 0.0, 0.0, 0.0, 1.676046802382739E9, 0.0, 2023-02-10 11:33:22.382
117.0, 4581.034729604093, 187500.0, -187500.02235174447, -187500.02235174447, -187500.02235174447, -187500.02235174447, -187500.02235174447, -187500.02235174447, 0.014, 0.056, 0.994, 192.0, 0.0, 0.0, 0.0, 0.0, 0.0, 0.0, 0.0, 0.0, 0.0, 1.676046802390261E9, 0.0, 2023-02-10 11:33:22.390
118.0, 4742.74960073824, 187500.0, -187500.02235174447, -187500.02235174447, -187500.02235174447, -187500.02235174447, -187500.02235174447, -187500.02235174447, 0.014, 0.056, 0.994, 192.0, 0.0, 0.0, 0.0, 0.0, 0.0, 0.0, 0.0, 0.0, 0.0, 1.676046802390325E9, 0.0, 2023-02-10 11:33:22.390
119.0, 4707.635010198952, 187500.0, -187500.02235174447, -187500.02235174447, -187500.02235174447, -187500.02235174447, -187500.02235174447, -187500.02235174447, 0.014, 0.056, 0.994, 192.0, 0.0, 0.0, 0.0, 0.0, 0.0, 0.0, 0.0, 0.0, 0.0, 1.67604680239803E9, 0.0, 2023-02-10 11:33:22.398
120.0, 4560.985214827682, 187500.0, -187500.02235174447, -187500.02235174447, -187500.02235174447, -187500.02235174447, -187500.02235174447, -187500.02235174447, 0.014, 0.056, 0.994, 192.0, 0.0, 0.0, 0.0, 0.0, 0.0, 0.0, 0.0, 0.0, 0.0, 1.67604680239808E9, 0.0, 2023-02-10 11:33:22.398
121.0, 4547.820037343507, 187500.0, -187500.02235174447, -187500.02235174447, -187500.02235174447, -187500.02235174447, -187500.02235174447, -187500.02235174447, 0.014, 0.056, 0.994, 192.0, 0.0, 0.0, 0.0, 0.0, 0.0, 0.0, 0.0, 0.0, 0.0, 1.676046802406209E9, 0.0, 2023-02-10 11:33:22.406
122.0, 4682.265780242179, 187500.0, -187500.02235174447, -187500.02235174447, -187500.02235174447, -187500.02235174447, -187500.02235174447, -187500.02235174447, 0.014, 0.056, 0.994, 192.0, 0.0, 0.0, 0.0, 0.0, 0.0, 0.0, 0.0, 0.0, 0.0, 1.676046802406236E9, 0.0, 2023-02-10 11:33:22.406
123.0, 4711.077178845069, 187500.0, -187500.02235174447, -187500.02235174447, -187500.02235174447, -187500.02235174447, -187500.02235174447, -187500.02235174447, 0.014, 0.056, 0.994, 192.0, 0.0, 0.0, 0.0, 0.0, 0.0, 0.0, 0.0, 0.0, 0.0, 1.676046802412137E9, 0.0, 2023-02-10 11:33:22.412
124.0, 4582.174668571314, 187500.0, -187500.02235174447, -187500.02235174447, -187500.02235174447, -187500.02235174447, -187500.02235174447, -187500.02235174447, 0.014, 0.048, 0.996, 192.0, 0.0, 112.0, 1.0, 128.0, 31.0, 32.0, 0.0, 0.0, 0.0, 1.676046802419623E9, 0.0, 2023-02-10 11:33:22.419
125.0, 4531.167987724303, 187500.0, -187500.02235174447, -187500.02235174447, -187500.02235174447, -187500.02235174447, -187500.02235174447, -187500.02235174447, 0.014, 0.048, 0.996, 192.0, 0.0, 0.0, 0.0, 0.0, 0.0, 0.0, 0.0, 0.0, 0.0, 1.676046802419643E9, 0.0, 2023-02-10 11:33:22.419
126.0, 4668.92178880236, 187500.0, -187500.02235174447, -187500.02235174447, -187500.02235174447, -187500.02235174447, -187500.02235174447, -187500.02235174447, 0.014, 0.048, 0.996, 192.0, 0.0, 0.0, 0.0, 0.0, 0.0, 0.0, 0.0, 0.0, 0.0, 1.676046802427544E9, 0.0, 2023-02-10 11:33:22.427
127.0, 4733.473626789288, 187500.0, -187500.02235174447, -187500.02235174447, -187500.02235174447, -187500.02235174447, -187500.02235174447, -187500.02235174447, 0.014, 0.048, 0.996, 192.0, 0.0, 0.0, 0.0, 0.0, 0.0, 0.0, 0.0, 0.0, 0.0, 1.676046802427563E9, 0.0, 2023-02-10 11:33:22.427
128.0, 4615.746988743185, 187500.0, -187500.02235174447, -187500.02235174447, -187500.02235174447, -187500.02235174447, -187500.02235174447, -187500.02235174447, 0.014, 0.048, 0.996, 192.0, 0.0, 0.0, 0.0, 0.0, 0.0, 0.0, 0.0, 0.0, 0.0, 1.676046802435779E9, 0.0, 2023-02-10 11:33:22.435
129.0, 4511.677266559275, 187500.0, -187500.02235174447, -187500.02235174447, -187500.02235174447, -187500.02235174447, -187500.02235174447, -187500.02235174447, 0.014, 0.048, 0.996, 192.0, 0.0, 0.0, 0.0, 0.0, 0.0, 0.0, 0.0, 0.0, 0.0, 1.676046802435801E9, 0.0, 2023-02-10 11:33:22.435
130.0, 4624.978259203227, 187500.0, -187500.02235174447, -187500.02235174447, -187500.02235174447, -187500.02235174447, -187500.02235174447, -187500.02235174447, 0.014, 0.048, 0.996, 192.0, 0.0, 0.0, 0.0, 0.0, 0.0, 0.0, 0.0, 0.0, 0.0, 1.676046802442342E9, 0.0, 2023-02-10 11:33:22.442
131.0, 4761.3686038695105, 187500.0, -187500.02235174447, -187500.02235174447, -187500.02235174447, -187500.02235174447, -187500.02235174447, -187500.02235174447, 0.014, 0.048, 0.996, 192.0, 0.0, 0.0, 0.0, 0.0, 0.0, 0.0, 0.0, 0.0, 0.0, 1.676046802442518E9, 0.0, 2023-02-10 11:33:22.442
132.0, 4694.693350159329, 187500.0, -187500.02235174447, -187500.02235174447, -187500.02235174447, -187500.02235174447, -187500.02235174447, -187500.02235174447, 0.014, 0.048, 0.996, 192.0, 0.0, 0.0, 0.0, 0.0, 0.0, 0.0, 0.0, 0.0, 0.0, 1.676046802450322E9, 0.0, 2023-02-10 11:33:22.450
133.0, 4536.532406393577, 187500.0, -187500.02235174447, -187500.02235174447, -187500.02235174447, -187500.02235174447, -187500.02235174447, -187500.02235174447, 0.014, 0.048, 0.996, 192.0, 0.0, 0.0, 0.0, 0.0, 0.0, 0.0, 0.0, 0.0, 0.0, 1.676046802450345E9, 0.0, 2023-02-10 11:33:22.450
134.0, 4644.2678146681565, 187500.0, -187500.02235174447, -187500.02235174447, -187500.02235174447, -187500.02235174447, -187500.02235174447, -187500.02235174447, 0.016, 0.048, 1.0, 192.0, 0.0, 128.0, 1.0, 128.0, 31.0, 64.0, 0.0, 0.0, 0.0, 1.676046802458338E9, 0.0, 2023-02-10 11:33:22.458
135.0, 4721.761312694706, 187500.0, -187500.02235174447, -187500.02235174447, -187500.02235174447, -187500.02235174447, -187500.02235174447, -187500.02235174447, 0.016, 0.048, 1.0, 192.0, 0.0, 0.0, 0.0, 0.0, 0.0, 0.0, 0.0, 0.0, 0.0, 1.676046802458358E9, 0.0, 2023-02-10 11:33:22.458
136.0, 4569.590636442976, 187500.0, -187500.02235174447, -187500.02235174447, -187500.02235174447, -187500.02235174447, -187500.02235174447, -187500.02235174447, 0.016, 0.048, 1.0, 192.0, 0.0, 0.0, 0.0, 0.0, 0.0, 0.0, 0.0, 0.0, 0.0, 1.676046802465571E9, 0.0, 2023-02-10 11:33:22.465
137.0, 4490.264295371091, 187500.0, -187500.02235174447, -187500.02235174447, -187500.02235174447, -187500.02235174447, -187500.02235174447, -187500.02235174447, 0.016, 0.048, 1.0, 192.0, 0.0, 0.0, 0.0, 0.0, 0.0, 0.0, 0.0, 0.0, 0.0, 1.676046802465656E9, 0.0, 2023-02-10 11:33:22.465
138.0, 4543.819075086007, 187500.0, -187500.02235174447, -187500.02235174447, -187500.02235174447, -187500.02235174447, -187500.02235174447, -187500.02235174447, 0.016, 0.048, 1.0, 192.0, 0.0, 0.0, 0.0, 0.0, 0.0, 0.0, 0.0, 0.0, 0.0, 1.676046802472124E9, 0.0, 2023-02-10 11:33:22.472
139.0, 4625.671163281341, 187500.0, -187500.02235174447, -187500.02235174447, -187500.02235174447, -187500.02235174447, -187500.02235174447, -187500.02235174447, 0.016, 0.048, 1.0, 192.0, 0.0, 0.0, 0.0, 0.0, 0.0, 0.0, 0.0, 0.0, 0.0, 1.676046802480027E9, 0.0, 2023-02-10 11:33:22.480
140.0, 4616.1493201433805, 187500.0, -187500.02235174447, -187500.02235174447, -187500.02235174447, -187500.02235174447, -187500.02235174447, -187500.02235174447, 0.016, 0.048, 1.0, 192.0, 0.0, 0.0, 0.0, 0.0, 0.0, 0.0, 0.0, 0.0, 0.0, 1.676046802480062E9, 0.0, 2023-02-10 11:33:22.480
141.0, 4535.750095337641, 187500.0, -187500.02235174447, -187500.02235174447, -187500.02235174447, -187500.02235174447, -187500.02235174447, -187500.02235174447, 0.016, 0.048, 1.0, 192.0, 0.0, 0.0, 0.0, 0.0, 0.0, 0.0, 0.0, 0.0, 0.0, 1.676046802488514E9, 0.0, 2023-02-10 11:33:22.488
142.0, 4523.926022520784, 187500.0, -187500.02235174447, -187500.02235174447, -187500.02235174447, -187500.02235174447, -187500.02235174447, -187500.02235174447, 0.016, 0.048, 1.0, 192.0, 0.0, 0.0, 0.0, 0.0, 0.0, 0.0, 0.0, 0.0, 0.0, 1.676046802488565E9, 0.0, 2023-02-10 11:33:22.488
143.0, 4666.731317845741, 187500.0, -187500.02235174447, -187500.02235174447, -187500.02235174447, -187500.02235174447, -187500.02235174447, -187500.02235174447, 0.016, 0.048, 1.0, 192.0, 0.0, 0.0, 0.0, 0.0, 0.0, 0.0, 0.0, 0.0, 0.0, 1.676046802494583E9, 0.0, 2023-02-10 11:33:22.494
144.0, 4739.821522214595, 187500.0, -187500.02235174447, -187500.02235174447, -187500.02235174447, -187500.02235174447, -187500.02235174447, -187500.02235174447, 0.012, 0.044, 0.998, 192.0, 0.0, 96.0, 1.0, 96.0, 31.0, 48.0, 0.0, 0.0, 0.0, 1.676046802494625E9, 0.0, 2023-02-10 11:33:22.494
145.0, 4633.6954395407965, 187500.0, -187500.02235174447, -187500.02235174447, -187500.02235174447, -187500.02235174447, -187500.02235174447, -187500.02235174447, 0.012, 0.044, 0.998, 192.0, 0.0, 0.0, 0.0, 0.0, 0.0, 0.0, 0.0, 0.0, 0.0, 1.676046802502542E9, 0.0, 2023-02-10 11:33:22.502
146.0, 4519.902708518828, 187500.0, -187500.02235174447, -187500.02235174447, -187500.02235174447, -187500.02235174447, -187500.02235174447, -187500.02235174447, 0.012, 0.044, 0.998, 192.0, 0.0, 0.0, 0.0, 0.0, 0.0, 0.0, 0.0, 0.0, 0.0, 1.676046802502671E9, 0.0, 2023-02-10 11:33:22.502
147.0, 4664.563198633576, 187500.0, -187500.02235174447, -187500.02235174447, -187500.02235174447, -187500.02235174447, -187500.02235174447, -187500.02235174447, 0.012, 0.044, 0.998, 192.0, 0.0, 0.0, 0.0, 0.0, 0.0, 0.0, 0.0, 0.0, 0.0, 1.676046802511933E9, 0.0, 2023-02-10 11:33:22.511
148.0, 4703.343475263533, 187500.0, -187500.02235174447, -187500.02235174447, -187500.02235174447, -187500.02235174447, -187500.02235174447, -187500.02235174447, 0.012, 0.044, 0.998, 192.0, 0.0, 0.0, 0.0, 0.0, 0.0, 0.0, 0.0, 0.0, 0.0, 1.676046802511952E9, 0.0, 2023-02-10 11:33:22.511
149.0, 4563.443906717766, 187500.0, -187500.02235174447, -187500.02235174447, -187500.02235174447, -187500.02235174447, -187500.02235174447, -187500.02235174447, 0.012, 0.044, 0.998, 192.0, 0.0, 0.0, 0.0, 0.0, 0.0, 0.0, 0.0, 0.0, 0.0, 1.676046802518075E9, 0.0, 2023-02-10 11:33:22.518
150.0, 4537.337069193968, 187500.0, -187500.02235174447, -187500.02235174447, -187500.02235174447, -187500.02235174447, -187500.02235174447, -187500.02235174447, 0.012, 0.044, 0.998, 192.0, 0.0, 0.0, 0.0, 0.0, 0.0, 0.0, 0.0, 0.0, 0.0, 1.676046802518095E9, 0.0, 2023-02-10 11:33:22.518
151.0, 4645.608919335476, 187500.0, -187500.02235174447, -187500.02235174447, -187500.02235174447, -187500.02235174447, -187500.02235174447, -187500.02235174447, 0.012, 0.044, 0.998, 192.0, 0.0, 0.0, 0.0, 0.0, 0.0, 0.0, 0.0, 0.0, 0.0, 1.676046802525145E9, 0.0, 2023-02-10 11:33:22.525
152.0, 4629.783884261118, 187500.0, -187500.02235174447, -187500.02235174447, -187500.02235174447, -187500.02235174447, -187500.02235174447, -187500.02235174447, 0.012, 0.044, 0.998, 192.0, 0.0, 0.0, 0.0, 0.0, 0.0, 0.0, 0.0, 0.0, 0.0, 1.676046802525165E9, 0.0, 2023-02-10 11:33:22.525
153.0, 4590.131889597403, 187500.0, -187500.02235174447, -187500.02235174447, -187500.02235174447, -187500.02235174447, -187500.02235174447, -187500.02235174447, 0.012, 0.044, 0.998, 192.0, 0.0, 0.0, 0.0, 0.0, 0.0, 0.0, 0.0, 0.0, 0.0, 1.676046802532175E9, 0.0, 2023-02-10 11:33:22.532
154.0, 4608.52737528412, 187500.0, -187500.02235174447, -187500.02235174447, -187500.02235174447, -187500.02235174447, -187500.02235174447, -187500.02235174447, 0.014, 0.046, 0.996, 192.0, 0.0, 112.0, 1.0, 112.0, 31.0, 32.0, 0.0, 0.0, 0.0, 1.676046802540122E9, 0.0, 2023-02-10 11:33:22.540
