%OpenBCI Raw EEG Data
%Number of channels = 8
%Sample Rate = 250 Hz
%Board = OpenBCI_GUI$BoardCytonSerial
Sample Index, EXG Channel 0, EXG Channel 1, EXG Channel 2, EXG Channel 3, EXG Channel 4, EXG Channel 5, EXG Channel 6, EXG Channel 7, Accel Channel 0, Accel Channel 1, Accel Channel 2, Other, Other, Other, Other, Other, Other, Other, Analog Channel 0, Analog Channel 1, Analog Channel 2, Timestamp, Other, Timestamp (Formatted)
110.0, 4314.04314208545, -187500.02235174447, -187500.02235174447, -187500.02235174447, -187500.02235174447, -187500.02235174447, -187500.02235174447, -187500.02235174447, 0.0, 0.0, 0.0, 192.0, 0.0, 0.0, 0.0, 0.0, 0.0, 0.0, 0.0, 0.0, 0.0, 1.677617680505904E9, 0.0, 2023-02-28 15:54:40.505
111.0, 3434.278480324564, -187500.02235174447, -187500.02235174447, -187500.02235174447, -187500.02235174447, -187500.02235174447, -187500.02235174447, -187500.02235174447, 0.0, 0.0, 0.0, 192.0, 0.0, 0.0, 0.0, 0.0, 0.0, 0.0, 0.0, 0.0, 0.0, 1.677617680505922E9, 0.0, 2023-02-28 15:54:40.505
112.0, 3380.768404098559, -187500.02235174447, -187500.02235174447, -187500.02235174447, -187500.02235174447, -187500.02235174447, -187500.02235174447, -187500.02235174447, 0.0, 0.0, 0.0, 192.0, 0.0, 0.0, 0.0, 0.0, 0.0, 0.0, 0.0, 0.0, 0.0, 1.677617680505931E9, 0.0, 2023-02-28 15:54:40.505
113.0, 4255.638033823733, -187500.02235174447, -187500.02235174447, -187500.02235174447, -187500.02235174447, -187500.02235174447, -187500.02235174447, -187500.02235174447, 0.0, 0.0, 0.0, 192.0, 0.0, 0.0, 0.0, 0.0, 0.0, 0.0, 0.0, 0.0, 0.0, 1.677617680505941E9, 0.0, 2023-02-28 15:54:40.505
0.0, 0.0, 0.0, 0.0, 0.0, 0.0, 0.0, 0.0, 0.0, 0.184, -0.024, 0.992, 192.0, 5.0, 192.0, 255.0, 64.0, 31.0, 0.0, 0.0, 0.0, 0.0, 1.677617680572775E9, 0.0, 2023-02-28 15:54:40.572
1.0, 2886.3254650027116, -187500.02235174447, -187500.02235174447, -187500.02235174447, -187500.02235174447, -187500.02235174447, -187500.02235174447, -187500.02235174447, 0.184, -0.024, 0.992, 192.0, 0.0, 0.0, 0.0, 0.0, 0.0, 0.0, 0.0, 0.0, 0.0, 1.677617680588792E9, 0.0, 2023-02-28 15:54:40.588
2.0, 3487.252114683642, -187500.02235174447, -187500.02235174447, -187500.02235174447, -187500.02235174447, -187500.02235174447, -187500.02235174447, -187500.02235174447, 0.184, -0.024, 0.992, 192.0, 0.0, 0.0, 0.0, 0.0, 0.0, 0.0, 0.0, 0.0, 0.0, 1.677617680594844E9, 0.0, 2023-02-28 15:54:40.594
3.0, 4022.7552083438886, -187500.02235174447, -187500.02235174447, -187500.02235174447, -187500.02235174447, -187500.02235174447, -187500.02235174447, -187500.02235174447, 0.184, -0.024, 0.992, 192.0, 0.0, 0.0, 0.0, 0.0, 0.0, 0.0, 0.0, 0.0, 0.0, 1.677617680594867E9, 0.0, 2023-02-28 15:54:40.594
4.0, 3681.5781809780815, -187500.02235174447, -187500.02235174447, -187500.02235174447, -187500.02235174447, -187500.02235174447, -187500.02235174447, -187500.02235174447, 0.184, -0.024, 0.992, 192.0, 0.0, 0.0, 0.0, 0.0, 0.0, 0.0, 0.0, 0.0, 0.0, 1.677617680602689E9, 0.0, 2023-02-28 15:54:40.602
5.0, 2795.8456034476285, -187500.02235174447, -187500.02235174447, -187500.02235174447, -187500.02235174447, -187500.02235174447, -187500.02235174447, -187500.02235174447, 0.184, -0.024, 0.992, 192.0, 0.0, 0.0, 0.0, 0.0, 0.0, 0.0, 0.0, 0.0, 0.0, 1.677617680602706E9, 0.0, 2023-02-28 15:54:40.602
6.0, 3219.902899253714, -187500.02235174447, -187500.02235174447, -187500.02235174447, -187500.02235174447, -187500.02235174447, -187500.02235174447, -187500.02235174447, 0.184, -0.024, 0.992, 192.0, 0.0, 0.0, 0.0, 0.0, 0.0, 0.0, 0.0, 0.0, 0.0, 1.677617680610019E9, 0.0, 2023-02-28 15:54:40.610
7.0, 4139.118389978217, -187500.02235174447, -187500.02235174447, -187500.02235174447, -187500.02235174447, -187500.02235174447, -187500.02235174447, -187500.02235174447, 0.178, -0.018000000000000002, 0.992, 192.0, 5.0, 144.0, 255.0, 112.0, 31.0, 0.0, 0.0, 0.0, 0.0, 1.677617680610035E9, 0.0, 2023-02-28 15:54:40.610
8.0, 3981.225667145928, -187500.02235174447, -187500.02235174447, -187500.02235174447, -187500.02235174447, -187500.02235174447, -187500.02235174447, -187500.02235174447, 0.178, -0.018000000000000002, 0.992, 192.0, 0.0, 0.0, 0.0, 0.0, 0.0, 0.0, 0.0, 0.0, 0.0, 1.677617680617259E9, 0.0, 2023-02-28 15:54:40.617
9.0, 2965.54004735232, -187500.02235174447, -187500.02235174447, -187500.02235174447, -187500.02235174447, -187500.02235174447, -187500.02235174447, -187500.02235174447, 0.178, -0.018000000000000002, 0.992, 192.0, 0.0, 0.0, 0.0, 0.0, 0.0, 0.0, 0.0, 0.0, 0.0, 1.677617680617275E9, 0.0, 2023-02-28 15:54:40.617
10.0, 2957.3816606261325, -187500.02235174447, -187500.02235174447, -187500.02235174447, -187500.02235174447, -187500.02235174447, -187500.02235174447, -187500.02235174447, 0.178, -0.018000000000000002, 0.992, 192.0, 0.0, 0.0, 0.0, 0.0, 0.0, 0.0, 0.0, 0.0, 0.0, 1.677617680625266E9, 0.0, 2023-02-28 15:54:40.625
11.0, 4204.385483787713, -187500.02235174447, -187500.02235174447, -187500.02235174447, -187500.02235174447, -187500.02235174447, -187500.02235174447, -187500.02235174447, 0.178, -0.018000000000000002, 0.992, 192.0, 0.0, 0.0, 0.0, 0.0, 0.0, 0.0, 0.0, 0.0, 0.0, 1.677617680625286E9, 0.0, 2023-02-28 15:54:40.625
12.0, 4334.494988262056, -187500.02235174447, -187500.02235174447, -187500.02235174447, -187500.02235174447, -187500.02235174447, -187500.02235174447, -187500.02235174447, 0.178, -0.018000000000000002, 0.992, 192.0, 0.0, 0.0, 0.0, 0.0, 0.0, 0.0, 0.0, 0.0, 0.0, 1.677617680633289E9, 0.0, 2023-02-28 15:54:40.633
13.0, 3021.5535189573193, -187500.02235174447, -187500.02235174447, -187500.02235174447, -187500.02235174447, -187500.02235174447, -187500.02235174447, -187500.02235174447, 0.178, -0.018000000000000002, 0.992, 192.0, 0.0, 0.0, 0.0, 0.0, 0.0, 0.0, 0.0, 0.0, 0.0, 1.67761768063331E9, 0.0, 2023-02-28 15:54:40.633
14.0, 2904.475081500421, -187500.02235174447, -187500.02235174447, -187500.02235174447, -187500.02235174447, -187500.02235174447, -187500.02235174447, -187500.02235174447, 0.178, -0.018000000000000002, 0.992, 192.0, 0.0, 0.0, 0.0, 0.0, 0.0, 0.0, 0.0, 0.0, 0.0, 1.677617680639397E9, 0.0, 2023-02-28 15:54:40.639
15.0, 3647.9388055728446, -187500.02235174447, -187500.02235174447, -187500.02235174447, -187500.02235174447, -187500.02235174447, -187500.02235174447, -187500.02235174447, 0.178, -0.018000000000000002, 0.992, 192.0, 0.0, 0.0, 0.0, 0.0, 0.0, 0.0, 0.0, 0.0, 0.0, 1.677617680647049E9, 0.0, 2023-02-28 15:54:40.647
16.0, 4031.450036937003, -187500.02235174447, -187500.02235174447, -187500.02235174447, -187500.02235174447, -187500.02235174447, -187500.02235174447, -187500.02235174447, 0.178, -0.018000000000000002, 0.992, 192.0, 0.0, 0.0, 0.0, 0.0, 0.0, 0.0, 0.0, 0.0, 0.0, 1.677617680647064E9, 0.0, 2023-02-28 15:54:40.647
17.0, 3372.297092949998, -187500.02235174447, -187500.02235174447, -187500.02235174447, -187500.02235174447, -187500.02235174447, -187500.02235174447, -187500.02235174447, 0.18, -0.018000000000000002, 0.994, 192.0, 5.0, 160.0, 255.0, 112.0, 31.0, 16.0, 0.0, 0.0, 0.0, 1.677617680654954E9, 0.0, 2023-02-28 15:54:40.654
18.0, 2997.0113035453924, -187500.02235174447, -187500.02235174447, -187500.02235174447, -187500.02235174447, -187500.02235174447, -187500.02235174447, -187500.02235174447, 0.18, -0.018000000000000002, 0.994, 192.0, 0.0, 0.0, 0.0, 0.0, 0.0, 0.0, 0.0, 0.0, 0.0, 1.677617680654969E9, 0.0, 2023-02-28 15:54:40.654
19.0, 3556.2295980727195, -187500.02235174447, -187500.02235174447, -187500.02235174447, -187500.02235174447, -187500.02235174447, -187500.02235174447, -187500.02235174447, 0.18, -0.018000000000000002, 0.994, 192.0, 0.0, 0.0, 0.0, 0.0, 0.0, 0.0, 0.0, 0.0, 0.0, 1.677617680663209E9, 0.0, 2023-02-28 15:54:40.663
20.0, 4047.073906311263, -187500.02235174447, -187500.02235174447, -187500.02235174447, -187500.02235174447, -187500.02235174447, -187500.02235174447, -187500.02235174447, 0.18, -0.018000000000000002, 0.994, 192.0, 0.0, 0.0, 0.0, 0.0, 0.0, 0.0, 0.0, 0.0, 0.0, 1.677617680663229E9, 0.0, 2023-02-28 15:54:40.663
21.0, 3409.8480236349137, -187500.02235174447, -187500.02235174447, -187500.02235174447, -187500.02235174447, -187500.02235174447, -187500.02235174447, -187500.02235174447, 0.18, -0.018000000000000002, 0.994, 192.0, 0.0, 0.0, 0.0, 0.0, 0.0, 0.0, 0.0, 0.0, 0.0, 1.677617680669572E9, 0.0, 2023-02-28 15:54:40.669
22.0, 2763.9496641099054, -187500.02235174447, -187500.02235174447, -187500.02235174447, -187500.02235174447, -187500.02235174447, -187500.02235174447, -187500.02235174447, 0.18, -0.018000000000000002, 0.994, 192.0, 0.0, 0.0, 0.0, 0.0, 0.0, 0.0, 0.0, 0.0, 0.0, 1.677617680669597E9, 0.0, 2023-02-28 15:54:40.669
23.0, 3421.96266912969, -187500.02235174447, -187500.02235174447, -187500.02235174447, -187500.02235174447, -187500.02235174447, -187500.02235174447, -187500.02235174447, 0.18, -0.018000000000000002, 0.994, 192.0, 0.0, 0.0, 0.0, 0.0, 0.0, 0.0, 0.0, 0.0, 0.0, 1.677617680677585E9, 0.0, 2023-02-28 15:54:40.677
24.0, 4274.726423588565, -187500.02235174447, -187500.02235174447, -187500.02235174447, -187500.02235174447, -187500.02235174447, -187500.02235174447, -187500.02235174447, 0.18, -0.018000000000000002, 0.994, 192.0, 0.0, 0.0, 0.0, 0.0, 0.0, 0.0, 0.0, 0.0, 0.0, 1.677617680677596E9, 0.0, 2023-02-28 15:54:40.677
25.0, 3922.9546693509424, -187500.02235174447, -187500.02235174447, -187500.02235174447, -187500.02235174447, -187500.02235174447, -187500.02235174447, -187500.02235174447, 0.18, -0.018000000000000002, 0.994, 192.0, 0.0, 0.0, 0.0, 0.0, 0.0, 0.0, 0.0, 0.0, 0.0, 1.677617680685586E9, 0.0, 2023-02-28 15:54:40.685
26.0, 2906.017351867837, -187500.02235174447, -187500.02235174447, -187500.02235174447, -187500.02235174447, -187500.02235174447, -187500.02235174447, -187500.02235174447, 0.18, -0.018000000000000002, 0.994, 192.0, 0.0, 0.0, 0.0, 0.0, 0.0, 0.0, 0.0, 0.0, 0.0, 1.677617680685603E9, 0.0, 2023-02-28 15:54:40.685
27.0, 3224.820283033882, -187500.02235174447, -187500.02235174447, -187500.02235174447, -187500.02235174447, -187500.02235174447, -187500.02235174447, -187500.02235174447, 0.178, -0.018000000000000002, 0.988, 192.0, 5.0, 144.0, 255.0, 112.0, 30.0, 224.0, 0.0, 0.0, 0.0, 1.677617680692783E9, 0.0, 2023-02-28 15:54:40.692
28.0, 4109.055293685829, -187500.02235174447, -187500.02235174447, -187500.02235174447, -187500.02235174447, -187500.02235174447, -187500.02235174447, -187500.02235174447, 0.178, -0.018000000000000002, 0.988, 192.0, 0.0, 0.0, 0.0, 0.0, 0.0, 0.0, 0.0, 0.0, 0.0, 1.677617680692797E9, 0.0, 2023-02-28 15:54:40.692
29.0, 3775.1872867569077, -187500.02235174447, -187500.02235174447, -187500.02235174447, -187500.02235174447, -187500.02235174447, -187500.02235174447, -187500.02235174447, 0.178, -0.018000000000000002, 0.988, 192.0, 0.0, 0.0, 0.0, 0.0, 0.0, 0.0, 0.0, 0.0, 0.0, 1.677617680699169E9, 0.0, 2023-02-28 15:54:40.699
30.0, 2756.841809373118, -187500.02235174447, -187500.02235174447, -187500.02235174447, -187500.02235174447, -187500.02235174447, -187500.02235174447, -187500.02235174447, 0.178, -0.018000000000000002, 0.988, 192.0, 0.0, 0.0, 0.0, 0.0, 0.0, 0.0, 0.0, 0.0, 0.0, 1.677617680699181E9, 0.0, 2023-02-28 15:54:40.699
31.0, 3169.3432532958095, -187500.02235174447, -187500.02235174447, -187500.02235174447, -187500.02235174447, -187500.02235174447, -187500.02235174447, -187500.02235174447, 0.178, -0.018000000000000002, 0.988, 192.0, 0.0, 0.0, 0.0, 0.0, 0.0, 0.0, 0.0, 0.0, 0.0, 1.677617680707236E9, 0.0, 2023-02-28 15:54:40.707
32.0, 4066.989310620941, -187500.02235174447, -187500.02235174447, -187500.02235174447, -187500.02235174447, -187500.02235174447, -187500.02235174447, -187500.02235174447, 0.178, -0.018000000000000002, 0.988, 192.0, 0.0, 0.0, 0.0, 0.0, 0.0, 0.0, 0.0, 0.0, 0.0, 1.677617680715227E9, 0.0, 2023-02-28 15:54:40.715
33.0, 4023.068132766263, -187500.02235174447, -187500.02235174447, -187500.02235174447, -187500.02235174447, -187500.02235174447, -187500.02235174447, -187500.02235174447, 0.178, -0.018000000000000002, 0.988, 192.0, 0.0, 0.0, 0.0, 0.0, 0.0, 0.0, 0.0, 0.0, 0.0, 1.677617680715248E9, 0.0, 2023-02-28 15:54:40.715
34.0, 3107.875956043715, -187500.02235174447, -187500.02235174447, -187500.02235174447, -187500.02235174447, -187500.02235174447, -187500.02235174447, -187500.02235174447, 0.178, -0.018000000000000002, 0.988, 192.0, 0.0, 0.0, 0.0, 0.0, 0.0, 0.0, 0.0, 0.0, 0.0, 1.677617680722505E9, 0.0, 2023-02-28 15:54:40.722
35.0, 2974.056061989792, -187500.02235174447, -187500.02235174447, -187500.02235174447, -187500.02235174447, -187500.02235174447, -187500.02235174447, -187500.02235174447, 0.178, -0.018000000000000002, 0.988, 192.0, 0.0, 0.0, 0.0, 0.0, 0.0, 0.0, 0.0, 0.0, 0.0, 1.677617680722518E9, 0.0, 2023-02-28 15:54:40.722
36.0, 3880.4416513969486, -187500.02235174447, -187500.02235174447, -187500.02235174447, -187500.02235174447, -187500.02235174447, -187500.02235174447, -187500.02235174447, 0.178, -0.018000000000000002, 0.988, 192.0, 0.0, 0.0, 0.0, 0.0, 0.0, 0.0, 0.0, 0.0, 0.0, 1.677617680729811E9, 0.0, 2023-02-28 15:54:40.729
37.0, 4271.0607374978945, -187500.02235174447, -187500.02235174447, -187500.02235174447, -187500.02235174447, -187500.02235174447, -187500.02235174447, -187500.02235174447, 0.18, -0.02, 0.992, 192.0, 5.0, 160.0, 255.0, 96.0, 31.0, 0.0, 0.0, 0.0, 0.0, 1.677617680729827E9, 0.0, 2023-02-28 15:54:40.729
38.0, 3268.808516121926, -187500.02235174447, -187500.02235174447, -187500.02235174447, -187500.02235174447, -187500.02235174447, -187500.02235174447, -187500.02235174447, 0.18, -0.02, 0.992, 192.0, 0.0, 0.0, 0.0, 0.0, 0.0, 0.0, 0.0, 0.0, 0.0, 1.677617680737737E9, 0.0, 2023-02-28 15:54:40.737
39.0, 2678.6554072684535, -187500.02235174447, -187500.02235174447, -187500.02235174447, -187500.02235174447, -187500.02235174447, -187500.02235174447, -187500.02235174447, 0.18, -0.02, 0.992, 192.0, 0.0, 0.0, 0.0, 0.0, 0.0, 0.0, 0.0, 0.0, 0.0, 1.677617680737753E9, 0.0, 2023-02-28 15:54:40.737
40.0, 3709.339047591573, -187500.02235174447, -187500.02235174447, -187500.02235174447, -187500.02235174447, -187500.02235174447, -187500.02235174447, -187500.02235174447, 0.18, -0.02, 0.992, 192.0, 0.0, 0.0, 0.0, 0.0, 0.0, 0.0, 0.0, 0.0, 0.0, 1.677617680745892E9, 0.0, 2023-02-28 15:54:40.745
41.0, 4337.937156908173, -187500.02235174447, -187500.02235174447, -187500.02235174447, -187500.02235174447, -187500.02235174447, -187500.02235174447, -187500.02235174447, 0.18, -0.02, 0.992, 192.0, 0.0, 0.0, 0.0, 0.0, 0.0, 0.0, 0.0, 0.0, 0.0, 1.67761768074596E9, 0.0, 2023-02-28 15:54:40.745
42.0, 3375.1357644958216, -187500.02235174447, -187500.02235174447, -187500.02235174447, -187500.02235174447, -187500.02235174447, -187500.02235174447, -187500.02235174447, 0.18, -0.02, 0.992, 192.0, 0.0, 0.0, 0.0, 0.0, 0.0, 0.0, 0.0, 0.0, 0.0, 1.677617680752426E9, 0.0, 2023-02-28 15:54:40.752
43.0, 2827.0709904516925, -187500.02235174447, -187500.02235174447, -187500.02235174447, -187500.02235174447, -187500.02235174447, -187500.02235174447, -187500.02235174447, 0.18, -0.02, 0.992, 192.0, 0.0, 0.0, 0.0, 0.0, 0.0, 0.0, 0.0, 0.0, 0.0, 1.677617680752445E9, 0.0, 2023-02-28 15:54:40.752
44.0, 3542.058592088055, -187500.02235174447, -187500.02235174447, -187500.02235174447, -187500.02235174447, -187500.02235174447, -187500.02235174447, -187500.02235174447, 0.18, -0.02, 0.992, 192.0, 0.0, 0.0, 0.0, 0.0, 0.0, 0.0, 0.0, 0.0, 0.0, 1.67761768076051E9, 0.0, 2023-02-28 15:54:40.760
45.0, 4055.0758308262625, -187500.02235174447, -187500.02235174447, -187500.02235174447, -187500.02235174447, -187500.02235174447, -187500.02235174447, -187500.02235174447, 0.18, -0.02, 0.992, 192.0, 0.0, 0.0, 0.0, 0.0, 0.0, 0.0, 0.0, 0.0, 0.0, 1.677617680760526E9, 0.0, 2023-02-28 15:54:40.760
46.0, 3584.4598513197725, -187500.02235174447, -187500.02235174447, -187500.02235174447, -187500.02235174447, -187500.02235174447, -187500.02235174447, -187500.02235174447, 0.18, -0.02, 0.992, 192.0, 0.0, 0.0, 0.0, 0.0, 0.0, 0.0, 0.0, 0.0, 0.0, 1.677617680767469E9, 0.0, 2023-02-28 15:54:40.767
47.0, 2805.054522163215, -187500.02235174447, -187500.02235174447, -187500.02235174447, -187500.02235174447, -187500.02235174447, -187500.02235174447, -187500.02235174447, 0.17400000000000002, -0.02, 0.996, 192.0, 5.0, 112.0, 255.0, 96.0, 31.0, 32.0, 0.0, 0.0, 0.0, 1.677617680775531E9, 0.0, 2023-02-28 15:54:40.775
48.0, 3282.2195627951105, -187500.02235174447, -187500.02235174447, -187500.02235174447, -187500.02235174447, -187500.02235174447, -187500.02235174447, -187500.02235174447, 0.17400000000000002, -0.02, 0.996, 192.0, 0.0, 0.0, 0.0, 0.0, 0.0, 0.0, 0.0, 0.0, 0.0, 1.677617680775544E9, 0.0, 2023-02-28 15:54:40.775
49.0, 4120.454683358036, -187500.02235174447, -187500.02235174447, -187500.02235174447, -187500.02235174447, -187500.02235174447, -187500.02235174447, -187500.02235174447, 0.17400000000000002, -0.02, 0.996, 192.0, 0.0, 0.0, 0.0, 0.0, 0.0, 0.0, 0.0, 0.0, 0.0, 1.677617680782421E9, 0.0, 2023-02-28 15:54:40.782
50.0, 3788.106595052075, -187500.02235174447, -187500.02235174447, -187500.02235174447, -187500.02235174447, -187500.02235174447, -187500.02235174447, -187500.02235174447, 0.17400000000000002, -0.02, 0.996, 192.0, 0.0, 0.0, 0.0, 0.0, 0.0, 0.0, 0.0, 0.0, 0.0, 1.67761768078244E9, 0.0, 2023-02-28 15:54:40.782
51.0, 2853.155476231036, -187500.02235174447, -187500.02235174447, -187500.02235174447, -187500.02235174447, -187500.02235174447, -187500.02235174447, -187500.02235174447, 0.17400000000000002, -0.02, 0.996, 192.0, 0.0, 0.0, 0.0, 0.0, 0.0, 0.0, 0.0, 0.0, 0.0, 1.677617680790147E9, 0.0, 2023-02-28 15:54:40.790
52.0, 3372.900590050291, -187500.02235174447, -187500.02235174447, -187500.02235174447, -187500.02235174447, -187500.02235174447, -187500.02235174447, -187500.02235174447, 0.17400000000000002, -0.02, 0.996, 192.0, 0.0, 0.0, 0.0, 0.0, 0.0, 0.0, 0.0, 0.0, 0.0, 1.677617680790166E9, 0.0, 2023-02-28 15:54:40.790
53.0, 4236.706106270088, -187500.02235174447, -187500.02235174447, -187500.02235174447, -187500.02235174447, -187500.02235174447, -187500.02235174447, -187500.02235174447, 0.17400000000000002, -0.02, 0.996, 192.0, 0.0, 0.0, 0.0, 0.0, 0.0, 0.0, 0.0, 0.0, 0.0, 1.677617680798165E9, 0.0, 2023-02-28 15:54:40.798
54.0, 3697.984361408277, -187500.02235174447, -187500.02235174447, -187500.02235174447, -187500.02235174447, -187500.02235174447, -187500.02235174447, -187500.02235174447, 0.17400000000000002, -0.02, 0.996, 192.0, 0.0, 0.0, 0.0, 0.0, 0.0, 0.0, 0.0, 0.0, 0.0, 1.677617680798186E9, 0.0, 2023-02-28 15:54:40.798
55.0, 2744.9953848118053, -187500.02235174447, -187500.02235174447, -187500.02235174447, -187500.02235174447, -187500.02235174447, -187500.02235174447, -187500.02235174447, 0.17400000000000002, -0.02, 0.996, 192.0, 0.0, 0.0, 0.0, 0.0, 0.0, 0.0, 0.0, 0.0, 0.0, 1.677617680804713E9, 0.0, 2023-02-28 15:54:40.804
56.0, 2970.189210199024, -187500.02235174447, -187500.02235174447, -187500.02235174447, -187500.02235174447, -187500.02235174447, -187500.02235174447, -187500.02235174447, 0.17400000000000002, -0.02, 0.996, 192.0, 0.0, 0.0, 0.0, 0.0, 0.0, 0.0, 0.0, 0.0, 0.0, 1.677617680804761E9, 0.0, 2023-02-28 15:54:40.804
57.0, 3990.5463445837913, -187500.02235174447, -187500.02235174447, -187500.02235174447, -187500.02235174447, -187500.02235174447, -187500.02235174447, -187500.02235174447, 0.178, -0.02, 0.99, 192.0, 5.0, 144.0, 255.0, 96.0, 30.0, 240.0, 0.0, 0.0, 0.0, 1.677617680812711E9, 0.0, 2023-02-28 15:54:40.812
58.0, 4395.2023262026705, -187500.02235174447, -187500.02235174447, -187500.02235174447, -187500.02235174447, -187500.02235174447, -187500.02235174447, -187500.02235174447, 0.178, -0.02, 0.99, 192.0, 0.0, 0.0, 0.0, 0.0, 0.0, 0.0, 0.0, 0.0, 0.0, 1.67761768081273E9, 0.0, 2023-02-28 15:54:40.812
59.0, 3352.2699299180426, -187500.02235174447, -187500.02235174447, -187500.02235174447, -187500.02235174447, -187500.02235174447, -187500.02235174447, -187500.02235174447, 0.178, -0.02, 0.99, 192.0, 0.0, 0.0, 0.0, 0.0, 0.0, 0.0, 0.0, 0.0, 0.0, 1.677617680820765E9, 0.0, 2023-02-28 15:54:40.820
60.0, 2628.0957613105493, -187500.02235174447, -187500.02235174447, -187500.02235174447, -187500.02235174447, -187500.02235174447, -187500.02235174447, -187500.02235174447, 0.178, -0.02, 0.99, 192.0, 0.0, 0.0, 0.0, 0.0, 0.0, 0.0, 0.0, 0.0, 0.0, 1.677617680820782E9, 0.0, 2023-02-28 15:54:40.820
61.0, 3752.701431834869, -187500.02235174447, -187500.02235174447, -187500.02235174447, -187500.02235174447, -187500.02235174447, -187500.02235174447, -187500.02235174447, 0.178, -0.02, 0.99, 192.0, 0.0, 0.0, 0.0, 0.0, 0.0, 0.0, 0.0, 0.0, 0.0, 1.677617680828041E9, 0.0, 2023-02-28 15:54:40.828
62.0, 4109.457625086025, -187500.02235174447, -187500.02235174447, -187500.02235174447, -187500.02235174447, -187500.02235174447, -187500.02235174447, -187500.02235174447, 0.178, -0.02, 0.99, 192.0, 0.0, 0.0, 0.0, 0.0, 0.0, 0.0, 0.0, 0.0, 0.0, 1.677617680834319E9, 0.0, 2023-02-28 15:54:40.834
63.0, 3300.8832694152916, -187500.02235174447, -187500.02235174447, -187500.02235174447, -187500.02235174447, -187500.02235174447, -187500.02235174447, -187500.02235174447, 0.178, -0.02, 0.99, 192.0, 0.0, 0.0, 0.0, 0.0, 0.0, 0.0, 0.0, 0.0, 0.0, 1.677617680834343E9, 0.0, 2023-02-28 15:54:40.834
64.0, 2816.386856602056, -187500.02235174447, -187500.02235174447, -187500.02235174447, -187500.02235174447, -187500.02235174447, -187500.02235174447, -187500.02235174447, 0.178, -0.02, 0.99, 192.0, 0.0, 0.0, 0.0, 0.0, 0.0, 0.0, 0.0, 0.0, 0.0, 1.677617680843087E9, 0.0, 2023-02-28 15:54:40.843
65.0, 3791.6381706760135, -187500.02235174447, -187500.02235174447, -187500.02235174447, -187500.02235174447, -187500.02235174447, -187500.02235174447, -187500.02235174447, 0.178, -0.02, 0.99, 192.0, 0.0, 0.0, 0.0, 0.0, 0.0, 0.0, 0.0, 0.0, 0.0, 1.677617680843099E9, 0.0, 2023-02-28 15:54:40.843
66.0, 4593.596409987976, -187500.02235174447, -187500.02235174447, -187500.02235174447, -187500.02235174447, -187500.02235174447, -187500.02235174447, -187500.02235174447, 0.18, -0.02, 0.994, 192.0, 5.0, 160.0, 255.0, 96.0, 31.0, 16.0, 0.0, 0.0, 0.0, 1.677617680850385E9, 0.0, 2023-02-28 15:54:40.850
67.0, 3266.327472487387, -187500.02235174447, -187500.02235174447, -187500.02235174447, -187500.02235174447, -187500.02235174447, -187500.02235174447, -187500.02235174447, 0.18, -0.02, 0.994, 192.0, 0.0, 0.0, 0.0, 0.0, 0.0, 0.0, 0.0, 0.0, 0.0, 1.677617680850398E9, 0.0, 2023-02-28 15:54:40.850
68.0, 2602.815938331597, -187500.02235174447, -187500.02235174447, -187500.02235174447, -187500.02235174447, -187500.02235174447, -187500.02235174447, -187500.02235174447, 0.18, -0.02, 0.994, 192.0, 0.0, 0.0, 0.0, 0.0, 0.0, 0.0, 0.0, 0.0, 0.0, 1.677617680857528E9, 0.0, 2023-02-28 15:54:40.857
69.0, 3420.7109714401927, -187500.02235174447, -187500.02235174447, -187500.02235174447, -187500.02235174447, -187500.02235174447, -187500.02235174447, -187500.02235174447, 0.18, -0.02, 0.994, 192.0, 0.0, 0.0, 0.0, 0.0, 0.0, 0.0, 0.0, 0.0, 0.0, 1.677617680857542E9, 0.0, 2023-02-28 15:54:40.857
70.0, 4214.600231003789, -187500.02235174447, -187500.02235174447, -187500.02235174447, -187500.02235174447, -187500.02235174447, -187500.02235174447, -187500.02235174447, 0.18, -0.02, 0.994, 192.0, 0.0, 0.0, 0.0, 0.0, 0.0, 0.0, 0.0, 0.0, 0.0, 1.67761768086501E9, 0.0, 2023-02-28 15:54:40.865
71.0, 3476.2327046671758, -187500.02235174447, -187500.02235174447, -187500.02235174447, -187500.02235174447, -187500.02235174447, -187500.02235174447, -187500.02235174447, 0.18, -0.02, 0.994, 192.0, 0.0, 0.0, 0.0, 0.0, 0.0, 0.0, 0.0, 0.0, 0.0, 1.677617680865083E9, 0.0, 2023-02-28 15:54:40.865
72.0, 2656.974215146806, -187500.02235174447, -187500.02235174447, -187500.02235174447, -187500.02235174447, -187500.02235174447, -187500.02235174447, -187500.02235174447, 0.18, -0.02, 0.994, 192.0, 0.0, 0.0, 0.0, 0.0, 0.0, 0.0, 0.0, 0.0, 0.0, 1.677617680872969E9, 0.0, 2023-02-28 15:54:40.872
73.0, 3335.5061215765622, -187500.02235174447, -187500.02235174447, -187500.02235174447, -187500.02235174447, -187500.02235174447, -187500.02235174447, -187500.02235174447, 0.18, -0.02, 0.994, 192.0, 0.0, 0.0, 0.0, 0.0, 0.0, 0.0, 0.0, 0.0, 0.0, 1.677617680873018E9, 0.0, 2023-02-28 15:54:40.873
74.0, 4139.610128356234, -187500.02235174447, -187500.02235174447, -187500.02235174447, -187500.02235174447, -187500.02235174447, -187500.02235174447, -187500.02235174447, 0.18, -0.02, 0.994, 192.0, 0.0, 0.0, 0.0, 0.0, 0.0, 0.0, 0.0, 0.0, 0.0, 1.677617680881007E9, 0.0, 2023-02-28 15:54:40.881
75.0, 3573.3957378143955, -187500.02235174447, -187500.02235174447, -187500.02235174447, -187500.02235174447, -187500.02235174447, -187500.02235174447, -187500.02235174447, 0.18, -0.02, 0.994, 192.0, 0.0, 0.0, 0.0, 0.0, 0.0, 0.0, 0.0, 0.0, 0.0, 1.677617680881023E9, 0.0, 2023-02-28 15:54:40.881
76.0, 2847.4557813949327, -187500.02235174447, -187500.02235174447, -187500.02235174447, -187500.02235174447, -187500.02235174447, -187500.02235174447, -187500.02235174447, 0.18, -0.02, 0.998, 192.0, 5.0, 160.0, 255.0, 96.0, 31.0, 48.0, 0.0, 0.0, 0.0, 1.677617680887234E9, 0.0, 2023-02-28 15:54:40.887
77.0, 3215.4101986181977, -187500.02235174447, -187500.02235174447, -187500.02235174447, -187500.02235174447, -187500.02235174447, -187500.02235174447, -187500.02235174447, 0.18, -0.02, 0.998, 192.0, 0.0, 0.0, 0.0, 0.0, 0.0, 0.0, 0.0, 0.0, 0.0, 1.677617680894619E9, 0.0, 2023-02-28 15:54:40.894
78.0, 4076.9805403924634, -187500.02235174447, -187500.02235174447, -187500.02235174447, -187500.02235174447, -187500.02235174447, -187500.02235174447, -187500.02235174447, 0.18, -0.02, 0.998, 192.0, 0.0, 0.0, 0.0, 0.0, 0.0, 0.0, 0.0, 0.0, 0.0, 1.677617680894635E9, 0.0, 2023-02-28 15:54:40.894
79.0, 3883.973227020887, -187500.02235174447, -187500.02235174447, -187500.02235174447, -187500.02235174447, -187500.02235174447, -187500.02235174447, -187500.02235174447, 0.18, -0.02, 0.998, 192.0, 0.0, 0.0, 0.0, 0.0, 0.0, 0.0, 0.0, 0.0, 0.0, 1.677617680902575E9, 0.0, 2023-02-28 15:54:40.902
80.0, 2871.506258428843, -187500.02235174447, -187500.02235174447, -187500.02235174447, -187500.02235174447, -187500.02235174447, -187500.02235174447, -187500.02235174447, 0.18, -0.02, 0.998, 192.0, 0.0, 0.0, 0.0, 0.0, 0.0, 0.0, 0.0, 0.0, 0.0, 1.677617680902591E9, 0.0, 2023-02-28 15:54:40.902
81.0, 3026.2920887818445, -187500.02235174447, -187500.02235174447, -187500.02235174447, -187500.02235174447, -187500.02235174447, -187500.02235174447, -187500.02235174447, 0.18, -0.02, 0.998, 192.0, 0.0, 0.0, 0.0, 0.0, 0.0, 0.0, 0.0, 0.0, 0.0, 1.677617680910723E9, 0.0, 2023-02-28 15:54:40.910
82.0, 4154.764611096932, -187500.02235174447, -187500.02235174447, -187500.02235174447, -187500.02235174447, -187500.02235174447, -187500.02235174447, -187500.02235174447, 0.18, -0.02, 0.998, 192.0, 0.0, 0.0, 0.0, 0.0, 0.0, 0.0, 0.0, 0.0, 0.0, 1.677617680910742E9, 0.0, 2023-02-28 15:54:40.910
83.0, 4118.7335990349775, -187500.02235174447, -187500.02235174447, -187500.02235174447, -187500.02235174447, -187500.02235174447, -187500.02235174447, -187500.02235174447, 0.18, -0.02, 0.998, 192.0, 0.0, 0.0, 0.0, 0.0, 0.0, 0.0, 0.0, 0.0, 0.0, 1.677617680917313E9, 0.0, 2023-02-28 15:54:40.917
84.0, 3130.339459221299, -187500.02235174447, -187500.02235174447, -187500.02235174447, -187500.02235174447, -187500.02235174447, -187500.02235174447, -187500.02235174447, 0.18, -0.02, 0.998, 192.0, 0.0, 0.0, 0.0, 0.0, 0.0, 0.0, 0.0, 0.0, 0.0, 1.677617680917334E9, 0.0, 2023-02-28 15:54:40.917
85.0, 2944.9317389645266, -187500.02235174447, -187500.02235174447, -187500.02235174447, -187500.02235174447, -187500.02235174447, -187500.02235174447, -187500.02235174447, 0.18, -0.02, 0.998, 192.0, 0.0, 0.0, 0.0, 0.0, 0.0, 0.0, 0.0, 0.0, 0.0, 1.677617680925336E9, 0.0, 2023-02-28 15:54:40.925
86.0, 3776.729557124324, -187500.02235174447, -187500.02235174447, -187500.02235174447, -187500.02235174447, -187500.02235174447, -187500.02235174447, -187500.02235174447, 0.176, -0.022, 0.996, 192.0, 5.0, 128.0, 255.0, 80.0, 31.0, 32.0, 0.0, 0.0, 0.0, 1.677617680925396E9, 0.0, 2023-02-28 15:54:40.925
87.0, 4204.229021576527, -187500.02235174447, -187500.02235174447, -187500.02235174447, -187500.02235174447, -187500.02235174447, -187500.02235174447, -187500.02235174447, 0.176, -0.022, 0.996, 192.0, 0.0, 0.0, 0.0, 0.0, 0.0, 0.0, 0.0, 0.0, 0.0, 1.677617680933308E9, 0.0, 2023-02-28 15:54:40.933
88.0, 3235.6385273502506, -187500.02235174447, -187500.02235174447, -187500.02235174447, -187500.02235174447, -187500.02235174447, -187500.02235174447, -187500.02235174447, 0.176, -0.022, 0.996, 192.0, 0.0, 0.0, 0.0, 0.0, 0.0, 0.0, 0.0, 0.0, 0.0, 1.677617680933324E9, 0.0, 2023-02-28 15:54:40.933
89.0, 2709.4784628723223, -187500.02235174447, -187500.02235174447, -187500.02235174447, -187500.02235174447, -187500.02235174447, -187500.02235174447, -187500.02235174447, 0.176, -0.022, 0.996, 192.0, 0.0, 0.0, 0.0, 0.0, 0.0, 0.0, 0.0, 0.0, 0.0, 1.677617680940567E9, 0.0, 2023-02-28 15:54:40.940
90.0, 3587.0303019321327, -187500.02235174447, -187500.02235174447, -187500.02235174447, -187500.02235174447, -187500.02235174447, -187500.02235174447, -187500.02235174447, 0.176, -0.022, 0.996, 192.0, 0.0, 0.0, 0.0, 0.0, 0.0, 0.0, 0.0, 0.0, 0.0, 1.677617680940589E9, 0.0, 2023-02-28 15:54:40.940
91.0, 4075.1476973471285, -187500.02235174447, -187500.02235174447, -187500.02235174447, -187500.02235174447, -187500.02235174447, -187500.02235174447, -187500.02235174447, 0.176, -0.022, 0.996, 192.0, 0.0, 0.0, 0.0, 0.0, 0.0, 0.0, 0.0, 0.0, 0.0, 1.677617680946952E9, 0.0, 2023-02-28 15:54:40.946
92.0, 3376.3651104408636, -187500.02235174447, -187500.02235174447, -187500.02235174447, -187500.02235174447, -187500.02235174447, -187500.02235174447, -187500.02235174447, 0.176, -0.022, 0.996, 192.0, 0.0, 0.0, 0.0, 0.0, 0.0, 0.0, 0.0, 0.0, 0.0, 1.677617680946978E9, 0.0, 2023-02-28 15:54:40.946
93.0, 2761.8486001311067, -187500.02235174447, -187500.02235174447, -187500.02235174447, -187500.02235174447, -187500.02235174447, -187500.02235174447, -187500.02235174447, 0.176, -0.022, 0.996, 192.0, 0.0, 0.0, 0.0, 0.0, 0.0, 0.0, 0.0, 0.0, 0.0, 1.67761768095499E9, 0.0, 2023-02-28 15:54:40.954
94.0, 3501.4678241572174, -187500.02235174447, -187500.02235174447, -187500.02235174447, -187500.02235174447, -187500.02235174447, -187500.02235174447, -187500.02235174447, 0.176, -0.022, 0.996, 192.0, 0.0, 0.0, 0.0, 0.0, 0.0, 0.0, 0.0, 0.0, 0.0, 1.677617680963027E9, 0.0, 2023-02-28 15:54:40.963
95.0, 4257.8508565248085, -187500.02235174447, -187500.02235174447, -187500.02235174447, -187500.02235174447, -187500.02235174447, -187500.02235174447, -187500.02235174447, 0.176, -0.022, 0.996, 192.0, 0.0, 0.0, 0.0, 0.0, 0.0, 0.0, 0.0, 0.0, 0.0, 1.67761768096304E9, 0.0, 2023-02-28 15:54:40.963
96.0, 3961.0867453916962, -187500.02235174447, -187500.02235174447, -187500.02235174447, -187500.02235174447, -187500.02235174447, -187500.02235174447, -187500.02235174447, 0.17, -0.026000000000000002, 0.994, 192.0, 5.0, 80.0, 255.0, 48.0, 31.0, 16.0, 0.0, 0.0, 0.0, 1.677617680969535E9, 0.0, 2023-02-28 15:54:40.969
97.0, 2877.8765055986055, -187500.02235174447, -187500.02235174447, -187500.02235174447, -187500.02235174447, -187500.02235174447, -187500.02235174447, -187500.02235174447, 0.17, -0.026000000000000002, 0.994, 192.0, 0.0, 0.0, 0.0, 0.0, 0.0, 0.0, 0.0, 0.0, 0.0, 1.67761768096955E9, 0.0, 2023-02-28 15:54:40.969
98.0, 3197.77467224296, -187500.02235174447, -187500.02235174447, -187500.02235174447, -187500.02235174447, -187500.02235174447, -187500.02235174447, -187500.02235174447, 0.17, -0.026000000000000002, 0.994, 192.0, 0.0, 0.0, 0.0, 0.0, 0.0, 0.0, 0.0, 0.0, 0.0, 1.677617680977534E9, 0.0, 2023-02-28 15:54:40.977
99.0, 4018.396618175104, -187500.02235174447, -187500.02235174447, -187500.02235174447, -187500.02235174447, -187500.02235174447, -187500.02235174447, -187500.02235174447, 0.17, -0.026000000000000002, 0.994, 192.0, 0.0, 0.0, 0.0, 0.0, 0.0, 0.0, 0.0, 0.0, 0.0, 1.677617680977554E9, 0.0, 2023-02-28 15:54:40.977
100.0, 3688.6860357148694, -187500.02235174447, -187500.02235174447, -187500.02235174447, -187500.02235174447, -187500.02235174447, -187500.02235174447, -187500.02235174447, 0.17, -0.026000000000000002, 0.994, 192.0, 0.0, 0.0, 0.0, 0.0, 0.0, 0.0, 0.0, 0.0, 0.0, 1.677617680985606E9, 0.0, 2023-02-28 15:54:40.985
101.0, 2821.1477781710364, -187500.02235174447, -187500.02235174447, -187500.02235174447, -187500.02235174447, -187500.02235174447, -187500.02235174447, -187500.02235174447, 0.17, -0.026000000000000002, 0.994, 192.0, 0.0, 0.0, 0.0, 0.0, 0.0, 0.0, 0.0, 0.0, 0.0, 1.677617680985668E9, 0.0, 2023-02-28 15:54:40.985
102.0, 3140.9565378375696, -187500.02235174447, -187500.02235174447, -187500.02235174447, -187500.02235174447, -187500.02235174447, -187500.02235174447, -187500.02235174447, 0.17, -0.026000000000000002, 0.994, 192.0, 0.0, 0.0, 0.0, 0.0, 0.0, 0.0, 0.0, 0.0, 0.0, 1.677617680992689E9, 0.0, 2023-02-28 15:54:40.992
103.0, 3983.773766013833, -187500.02235174447, -187500.02235174447, -187500.02235174447, -187500.02235174447, -187500.02235174447, -187500.02235174447, -187500.02235174447, 0.17, -0.026000000000000002, 0.994, 192.0, 0.0, 0.0, 0.0, 0.0, 0.0, 0.0, 0.0, 0.0, 0.0, 1.677617680992711E9, 0.0, 2023-02-28 15:54:40.992
104.0, 3900.491166173359, -187500.02235174447, -187500.02235174447, -187500.02235174447, -187500.02235174447, -187500.02235174447, -187500.02235174447, -187500.02235174447, 0.17, -0.026000000000000002, 0.994, 192.0, 0.0, 0.0, 0.0, 0.0, 0.0, 0.0, 0.0, 0.0, 0.0, 1.677617681000205E9, 0.0, 2023-02-28 15:54:41.000
105.0, 2962.6790240620408, -187500.02235174447, -187500.02235174447, -187500.02235174447, -187500.02235174447, -187500.02235174447, -187500.02235174447, -187500.02235174447, 0.17, -0.026000000000000002, 0.994, 192.0, 0.0, 0.0, 0.0, 0.0, 0.0, 0.0, 0.0, 0.0, 0.0, 1.677617681000226E9, 0.0, 2023-02-28 15:54:41.000
106.0, 3021.017077090392, -187500.02235174447, -187500.02235174447, -187500.02235174447, -187500.02235174447, -187500.02235174447, -187500.02235174447, -187500.02235174447, 0.17400000000000002, -0.02, 0.994, 192.0, 5.0, 112.0, 255.0, 96.0, 31.0, 16.0, 0.0, 0.0, 0.0, 1.677617681008255E9, 0.0, 2023-02-28 15:54:41.008
107.0, 4071.794935678832, -187500.02235174447, -187500.02235174447, -187500.02235174447, -187500.02235174447, -187500.02235174447, -187500.02235174447, -187500.02235174447, 0.17400000000000002, -0.02, 0.994, 192.0, 0.0, 0.0, 0.0, 0.0, 0.0, 0.0, 0.0, 0.0, 0.0, 1.67761768100827E9, 0.0, 2023-02-28 15:54:41.008
108.0, 4281.431946925157, -187500.02235174447, -187500.02235174447, -187500.02235174447, -187500.02235174447, -187500.02235174447, -187500.02235174447, -187500.02235174447, 0.17400000000000002, -0.02, 0.994, 192.0, 0.0, 0.0, 0.0, 0.0, 0.0, 0.0, 0.0, 0.0, 0.0, 1.677617681015236E9, 0.0, 2023-02-28 15:54:41.015
109.0, 3341.2281681571208, -187500.02235174447, -187500.02235174447, -187500.02235174447, -187500.02235174447, -187500.02235174447, -187500.02235174447, -187500.02235174447, 0.17400000000000002, -0.02, 0.994, 192.0, 0.0, 0.0, 0.0, 0.0, 0.0, 0.0, 0.0, 0.0, 0.0, 1.677617681022377E9, 0.0, 2023-02-28 15:54:41.022
110.0, 2910.152424592069, -187500.02235174447, -187500.02235174447, -187500.02235174447, -187500.02235174447, -187500.02235174447, -187500.02235174447, -187500.02235174447, 0.17400000000000002, -0.02, 0.994, 192.0, 0.0, 0.0, 0.0, 0.0, 0.0, 0.0, 0.0, 0.0, 0.0, 1.677617681022395E9, 0.0, 2023-02-28 15:54:41.022
111.0, 3498.6291526113932, -187500.02235174447, -187500.02235174447, -187500.02235174447, -187500.02235174447, -187500.02235174447, -187500.02235174447, -187500.02235174447, 0.17400000000000002, -0.02, 0.994, 192.0, 0.0, 0.0, 0.0, 0.0, 0.0, 0.0, 0.0, 0.0, 0.0, 1.677617681029849E9, 0.0, 2023-02-28 15:54:41.029
112.0, 3982.7455857688888, -187500.02235174447, -187500.02235174447, -187500.02235174447, -187500.02235174447, -187500.02235174447, -187500.02235174447, -187500.02235174447, 0.17400000000000002, -0.02, 0.994, 192.0, 0.0, 0.0, 0.0, 0.0, 0.0, 0.0, 0.0, 0.0, 0.0, 1.677617681029868E9, 0.0, 2023-02-28 15:54:41.029
113.0, 3245.5403501439514, -187500.02235174447, -187500.02235174447, -187500.02235174447, -187500.02235174447, -187500.02235174447, -187500.02235174447, -187500.02235174447, 0.17400000000000002, -0.02, 0.994, 192.0, 0.0, 0.0, 0.0, 0.0, 0.0, 0.0, 0.0, 0.0, 0.0, 1.677617681037846E9, 0.0, 2023-02-28 15:54:41.037
114.0, 2720.6319833555203, -187500.02235174447, -187500.02235174447, -187500.02235174447, -187500.02235174447, -187500.02235174447, -187500.02235174447, -187500.02235174447, 0.17400000000000002, -0.02, 0.994, 192.0, 0.0, 0.0, 0.0, 0.0, 0.0, 0.0, 0.0, 0.0, 0.0, 1.67761768103787E9, 0.0, 2023-02-28 15:54:41.037
115.0, 3642.9096630704003, -187500.02235174447, -187500.02235174447, -187500.02235174447, -187500.02235174447, -187500.02235174447, -187500.02235174447, -187500.02235174447, 0.17400000000000002, -0.02, 0.994, 192.0, 0.0, 0.0, 0.0, 0.0, 0.0, 0.0, 0.0, 0.0, 0.0, 1.677617681045922E9, 0.0, 2023-02-28 15:54:41.045
116.0, 4268.982025263551, -187500.02235174447, -187500.02235174447, -187500.02235174447, -187500.02235174447, -187500.02235174447, -187500.02235174447, -187500.02235174447, 0.176, -0.02, 0.998, 192.0, 5.0, 128.0, 255.0, 96.0, 31.0, 48.0, 0.0, 0.0, 0.0, 1.677617681045968E9, 0.0, 2023-02-28 15:54:41.045
117.0, 3428.7799511885587, -187500.02235174447, -187500.02235174447, -187500.02235174447, -187500.02235174447, -187500.02235174447, -187500.02235174447, -187500.02235174447, 0.176, -0.02, 0.998, 192.0, 0.0, 0.0, 0.0, 0.0, 0.0, 0.0, 0.0, 0.0, 0.0, 1.677617681052406E9, 0.0, 2023-02-28 15:54:41.052
118.0, 2754.6960419054085, -187500.02235174447, -187500.02235174447, -187500.02235174447, -187500.02235174447, -187500.02235174447, -187500.02235174447, -187500.02235174447, 0.176, -0.02, 0.998, 192.0, 0.0, 0.0, 0.0, 0.0, 0.0, 0.0, 0.0, 0.0, 0.0, 1.677617681052421E9, 0.0, 2023-02-28 15:54:41.052
119.0, 3474.243399410653, -187500.02235174447, -187500.02235174447, -187500.02235174447, -187500.02235174447, -187500.02235174447, -187500.02235174447, -187500.02235174447, 0.176, -0.02, 0.998, 192.0, 0.0, 0.0, 0.0, 0.0, 0.0, 0.0, 0.0, 0.0, 0.0, 1.677617681060447E9, 0.0, 2023-02-28 15:54:41.060
120.0, 4204.45253902108, -187500.02235174447, -187500.02235174447, -187500.02235174447, -187500.02235174447, -187500.02235174447, -187500.02235174447, -187500.02235174447, 0.176, -0.02, 0.998, 192.0, 0.0, 0.0, 0.0, 0.0, 0.0, 0.0, 0.0, 0.0, 0.0, 1.677617681060462E9, 0.0, 2023-02-28 15:54:41.060
121.0, 3627.3975524184175, -187500.02235174447, -187500.02235174447, -187500.02235174447, -187500.02235174447, -187500.02235174447, -187500.02235174447, -187500.02235174447, 0.176, -0.02, 0.998, 192.0, 0.0, 0.0, 0.0, 0.0, 0.0, 0.0, 0.0, 0.0, 0.0, 1.677617681068461E9, 0.0, 2023-02-28 15:54:41.068
122.0, 2815.0010484458267, -187500.02235174447, -187500.02235174447, -187500.02235174447, -187500.02235174447, -187500.02235174447, -187500.02235174447, -187500.02235174447, 0.176, -0.02, 0.998, 192.0, 0.0, 0.0, 0.0, 0.0, 0.0, 0.0, 0.0, 0.0, 0.0, 1.677617681068472E9, 0.0, 2023-02-28 15:54:41.068
123.0, 3318.1835196236993, -187500.02235174447, -187500.02235174447, -187500.02235174447, -187500.02235174447, -187500.02235174447, -187500.02235174447, -187500.02235174447, 0.176, -0.02, 0.998, 192.0, 0.0, 0.0, 0.0, 0.0, 0.0, 0.0, 0.0, 0.0, 0.0, 1.67761768107551E9, 0.0, 2023-02-28 15:54:41.075
124.0, 4156.642157631178, -187500.02235174447, -187500.02235174447, -187500.02235174447, -187500.02235174447, -187500.02235174447, -187500.02235174447, -187500.02235174447, 0.176, -0.02, 0.998, 192.0, 0.0, 0.0, 0.0, 0.0, 0.0, 0.0, 0.0, 0.0, 0.0, 1.677617681082148E9, 0.0, 2023-02-28 15:54:41.082
125.0, 3765.7772023412235, -187500.02235174447, -187500.02235174447, -187500.02235174447, -187500.02235174447, -187500.02235174447, -187500.02235174447, -187500.02235174447, 0.176, -0.02, 0.996, 192.0, 5.0, 128.0, 255.0, 96.0, 31.0, 32.0, 0.0, 0.0, 0.0, 1.677617681082171E9, 0.0, 2023-02-28 15:54:41.082
126.0, 2867.0135577933265, -187500.02235174447, -187500.02235174447, -187500.02235174447, -187500.02235174447, -187500.02235174447, -187500.02235174447, -187500.02235174447, 0.176, -0.02, 0.996, 192.0, 0.0, 0.0, 0.0, 0.0, 0.0, 0.0, 0.0, 0.0, 0.0, 1.677617681090271E9, 0.0, 2023-02-28 15:54:41.090
127.0, 3176.1381836102228, -187500.02235174447, -187500.02235174447, -187500.02235174447, -187500.02235174447, -187500.02235174447, -187500.02235174447, -187500.02235174447, 0.176, -0.02, 0.996, 192.0, 0.0, 0.0, 0.0, 0.0, 0.0, 0.0, 0.0, 0.0, 0.0, 1.6776176810903E9, 0.0, 2023-02-28 15:54:41.090
128.0, 4078.321645059782, -187500.02235174447, -187500.02235174447, -187500.02235174447, -187500.02235174447, -187500.02235174447, -187500.02235174447, -187500.02235174447, 0.176, -0.02, 0.996, 192.0, 0.0, 0.0, 0.0, 0.0, 0.0, 0.0, 0.0, 0.0, 0.0, 1.677617681098229E9, 0.0, 2023-02-28 15:54:41.098
129.0, 3927.9614601089315, -187500.02235174447, -187500.02235174447, -187500.02235174447, -187500.02235174447, -187500.02235174447, -187500.02235174447, -187500.02235174447, 0.176, -0.02, 0.996, 192.0, 0.0, 0.0, 0.0, 0.0, 0.0, 0.0, 0.0, 0.0, 0.0, 1.677617681098251E9, 0.0, 2023-02-28 15:54:41.098
130.0, 2964.4895153629204, -187500.02235174447, -187500.02235174447, -187500.02235174447, -187500.02235174447, -187500.02235174447, -187500.02235174447, -187500.02235174447, 0.176, -0.02, 0.996, 192.0, 0.0, 0.0, 0.0, 0.0, 0.0, 0.0, 0.0, 0.0, 0.0, 1.677617681105211E9, 0.0, 2023-02-28 15:54:41.105
131.0, 3007.963658328493, -187500.02235174447, -187500.02235174447, -187500.02235174447, -187500.02235174447, -187500.02235174447, -187500.02235174447, -187500.02235174447, 0.176, -0.02, 0.996, 192.0, 0.0, 0.0, 0.0, 0.0, 0.0, 0.0, 0.0, 0.0, 0.0, 1.677617681105333E9, 0.0, 2023-02-28 15:54:41.105
132.0, 3931.716553177423, -187500.02235174447, -187500.02235174447, -187500.02235174447, -187500.02235174447, -187500.02235174447, -187500.02235174447, -187500.02235174447, 0.176, -0.02, 0.996, 192.0, 0.0, 0.0, 0.0, 0.0, 0.0, 0.0, 0.0, 0.0, 0.0, 1.677617681112764E9, 0.0, 2023-02-28 15:54:41.112
133.0, 4131.138817207672, -187500.02235174447, -187500.02235174447, -187500.02235174447, -187500.02235174447, -187500.02235174447, -187500.02235174447, -187500.02235174447, 0.176, -0.02, 0.996, 192.0, 0.0, 0.0, 0.0, 0.0, 0.0, 0.0, 0.0, 0.0, 0.0, 1.677617681112776E9, 0.0, 2023-02-28 15:54:41.112
134.0, 3365.859790546869, -187500.02235174447, -187500.02235174447, -187500.02235174447, -187500.02235174447, -187500.02235174447, -187500.02235174447, -187500.02235174447, 0.176, -0.02, 0.996, 192.0, 0.0, 0.0, 0.0, 0.0, 0.0, 0.0, 0.0, 0.0, 0.0, 1.67761768112072E9, 0.0, 2023-02-28 15:54:41.120
135.0, 2763.055594331693, -187500.02235174447, -187500.02235174447, -187500.02235174447, -187500.02235174447, -187500.02235174447, -187500.02235174447, -187500.02235174447, 0.178, -0.024, 0.996, 192.0, 5.0, 144.0, 255.0, 64.0, 31.0, 32.0, 0.0, 0.0, 0.0, 1.677617681120742E9, 0.0, 2023-02-28 15:54:41.120
136.0, 3648.184674761853, -187500.02235174447, -187500.02235174447, -187500.02235174447, -187500.02235174447, -187500.02235174447, -187500.02235174447, -187500.02235174447, 0.178, -0.024, 0.996, 192.0, 0.0, 0.0, 0.0, 0.0, 0.0, 0.0, 0.0, 0.0, 0.0, 1.677617681128762E9, 0.0, 2023-02-28 15:54:41.128
137.0, 4193.768405171443, -187500.02235174447, -187500.02235174447, -187500.02235174447, -187500.02235174447, -187500.02235174447, -187500.02235174447, -187500.02235174447, 0.178, -0.024, 0.996, 192.0, 0.0, 0.0, 0.0, 0.0, 0.0, 0.0, 0.0, 0.0, 0.0, 1.677617681128781E9, 0.0, 2023-02-28 15:54:41.128
138.0, 3474.5563238330274, -187500.02235174447, -187500.02235174447, -187500.02235174447, -187500.02235174447, -187500.02235174447, -187500.02235174447, -187500.02235174447, 0.178, -0.024, 0.996, 192.0, 0.0, 0.0, 0.0, 0.0, 0.0, 0.0, 0.0, 0.0, 0.0, 1.677617681134921E9, 0.0, 2023-02-28 15:54:41.134
139.0, 2572.3058071501027, -187500.02235174447, -187500.02235174447, -187500.02235174447, -187500.02235174447, -187500.02235174447, -187500.02235174447, -187500.02235174447, 0.178, -0.024, 0.996, 192.0, 0.0, 0.0, 0.0, 0.0, 0.0, 0.0, 0.0, 0.0, 0.0, 1.677617681142385E9, 0.0, 2023-02-28 15:54:41.142
140.0, 3523.059609301044, -187500.02235174447, -187500.02235174447, -187500.02235174447, -187500.02235174447, -187500.02235174447, -187500.02235174447, -187500.02235174447, 0.178, -0.024, 0.996, 192.0, 0.0, 0.0, 0.0, 0.0, 0.0, 0.0, 0.0, 0.0, 0.0, 1.677617681142399E9, 0.0, 2023-02-28 15:54:41.142
141.0, 4336.484293518579, -187500.02235174447, -187500.02235174447, -187500.02235174447, -187500.02235174447, -187500.02235174447, -187500.02235174447, -187500.02235174447, 0.178, -0.024, 0.996, 192.0, 0.0, 0.0, 0.0, 0.0, 0.0, 0.0, 0.0, 0.0, 0.0, 1.677617681150408E9, 0.0, 2023-02-28 15:54:41.150
142.0, 3869.556351847214, -187500.02235174447, -187500.02235174447, -187500.02235174447, -187500.02235174447, -187500.02235174447, -187500.02235174447, -187500.02235174447, 0.178, -0.024, 0.996, 192.0, 0.0, 0.0, 0.0, 0.0, 0.0, 0.0, 0.0, 0.0, 0.0, 1.677617681150425E9, 0.0, 2023-02-28 15:54:41.150
143.0, 2703.063512213649, -187500.02235174447, -187500.02235174447, -187500.02235174447, -187500.02235174447, -187500.02235174447, -187500.02235174447, -187500.02235174447, 0.178, -0.024, 0.996, 192.0, 0.0, 0.0, 0.0, 0.0, 0.0, 0.0, 0.0, 0.0, 0.0, 1.67761768115842E9, 0.0, 2023-02-28 15:54:41.158
144.0, 3221.9592597436026, -187500.02235174447, -187500.02235174447, -187500.02235174447, -187500.02235174447, -187500.02235174447, -187500.02235174447, -187500.02235174447, 0.178, -0.024, 0.996, 192.0, 0.0, 0.0, 0.0, 0.0, 0.0, 0.0, 0.0, 0.0, 0.0, 1.677617681158442E9, 0.0, 2023-02-28 15:54:41.158
145.0, 4106.641305284656, -187500.02235174447, -187500.02235174447, -187500.02235174447, -187500.02235174447, -187500.02235174447, -187500.02235174447, -187500.02235174447, 0.178, -0.02, 1.002, 192.0, 5.0, 144.0, 255.0, 96.0, 31.0, 80.0, 0.0, 0.0, 0.0, 1.677617681165055E9, 0.0, 2023-02-28 15:54:41.165
146.0, 3771.946283810888, -187500.02235174447, -187500.02235174447, -187500.02235174447, -187500.02235174447, -187500.02235174447, -187500.02235174447, -187500.02235174447, 0.178, -0.02, 1.002, 192.0, 0.0, 0.0, 0.0, 0.0, 0.0, 0.0, 0.0, 0.0, 0.0, 1.677617681165131E9, 0.0, 2023-02-28 15:54:41.165
147.0, 2601.5642406421, -187500.02235174447, -187500.02235174447, -187500.02235174447, -187500.02235174447, -187500.02235174447, -187500.02235174447, -187500.02235174447, 0.178, -0.02, 1.002, 192.0, 0.0, 0.0, 0.0, 0.0, 0.0, 0.0, 0.0, 0.0, 0.0, 1.677617681173015E9, 0.0, 2023-02-28 15:54:41.173
148.0, 3103.718531575028, -187500.02235174447, -187500.02235174447, -187500.02235174447, -187500.02235174447, -187500.02235174447, -187500.02235174447, -187500.02235174447, 0.178, -0.02, 1.002, 192.0, 0.0, 0.0, 0.0, 0.0, 0.0, 0.0, 0.0, 0.0, 0.0, 1.677617681173027E9, 0.0, 2023-02-28 15:54:41.173
149.0, 4082.1437933616394, -187500.02235174447, -187500.02235174447, -187500.02235174447, -187500.02235174447, -187500.02235174447, -187500.02235174447, -187500.02235174447, 0.178, -0.02, 1.002, 192.0, 0.0, 0.0, 0.0, 0.0, 0.0, 0.0, 0.0, 0.0, 0.0, 1.677617681181097E9, 0.0, 2023-02-28 15:54:41.181
150.0, 3776.8413158466, -187500.02235174447, -187500.02235174447, -187500.02235174447, -187500.02235174447, -187500.02235174447, -187500.02235174447, -187500.02235174447, 0.178, -0.02, 1.002, 192.0, 0.0, 0.0, 0.0, 0.0, 0.0, 0.0, 0.0, 0.0, 0.0, 1.677617681181123E9, 0.0, 2023-02-28 15:54:41.181
151.0, 2848.5286651287875, -187500.02235174447, -187500.02235174447, -187500.02235174447, -187500.02235174447, -187500.02235174447, -187500.02235174447, -187500.02235174447, 0.178, -0.02, 1.002, 192.0, 0.0, 0.0, 0.0, 0.0, 0.0, 0.0, 0.0, 0.0, 0.0, 1.677617681187629E9, 0.0, 2023-02-28 15:54:41.187
152.0, 3117.375447437221, -187500.02235174447, -187500.02235174447, -187500.02235174447, -187500.02235174447, -187500.02235174447, -187500.02235174447, -187500.02235174447, 0.178, -0.02, 1.002, 192.0, 0.0, 0.0, 0.0, 0.0, 0.0, 0.0, 0.0, 0.0, 0.0, 1.677617681187652E9, 0.0, 2023-02-28 15:54:41.187
153.0, 4162.6994803785665, -187500.02235174447, -187500.02235174447, -187500.02235174447, -187500.02235174447, -187500.02235174447, -187500.02235174447, -187500.02235174447, 0.178, -0.02, 1.002, 192.0, 0.0, 0.0, 0.0, 0.0, 0.0, 0.0, 0.0, 0.0, 0.0, 1.677617681194792E9, 0.0, 2023-02-28 15:54:41.194
154.0, 3938.958518380942, -187500.02235174447, -187500.02235174447, -187500.02235174447, -187500.02235174447, -187500.02235174447, -187500.02235174447, -187500.02235174447, 0.178, -0.02, 1.002, 192.0, 0.0, 0.0, 0.0, 0.0, 0.0, 0.0, 0.0, 0.0, 0.0, 1.677617681194804E9, 0.0, 2023-02-28 15:54:41.194
155.0, 2965.249474674401, -187500.02235174447, -187500.02235174447, -187500.02235174447, -187500.02235174447, -187500.02235174447, -187500.02235174447, -187500.02235174447, 0.176, -0.018000000000000002, 0.996, 192.0, 5.0, 128.0, 255.0, 112.0, 31.0, 32.0, 0.0, 0.0, 0.0, 1.677617681202703E9, 0.0, 2023-02-28 15:54:41.202
156.0, 2981.253323704401, -187500.02235174447, -187500.02235174447, -187500.02235174447, -187500.02235174447, -187500.02235174447, -187500.02235174447, -187500.02235174447, 0.176, -0.018000000000000002, 0.996, 192.0, 0.0, 0.0, 0.0, 0.0, 0.0, 0.0, 0.0, 0.0, 0.0, 1.677617681210655E9, 0.0, 2023-02-28 15:54:41.210
157.0, 3752.4779143903156, -187500.02235174447, -187500.02235174447, -187500.02235174447, -187500.02235174447, -187500.02235174447, -187500.02235174447, -187500.02235174447, 0.176, -0.018000000000000002, 0.996, 192.0, 0.0, 0.0, 0.0, 0.0, 0.0, 0.0, 0.0, 0.0, 0.0, 1.677617681210675E9, 0.0, 2023-02-28 15:54:41.210
158.0, 3951.6319574871013, -187500.02235174447, -187500.02235174447, -187500.02235174447, -187500.02235174447, -187500.02235174447, -187500.02235174447, -187500.02235174447, 0.176, -0.018000000000000002, 0.996, 192.0, 0.0, 0.0, 0.0, 0.0, 0.0, 0.0, 0.0, 0.0, 0.0, 1.677617681217299E9, 0.0, 2023-02-28 15:54:41.217
159.0, 3112.9945055239805, -187500.02235174447, -187500.02235174447, -187500.02235174447, -187500.02235174447, -187500.02235174447, -187500.02235174447, -187500.02235174447, 0.176, -0.018000000000000002, 0.996, 192.0, 0.0, 0.0, 0.0, 0.0, 0.0, 0.0, 0.0, 0.0, 0.0, 1.67761768121733E9, 0.0, 2023-02-28 15:54:41.217
160.0, 2845.5782348606867, -187500.02235174447, -187500.02235174447, -187500.02235174447, -187500.02235174447, -187500.02235174447, -187500.02235174447, -187500.02235174447, 0.176, -0.018000000000000002, 0.996, 192.0, 0.0, 0.0, 0.0, 0.0, 0.0, 0.0, 0.0, 0.0, 0.0, 1.677617681225185E9, 0.0, 2023-02-28 15:54:41.225
161.0, 3761.2621499612515, -187500.02235174447, -187500.02235174447, -187500.02235174447, -187500.02235174447, -187500.02235174447, -187500.02235174447, -187500.02235174447, 0.176, -0.018000000000000002, 0.996, 192.0, 0.0, 0.0, 0.0, 0.0, 0.0, 0.0, 0.0, 0.0, 0.0, 1.677617681225202E9, 0.0, 2023-02-28 15:54:41.225
162.0, 4253.402859378202, -187500.02235174447, -187500.02235174447, -187500.02235174447, -187500.02235174447, -187500.02235174447, -187500.02235174447, -187500.02235174447, 0.176, -0.018000000000000002, 0.996, 192.0, 0.0, 0.0, 0.0, 0.0, 0.0, 0.0, 0.0, 0.0, 0.0, 1.677617681233242E9, 0.0, 2023-02-28 15:54:41.233
163.0, 3414.9442213707234, -187500.02235174447, -187500.02235174447, -187500.02235174447, -187500.02235174447, -187500.02235174447, -187500.02235174447, -187500.02235174447, 0.176, -0.018000000000000002, 0.996, 192.0, 0.0, 0.0, 0.0, 0.0, 0.0, 0.0, 0.0, 0.0, 0.0, 1.67761768123326E9, 0.0, 2023-02-28 15:54:41.233
164.0, 2764.8213821436625, -187500.02235174447, -187500.02235174447, -187500.02235174447, -187500.02235174447, -187500.02235174447, -187500.02235174447, -187500.02235174447, 0.176, -0.018000000000000002, 0.996, 192.0, 0.0, 0.0, 0.0, 0.0, 0.0, 0.0, 0.0, 0.0, 0.0, 1.677617681240322E9, 0.0, 2023-02-28 15:54:41.240
165.0, 3649.7045933848135, -187500.02235174447, -187500.02235174447, -187500.02235174447, -187500.02235174447, -187500.02235174447, -187500.02235174447, -187500.02235174447, 0.17200000000000001, -0.022, 0.994, 192.0, 5.0, 96.0, 255.0, 80.0, 31.0, 16.0, 0.0, 0.0, 0.0, 1.677617681240338E9, 0.0, 2023-02-28 15:54:41.240
166.0, 4035.003964305397, -187500.02235174447, -187500.02235174447, -187500.02235174447, -187500.02235174447, -187500.02235174447, -187500.02235174447, -187500.02235174447, 0.17200000000000001, -0.022, 0.994, 192.0, 0.0, 0.0, 0.0, 0.0, 0.0, 0.0, 0.0, 0.0, 0.0, 1.677617681247893E9, 0.0, 2023-02-28 15:54:41.247
167.0, 3368.385537670319, -187500.02235174447, -187500.02235174447, -187500.02235174447, -187500.02235174447, -187500.02235174447, -187500.02235174447, -187500.02235174447, 0.17200000000000001, -0.022, 0.994, 192.0, 0.0, 0.0, 0.0, 0.0, 0.0, 0.0, 0.0, 0.0, 0.0, 1.677617681247913E9, 0.0, 2023-02-28 15:54:41.247
168.0, 2773.516210736777, -187500.02235174447, -187500.02235174447, -187500.02235174447, -187500.02235174447, -187500.02235174447, -187500.02235174447, -187500.02235174447, 0.17200000000000001, -0.022, 0.994, 192.0, 0.0, 0.0, 0.0, 0.0, 0.0, 0.0, 0.0, 0.0, 0.0, 1.67761768125588E9, 0.0, 2023-02-28 15:54:41.255
169.0, 3408.9092503677907, -187500.02235174447, -187500.02235174447, -187500.02235174447, -187500.02235174447, -187500.02235174447, -187500.02235174447, -187500.02235174447, 0.17200000000000001, -0.022, 0.994, 192.0, 0.0, 0.0, 0.0, 0.0, 0.0, 0.0, 0.0, 0.0, 0.0, 1.6776176812559E9, 0.0, 2023-02-28 15:54:41.255
170.0, 4094.996046423441, -187500.02235174447, -187500.02235174447, -187500.02235174447, -187500.02235174447, -187500.02235174447, -187500.02235174447, -187500.02235174447, 0.17200000000000001, -0.022, 0.994, 192.0, 0.0, 0.0, 0.0, 0.0, 0.0, 0.0, 0.0, 0.0, 0.0, 1.677617681262839E9, 0.0, 2023-02-28 15:54:41.262
171.0, 3614.4558923787945, -187500.02235174447, -187500.02235174447, -187500.02235174447, -187500.02235174447, -187500.02235174447, -187500.02235174447, -187500.02235174447, 0.17200000000000001, -0.022, 0.994, 192.0, 0.0, 0.0, 0.0, 0.0, 0.0, 0.0, 0.0, 0.0, 0.0, 1.677617681270112E9, 0.0, 2023-02-28 15:54:41.270
172.0, 2754.4948762053104, -187500.02235174447, -187500.02235174447, -187500.02235174447, -187500.02235174447, -187500.02235174447, -187500.02235174447, -187500.02235174447, 0.17200000000000001, -0.022, 0.994, 192.0, 0.0, 0.0, 0.0, 0.0, 0.0, 0.0, 0.0, 0.0, 0.0, 1.677617681270188E9, 0.0, 2023-02-28 15:54:41.270
173.0, 3193.7737099854603, -187500.02235174447, -187500.02235174447, -187500.02235174447, -187500.02235174447, -187500.02235174447, -187500.02235174447, -187500.02235174447, 0.17200000000000001, -0.022, 0.994, 192.0, 0.0, 0.0, 0.0, 0.0, 0.0, 0.0, 0.0, 0.0, 0.0, 1.677617681277506E9, 0.0, 2023-02-28 15:54:41.277
174.0, 4039.1390370296285, -187500.02235174447, -187500.02235174447, -187500.02235174447, -187500.02235174447, -187500.02235174447, -187500.02235174447, -187500.02235174447, 0.17, -0.018000000000000002, 0.996, 192.0, 5.0, 80.0, 255.0, 112.0, 31.0, 32.0, 0.0, 0.0, 0.0, 1.677617681277522E9, 0.0, 2023-02-28 15:54:41.277
175.0, 3790.3864729865163, -187500.02235174447, -187500.02235174447, -187500.02235174447, -187500.02235174447, -187500.02235174447, -187500.02235174447, -187500.02235174447, 0.17, -0.018000000000000002, 0.996, 192.0, 0.0, 0.0, 0.0, 0.0, 0.0, 0.0, 0.0, 0.0, 0.0, 1.677617681285573E9, 0.0, 2023-02-28 15:54:41.285
176.0, 2885.699616157963, -187500.02235174447, -187500.02235174447, -187500.02235174447, -187500.02235174447, -187500.02235174447, -187500.02235174447, -187500.02235174447, 0.17, -0.018000000000000002, 0.996, 192.0, 0.0, 0.0, 0.0, 0.0, 0.0, 0.0, 0.0, 0.0, 0.0, 1.677617681285598E9, 0.0, 2023-02-28 15:54:41.285
177.0, 3084.6077900657406, -187500.02235174447, -187500.02235174447, -187500.02235174447, -187500.02235174447, -187500.02235174447, -187500.02235174447, -187500.02235174447, 0.17, -0.018000000000000002, 0.996, 192.0, 0.0, 0.0, 0.0, 0.0, 0.0, 0.0, 0.0, 0.0, 0.0, 1.677617681293612E9, 0.0, 2023-02-28 15:54:41.293
178.0, 3969.6698152625345, -187500.02235174447, -187500.02235174447, -187500.02235174447, -187500.02235174447, -187500.02235174447, -187500.02235174447, -187500.02235174447, 0.17, -0.018000000000000002, 0.996, 192.0, 0.0, 0.0, 0.0, 0.0, 0.0, 0.0, 0.0, 0.0, 0.0, 1.677617681293636E9, 0.0, 2023-02-28 15:54:41.293
179.0, 3900.178241750985, -187500.02235174447, -187500.02235174447, -187500.02235174447, -187500.02235174447, -187500.02235174447, -187500.02235174447, -187500.02235174447, 0.17, -0.018000000000000002, 0.996, 192.0, 0.0, 0.0, 0.0, 0.0, 0.0, 0.0, 0.0, 0.0, 0.0, 1.677617681300115E9, 0.0, 2023-02-28 15:54:41.300
180.0, 3000.3864169581434, -187500.02235174447, -187500.02235174447, -187500.02235174447, -187500.02235174447, -187500.02235174447, -187500.02235174447, -187500.02235174447, 0.17, -0.018000000000000002, 0.996, 192.0, 0.0, 0.0, 0.0, 0.0, 0.0, 0.0, 0.0, 0.0, 0.0, 1.67761768130013E9, 0.0, 2023-02-28 15:54:41.300
181.0, 2920.9706689084373, -187500.02235174447, -187500.02235174447, -187500.02235174447, -187500.02235174447, -187500.02235174447, -187500.02235174447, -187500.02235174447, 0.17, -0.018000000000000002, 0.996, 192.0, 0.0, 0.0, 0.0, 0.0, 0.0, 0.0, 0.0, 0.0, 0.0, 1.677617681308225E9, 0.0, 2023-02-28 15:54:41.308
182.0, 3786.0278828177316, -187500.02235174447, -187500.02235174447, -187500.02235174447, -187500.02235174447, -187500.02235174447, -187500.02235174447, -187500.02235174447, 0.17, -0.018000000000000002, 0.996, 192.0, 0.0, 0.0, 0.0, 0.0, 0.0, 0.0, 0.0, 0.0, 0.0, 1.677617681308242E9, 0.0, 2023-02-28 15:54:41.308
183.0, 4058.13801981664, -187500.02235174447, -187500.02235174447, -187500.02235174447, -187500.02235174447, -187500.02235174447, -187500.02235174447, -187500.02235174447, 0.17, -0.018000000000000002, 0.996, 192.0, 0.0, 0.0, 0.0, 0.0, 0.0, 0.0, 0.0, 0.0, 0.0, 1.677617681316271E9, 0.0, 2023-02-28 15:54:41.316
184.0, 3179.625055745251, -187500.02235174447, -187500.02235174447, -187500.02235174447, -187500.02235174447, -187500.02235174447, -187500.02235174447, -187500.02235174447, 0.17400000000000002, -0.02, 0.992, 192.0, 5.0, 112.0, 255.0, 96.0, 31.0, 0.0, 0.0, 0.0, 0.0, 1.677617681316293E9, 0.0, 2023-02-28 15:54:41.316
185.0, 2894.059168584248, -187500.02235174447, -187500.02235174447, -187500.02235174447, -187500.02235174447, -187500.02235174447, -187500.02235174447, -187500.02235174447, 0.17400000000000002, -0.02, 0.992, 192.0, 0.0, 0.0, 0.0, 0.0, 0.0, 0.0, 0.0, 0.0, 0.0, 1.677617681323429E9, 0.0, 2023-02-28 15:54:41.323
186.0, 3868.751689046823, -187500.02235174447, -187500.02235174447, -187500.02235174447, -187500.02235174447, -187500.02235174447, -187500.02235174447, -187500.02235174447, 0.17400000000000002, -0.02, 0.992, 192.0, 0.0, 0.0, 0.0, 0.0, 0.0, 0.0, 0.0, 0.0, 0.0, 1.677617681329855E9, 0.0, 2023-02-28 15:54:41.329
187.0, 4203.3796552872245, -187500.02235174447, -187500.02235174447, -187500.02235174447, -187500.02235174447, -187500.02235174447, -187500.02235174447, -187500.02235174447, 0.17400000000000002, -0.02, 0.992, 192.0, 0.0, 0.0, 0.0, 0.0, 0.0, 0.0, 0.0, 0.0, 0.0, 1.677617681329878E9, 0.0, 2023-02-28 15:54:41.329
188.0, 3120.080008516313, -187500.02235174447, -187500.02235174447, -187500.02235174447, -187500.02235174447, -187500.02235174447, -187500.02235174447, -187500.02235174447, 0.17400000000000002, -0.02, 0.992, 192.0, 0.0, 0.0, 0.0, 0.0, 0.0, 0.0, 0.0, 0.0, 0.0, 1.677617681337779E9, 0.0, 2023-02-28 15:54:41.337
189.0, 2659.164686103426, -187500.02235174447, -187500.02235174447, -187500.02235174447, -187500.02235174447, -187500.02235174447, -187500.02235174447, -187500.02235174447, 0.17400000000000002, -0.02, 0.992, 192.0, 0.0, 0.0, 0.0, 0.0, 0.0, 0.0, 0.0, 0.0, 0.0, 1.677617681337801E9, 0.0, 2023-02-28 15:54:41.337
190.0, 3435.3290123139636, -187500.02235174447, -187500.02235174447, -187500.02235174447, -187500.02235174447, -187500.02235174447, -187500.02235174447, -187500.02235174447, 0.17400000000000002, -0.02, 0.992, 192.0, 0.0, 0.0, 0.0, 0.0, 0.0, 0.0, 0.0, 0.0, 0.0, 1.677617681345867E9, 0.0, 2023-02-28 15:54:41.345
191.0, 4219.808187461876, -187500.02235174447, -187500.02235174447, -187500.02235174447, -187500.02235174447, -187500.02235174447, -187500.02235174447, -187500.02235174447, 0.17400000000000002, -0.02, 0.992, 192.0, 0.0, 0.0, 0.0, 0.0, 0.0, 0.0, 0.0, 0.0, 0.0, 1.67761768134588E9, 0.0, 2023-02-28 15:54:41.345
192.0, 3495.83518455448, -187500.02235174447, -187500.02235174447, -187500.02235174447, -187500.02235174447, -187500.02235174447, -187500.02235174447, -187500.02235174447, 0.17400000000000002, -0.02, 0.992, 192.0, 0.0, 0.0, 0.0, 0.0, 0.0, 0.0, 0.0, 0.0, 0.0, 1.677617681352478E9, 0.0, 2023-02-28 15:54:41.352
193.0, 2673.1121746435374, -187500.02235174447, -187500.02235174447, -187500.02235174447, -187500.02235174447, -187500.02235174447, -187500.02235174447, -187500.02235174447, 0.17400000000000002, -0.02, 0.992, 192.0, 0.0, 0.0, 0.0, 0.0, 0.0, 0.0, 0.0, 0.0, 0.0, 1.677617681352494E9, 0.0, 2023-02-28 15:54:41.352
194.0, 3317.423560312219, -187500.02235174447, -187500.02235174447, -187500.02235174447, -187500.02235174447, -187500.02235174447, -187500.02235174447, -187500.02235174447, 0.176, -0.022, 0.99, 192.0, 5.0, 128.0, 255.0, 80.0, 30.0, 240.0, 0.0, 0.0, 0.0, 1.677617681360519E9, 0.0, 2023-02-28 15:54:41.360
195.0, 4089.005778909419, -187500.02235174447, -187500.02235174447, -187500.02235174447, -187500.02235174447, -187500.02235174447, -187500.02235174447, -187500.02235174447, 0.176, -0.022, 0.99, 192.0, 0.0, 0.0, 0.0, 0.0, 0.0, 0.0, 0.0, 0.0, 0.0, 1.677617681360546E9, 0.0, 2023-02-28 15:54:41.360
196.0, 3738.1951496833744, -187500.02235174447, -187500.02235174447, -187500.02235174447, -187500.02235174447, -187500.02235174447, -187500.02235174447, -187500.02235174447, 0.176, -0.022, 0.99, 192.0, 0.0, 0.0, 0.0, 0.0, 0.0, 0.0, 0.0, 0.0, 0.0, 1.677617681368543E9, 0.0, 2023-02-28 15:54:41.368
197.0, 2769.5599519681873, -187500.02235174447, -187500.02235174447, -187500.02235174447, -187500.02235174447, -187500.02235174447, -187500.02235174447, -187500.02235174447, 0.176, -0.022, 0.99, 192.0, 0.0, 0.0, 0.0, 0.0, 0.0, 0.0, 0.0, 0.0, 0.0, 1.677617681368555E9, 0.0, 2023-02-28 15:54:41.368
198.0, 3160.938997380614, -187500.02235174447, -187500.02235174447, -187500.02235174447, -187500.02235174447, -187500.02235174447, -187500.02235174447, -187500.02235174447, 0.176, -0.022, 0.99, 192.0, 0.0, 0.0, 0.0, 0.0, 0.0, 0.0, 0.0, 0.0, 0.0, 1.677617681375743E9, 0.0, 2023-02-28 15:54:41.375
199.0, 4230.581728289334, -187500.02235174447, -187500.02235174447, -187500.02235174447, -187500.02235174447, -187500.02235174447, -187500.02235174447, -187500.02235174447, 0.176, -0.022, 0.99, 192.0, 0.0, 0.0, 0.0, 0.0, 0.0, 0.0, 0.0, 0.0, 0.0, 1.677617681375771E9, 0.0, 2023-02-28 15:54:41.375
200.0, 3810.8606709075775, -187500.02235174447, -187500.02235174447, -187500.02235174447, -187500.02235174447, -187500.02235174447, -187500.02235174447, -187500.02235174447, 0.176, -0.022, 0.99, 192.0, 0.0, 0.0, 0.0, 0.0, 0.0, 0.0, 0.0, 0.0, 0.0, 1.677617681381985E9, 0.0, 2023-02-28 15:54:41.381
201.0, 2760.5298472082436, -187500.02235174447, -187500.02235174447, -187500.02235174447, -187500.02235174447, -187500.02235174447, -187500.02235174447, -187500.02235174447, 0.176, -0.022, 0.99, 192.0, 0.0, 0.0, 0.0, 0.0, 0.0, 0.0, 0.0, 0.0, 0.0, 1.677617681390095E9, 0.0, 2023-02-28 15:54:41.390
202.0, 2906.151462334569, -187500.02235174447, -187500.02235174447, -187500.02235174447, -187500.02235174447, -187500.02235174447, -187500.02235174447, -187500.02235174447, 0.176, -0.022, 0.99, 192.0, 0.0, 0.0, 0.0, 0.0, 0.0, 0.0, 0.0, 0.0, 0.0, 1.67761768139011E9, 0.0, 2023-02-28 15:54:41.390
203.0, 3838.4650753098817, -187500.02235174447, -187500.02235174447, -187500.02235174447, -187500.02235174447, -187500.02235174447, -187500.02235174447, -187500.02235174447, 0.176, -0.022, 0.99, 192.0, 0.0, 0.0, 0.0, 0.0, 0.0, 0.0, 0.0, 0.0, 0.0, 1.677617681398227E9, 0.0, 2023-02-28 15:54:41.398
204.0, 3890.72345384639, -187500.02235174447, -187500.02235174447, -187500.02235174447, -187500.02235174447, -187500.02235174447, -187500.02235174447, -187500.02235174447, 0.178, -0.024, 0.994, 192.0, 5.0, 144.0, 255.0, 64.0, 31.0, 16.0, 0.0, 0.0, 0.0, 1.677617681398246E9, 0.0, 2023-02-28 15:54:41.398
205.0, 2981.990931271426, -187500.02235174447, -187500.02235174447, -187500.02235174447, -187500.02235174447, -187500.02235174447, -187500.02235174447, -187500.02235174447, 0.178, -0.024, 0.994, 192.0, 0.0, 0.0, 0.0, 0.0, 0.0, 0.0, 0.0, 0.0, 0.0, 1.677617681405283E9, 0.0, 2023-02-28 15:54:41.405
206.0, 2958.9462827380044, -187500.02235174447, -187500.02235174447, -187500.02235174447, -187500.02235174447, -187500.02235174447, -187500.02235174447, -187500.02235174447, 0.178, -0.024, 0.994, 192.0, 0.0, 0.0, 0.0, 0.0, 0.0, 0.0, 0.0, 0.0, 0.0, 1.677617681405304E9, 0.0, 2023-02-28 15:54:41.405
207.0, 3796.354388756083, -187500.02235174447, -187500.02235174447, -187500.02235174447, -187500.02235174447, -187500.02235174447, -187500.02235174447, -187500.02235174447, 0.178, -0.024, 0.994, 192.0, 0.0, 0.0, 0.0, 0.0, 0.0, 0.0, 0.0, 0.0, 0.0, 1.677617681412775E9, 0.0, 2023-02-28 15:54:41.412
208.0, 3954.4706290329254, -187500.02235174447, -187500.02235174447, -187500.02235174447, -187500.02235174447, -187500.02235174447, -187500.02235174447, -187500.02235174447, 0.178, -0.024, 0.994, 192.0, 0.0, 0.0, 0.0, 0.0, 0.0, 0.0, 0.0, 0.0, 0.0, 1.677617681412798E9, 0.0, 2023-02-28 15:54:41.412
209.0, 3074.3259876162992, -187500.02235174447, -187500.02235174447, -187500.02235174447, -187500.02235174447, -187500.02235174447, -187500.02235174447, -187500.02235174447, 0.178, -0.024, 0.994, 192.0, 0.0, 0.0, 0.0, 0.0, 0.0, 0.0, 0.0, 0.0, 0.0, 1.677617681420837E9, 0.0, 2023-02-28 15:54:41.420
210.0, 2759.814591385674, -187500.02235174447, -187500.02235174447, -187500.02235174447, -187500.02235174447, -187500.02235174447, -187500.02235174447, -187500.02235174447, 0.178, -0.024, 0.994, 192.0, 0.0, 0.0, 0.0, 0.0, 0.0, 0.0, 0.0, 0.0, 0.0, 1.677617681420859E9, 0.0, 2023-02-28 15:54:41.420
211.0, 3705.4498440563493, -187500.02235174447, -187500.02235174447, -187500.02235174447, -187500.02235174447, -187500.02235174447, -187500.02235174447, -187500.02235174447, 0.178, -0.024, 0.994, 192.0, 0.0, 0.0, 0.0, 0.0, 0.0, 0.0, 0.0, 0.0, 0.0, 1.677617681429669E9, 0.0, 2023-02-28 15:54:41.429
212.0, 4242.629318550744, -187500.02235174447, -187500.02235174447, -187500.02235174447, -187500.02235174447, -187500.02235174447, -187500.02235174447, -187500.02235174447, 0.178, -0.024, 0.994, 192.0, 0.0, 0.0, 0.0, 0.0, 0.0, 0.0, 0.0, 0.0, 0.0, 1.677617681429685E9, 0.0, 2023-02-28 15:54:41.429
213.0, 3034.4504755080316, -187500.02235174447, -187500.02235174447, -187500.02235174447, -187500.02235174447, -187500.02235174447, -187500.02235174447, -187500.02235174447, 0.178, -0.024, 0.994, 192.0, 0.0, 0.0, 0.0, 0.0, 0.0, 0.0, 0.0, 0.0, 0.0, 1.677617681435593E9, 0.0, 2023-02-28 15:54:41.435
214.0, 2565.0191384576724, -187500.02235174447, -187500.02235174447, -187500.02235174447, -187500.02235174447, -187500.02235174447, -187500.02235174447, -187500.02235174447, 0.176, -0.022, 0.996, 192.0, 5.0, 128.0, 255.0, 80.0, 31.0, 32.0, 0.0, 0.0, 0.0, 1.67761768143561E9, 0.0, 2023-02-28 15:54:41.435
215.0, 3587.589095543515, -187500.02235174447, -187500.02235174447, -187500.02235174447, -187500.02235174447, -187500.02235174447, -187500.02235174447, -187500.02235174447, 0.176, -0.022, 0.996, 192.0, 0.0, 0.0, 0.0, 0.0, 0.0, 0.0, 0.0, 0.0, 0.0, 1.677617681442475E9, 0.0, 2023-02-28 15:54:41.442
216.0, 4079.1486596046284, -187500.02235174447, -187500.02235174447, -187500.02235174447, -187500.02235174447, -187500.02235174447, -187500.02235174447, -187500.02235174447, 0.176, -0.022, 0.996, 192.0, 0.0, 0.0, 0.0, 0.0, 0.0, 0.0, 0.0, 0.0, 0.0, 1.677617681442532E9, 0.0, 2023-02-28 15:54:41.442
217.0, 3522.79138836758, -187500.02235174447, -187500.02235174447, -187500.02235174447, -187500.02235174447, -187500.02235174447, -187500.02235174447, -187500.02235174447, 0.176, -0.022, 0.996, 192.0, 0.0, 0.0, 0.0, 0.0, 0.0, 0.0, 0.0, 0.0, 0.0, 1.677617681450699E9, 0.0, 2023-02-28 15:54:41.450
218.0, 2746.090620290115, -187500.02235174447, -187500.02235174447, -187500.02235174447, -187500.02235174447, -187500.02235174447, -187500.02235174447, -187500.02235174447, 0.176, -0.022, 0.996, 192.0, 0.0, 0.0, 0.0, 0.0, 0.0, 0.0, 0.0, 0.0, 0.0, 1.677617681458487E9, 0.0, 2023-02-28 15:54:41.458
219.0, 3285.259400041032, -187500.02235174447, -187500.02235174447, -187500.02235174447, -187500.02235174447, -187500.02235174447, -187500.02235174447, -187500.02235174447, 0.176, -0.022, 0.996, 192.0, 0.0, 0.0, 0.0, 0.0, 0.0, 0.0, 0.0, 0.0, 0.0, 1.67761768145851E9, 0.0, 2023-02-28 15:54:41.458
220.0, 4049.7561156458996, -187500.02235174447, -187500.02235174447, -187500.02235174447, -187500.02235174447, -187500.02235174447, -187500.02235174447, -187500.02235174447, 0.176, -0.022, 0.996, 192.0, 0.0, 0.0, 0.0, 0.0, 0.0, 0.0, 0.0, 0.0, 0.0, 1.677617681465121E9, 0.0, 2023-02-28 15:54:41.465
221.0, 3715.217556383319, -187500.02235174447, -187500.02235174447, -187500.02235174447, -187500.02235174447, -187500.02235174447, -187500.02235174447, -187500.02235174447, 0.176, -0.022, 0.996, 192.0, 0.0, 0.0, 0.0, 0.0, 0.0, 0.0, 0.0, 0.0, 0.0, 1.677617681465147E9, 0.0, 2023-02-28 15:54:41.465
222.0, 2866.90179907105, -187500.02235174447, -187500.02235174447, -187500.02235174447, -187500.02235174447, -187500.02235174447, -187500.02235174447, -187500.02235174447, 0.176, -0.022, 0.996, 192.0, 0.0, 0.0, 0.0, 0.0, 0.0, 0.0, 0.0, 0.0, 0.0, 1.677617681473022E9, 0.0, 2023-02-28 15:54:41.473
223.0, 3142.6999739050834, -187500.02235174447, -187500.02235174447, -187500.02235174447, -187500.02235174447, -187500.02235174447, -187500.02235174447, -187500.02235174447, 0.176, -0.022, 0.996, 192.0, 0.0, 0.0, 0.0, 0.0, 0.0, 0.0, 0.0, 0.0, 0.0, 1.677617681473043E9, 0.0, 2023-02-28 15:54:41.473
224.0, 4269.362004919291, -187500.02235174447, -187500.02235174447, -187500.02235174447, -187500.02235174447, -187500.02235174447, -187500.02235174447, -187500.02235174447, 0.17, -0.02, 0.996, 192.0, 5.0, 80.0, 255.0, 96.0, 31.0, 32.0, 0.0, 0.0, 0.0, 1.677617681481113E9, 0.0, 2023-02-28 15:54:41.481
225.0, 3893.4056631810267, -187500.02235174447, -187500.02235174447, -187500.02235174447, -187500.02235174447, -187500.02235174447, -187500.02235174447, -187500.02235174447, 0.17, -0.02, 0.996, 192.0, 0.0, 0.0, 0.0, 0.0, 0.0, 0.0, 0.0, 0.0, 0.0, 1.677617681481127E9, 0.0, 2023-02-28 15:54:41.481
226.0, 2618.9538978283285, -187500.02235174447, -187500.02235174447, -187500.02235174447, -187500.02235174447, -187500.02235174447, -187500.02235174447, -187500.02235174447, 0.17, -0.02, 0.996, 192.0, 0.0, 0.0, 0.0, 0.0, 0.0, 0.0, 0.0, 0.0, 0.0, 1.677617681488121E9, 0.0, 2023-02-28 15:54:41.488
227.0, 2852.216702963913, -187500.02235174447, -187500.02235174447, -187500.02235174447, -187500.02235174447, -187500.02235174447, -187500.02235174447, -187500.02235174447, 0.17, -0.02, 0.996, 192.0, 0.0, 0.0, 0.0, 0.0, 0.0, 0.0, 0.0, 0.0, 0.0, 1.677617681488177E9, 0.0, 2023-02-28 15:54:41.488
228.0, 3866.0247762232757, -187500.02235174447, -187500.02235174447, -187500.02235174447, -187500.02235174447, -187500.02235174447, -187500.02235174447, -187500.02235174447, 0.17, -0.02, 0.996, 192.0, 0.0, 0.0, 0.0, 0.0, 0.0, 0.0, 0.0, 0.0, 0.0, 1.677617681495733E9, 0.0, 2023-02-28 15:54:41.495
229.0, 3893.4950701588477, -187500.02235174447, -187500.02235174447, -187500.02235174447, -187500.02235174447, -187500.02235174447, -187500.02235174447, -187500.02235174447, 0.17, -0.02, 0.996, 192.0, 0.0, 0.0, 0.0, 0.0, 0.0, 0.0, 0.0, 0.0, 0.0, 1.67761768149575E9, 0.0, 2023-02-28 15:54:41.495
230.0, 2986.148355740113, -187500.02235174447, -187500.02235174447, -187500.02235174447, -187500.02235174447, -187500.02235174447, -187500.02235174447, -187500.02235174447, 0.17, -0.02, 0.996, 192.0, 0.0, 0.0, 0.0, 0.0, 0.0, 0.0, 0.0, 0.0, 0.0, 1.677617681503736E9, 0.0, 2023-02-28 15:54:41.503
231.0, 2834.759990544318, -187500.02235174447, -187500.02235174447, -187500.02235174447, -187500.02235174447, -187500.02235174447, -187500.02235174447, -187500.02235174447, 0.17, -0.02, 0.996, 192.0, 0.0, 0.0, 0.0, 0.0, 0.0, 0.0, 0.0, 0.0, 0.0, 1.677617681503753E9, 0.0, 2023-02-28 15:54:41.503
232.0, 3778.5624001696588, -187500.02235174447, -187500.02235174447, -187500.02235174447, -187500.02235174447, -187500.02235174447, -187500.02235174447, -187500.02235174447, 0.17, -0.02, 0.996, 192.0, 0.0, 0.0, 0.0, 0.0, 0.0, 0.0, 0.0, 0.0, 0.0, 1.677617681510886E9, 0.0, 2023-02-28 15:54:41.510
233.0, 4089.117537631695, -187500.02235174447, -187500.02235174447, -187500.02235174447, -187500.02235174447, -187500.02235174447, -187500.02235174447, -187500.02235174447, 0.17200000000000001, -0.024, 0.992, 192.0, 5.0, 96.0, 255.0, 64.0, 31.0, 0.0, 0.0, 0.0, 0.0, 1.677617681517391E9, 0.0, 2023-02-28 15:54:41.517
234.0, 3191.717349495572, -187500.02235174447, -187500.02235174447, -187500.02235174447, -187500.02235174447, -187500.02235174447, -187500.02235174447, -187500.02235174447, 0.17200000000000001, -0.024, 0.992, 192.0, 0.0, 0.0, 0.0, 0.0, 0.0, 0.0, 0.0, 0.0, 0.0, 1.677617681517416E9, 0.0, 2023-02-28 15:54:41.517
235.0, 2926.178625366524, -187500.02235174447, -187500.02235174447, -187500.02235174447, -187500.02235174447, -187500.02235174447, -187500.02235174447, -187500.02235174447, 0.17200000000000001, -0.024, 0.992, 192.0, 0.0, 0.0, 0.0, 0.0, 0.0, 0.0, 0.0, 0.0, 0.0, 1.67761768152558E9, 0.0, 2023-02-28 15:54:41.525
236.0, 3686.7190822028024, -187500.02235174447, -187500.02235174447, -187500.02235174447, -187500.02235174447, -187500.02235174447, -187500.02235174447, -187500.02235174447, 0.17200000000000001, -0.024, 0.992, 192.0, 0.0, 0.0, 0.0, 0.0, 0.0, 0.0, 0.0, 0.0, 0.0, 1.677617681525598E9, 0.0, 2023-02-28 15:54:41.525
237.0, 4111.513985575913, -187500.02235174447, -187500.02235174447, -187500.02235174447, -187500.02235174447, -187500.02235174447, -187500.02235174447, -187500.02235174447, 0.17200000000000001, -0.024, 0.992, 192.0, 0.0, 0.0, 0.0, 0.0, 0.0, 0.0, 0.0, 0.0, 0.0, 1.677617681533439E9, 0.0, 2023-02-28 15:54:41.533
238.0, 3529.7204291487255, -187500.02235174447, -187500.02235174447, -187500.02235174447, -187500.02235174447, -187500.02235174447, -187500.02235174447, -187500.02235174447, 0.17200000000000001, -0.024, 0.992, 192.0, 0.0, 0.0, 0.0, 0.0, 0.0, 0.0, 0.0, 0.0, 0.0, 1.677617681533457E9, 0.0, 2023-02-28 15:54:41.533
239.0, 2630.554453200633, -187500.02235174447, -187500.02235174447, -187500.02235174447, -187500.02235174447, -187500.02235174447, -187500.02235174447, -187500.02235174447, 0.17200000000000001, -0.024, 0.992, 192.0, 0.0, 0.0, 0.0, 0.0, 0.0, 0.0, 0.0, 0.0, 0.0, 1.677617681540634E9, 0.0, 2023-02-28 15:54:41.540
240.0, 3268.450888210641, -187500.02235174447, -187500.02235174447, -187500.02235174447, -187500.02235174447, -187500.02235174447, -187500.02235174447, -187500.02235174447, 0.17200000000000001, -0.024, 0.992, 192.0, 0.0, 0.0, 0.0, 0.0, 0.0, 0.0, 0.0, 0.0, 0.0, 1.677617681540649E9, 0.0, 2023-02-28 15:54:41.540
241.0, 4050.7842958908436, -187500.02235174447, -187500.02235174447, -187500.02235174447, -187500.02235174447, -187500.02235174447, -187500.02235174447, -187500.02235174447, 0.17200000000000001, -0.024, 0.992, 192.0, 0.0, 0.0, 0.0, 0.0, 0.0, 0.0, 0.0, 0.0, 0.0, 1.677617681548025E9, 0.0, 2023-02-28 15:54:41.548
242.0, 3432.1774163457653, -187500.02235174447, -187500.02235174447, -187500.02235174447, -187500.02235174447, -187500.02235174447, -187500.02235174447, -187500.02235174447, 0.17200000000000001, -0.024, 0.992, 192.0, 0.0, 0.0, 0.0, 0.0, 0.0, 0.0, 0.0, 0.0, 0.0, 1.677617681548043E9, 0.0, 2023-02-28 15:54:41.548
243.0, 2708.4055791384676, -187500.02235174447, -187500.02235174447, -187500.02235174447, -187500.02235174447, -187500.02235174447, -187500.02235174447, -187500.02235174447, 0.17200000000000001, -0.02, 0.994, 192.0, 5.0, 96.0, 255.0, 96.0, 31.0, 16.0, 0.0, 0.0, 0.0, 1.677617681555992E9, 0.0, 2023-02-28 15:54:41.555
244.0, 3494.4940798871617, -187500.02235174447, -187500.02235174447, -187500.02235174447, -187500.02235174447, -187500.02235174447, -187500.02235174447, -187500.02235174447, 0.17200000000000001, -0.02, 0.994, 192.0, 0.0, 0.0, 0.0, 0.0, 0.0, 0.0, 0.0, 0.0, 0.0, 1.677617681556015E9, 0.0, 2023-02-28 15:54:41.556
245.0, 3997.1401091981065, -187500.02235174447, -187500.02235174447, -187500.02235174447, -187500.02235174447, -187500.02235174447, -187500.02235174447, -187500.02235174447, 0.17200000000000001, -0.02, 0.994, 192.0, 0.0, 0.0, 0.0, 0.0, 0.0, 0.0, 0.0, 0.0, 0.0, 1.677617681564037E9, 0.0, 2023-02-28 15:54:41.564
246.0, 3536.4930077186837, -187500.02235174447, -187500.02235174447, -187500.02235174447, -187500.02235174447, -187500.02235174447, -187500.02235174447, -187500.02235174447, 0.17200000000000001, -0.02, 0.994, 192.0, 0.0, 0.0, 0.0, 0.0, 0.0, 0.0, 0.0, 0.0, 0.0, 1.677617681564052E9, 0.0, 2023-02-28 15:54:41.564
247.0, 2743.251948744291, -187500.02235174447, -187500.02235174447, -187500.02235174447, -187500.02235174447, -187500.02235174447, -187500.02235174447, -187500.02235174447, 0.17200000000000001, -0.02, 0.994, 192.0, 0.0, 0.0, 0.0, 0.0, 0.0, 0.0, 0.0, 0.0, 0.0, 1.677617681570204E9, 0.0, 2023-02-28 15:54:41.570
248.0, 3229.8047220474155, -187500.02235174447, -187500.02235174447, -187500.02235174447, -187500.02235174447, -187500.02235174447, -187500.02235174447, -187500.02235174447, 0.17200000000000001, -0.02, 0.994, 192.0, 0.0, 0.0, 0.0, 0.0, 0.0, 0.0, 0.0, 0.0, 0.0, 1.677617681577685E9, 0.0, 2023-02-28 15:54:41.577
249.0, 4135.2291864429935, -187500.02235174447, -187500.02235174447, -187500.02235174447, -187500.02235174447, -187500.02235174447, -187500.02235174447, -187500.02235174447, 0.17200000000000001, -0.02, 0.994, 192.0, 0.0, 0.0, 0.0, 0.0, 0.0, 0.0, 0.0, 0.0, 0.0, 1.6776176815777E9, 0.0, 2023-02-28 15:54:41.577
250.0, 3781.1328507820194, -187500.02235174447, -187500.02235174447, -187500.02235174447, -187500.02235174447, -187500.02235174447, -187500.02235174447, -187500.02235174447, 0.17200000000000001, -0.02, 0.994, 192.0, 0.0, 0.0, 0.0, 0.0, 0.0, 0.0, 0.0, 0.0, 0.0, 1.677617681585648E9, 0.0, 2023-02-28 15:54:41.585
251.0, 2857.536418144276, -187500.02235174447, -187500.02235174447, -187500.02235174447, -187500.02235174447, -187500.02235174447, -187500.02235174447, -187500.02235174447, 0.17200000000000001, -0.02, 0.994, 192.0, 0.0, 0.0, 0.0, 0.0, 0.0, 0.0, 0.0, 0.0, 0.0, 1.677617681585661E9, 0.0, 2023-02-28 15:54:41.585
252.0, 2933.957032436971, -187500.02235174447, -187500.02235174447, -187500.02235174447, -187500.02235174447, -187500.02235174447, -187500.02235174447, -187500.02235174447, 0.17200000000000001, -0.02, 0.994, 192.0, 0.0, 0.0, 0.0, 0.0, 0.0, 0.0, 0.0, 0.0, 0.0, 1.677617681593775E9, 0.0, 2023-02-28 15:54:41.593
253.0, 3979.258713633861, -187500.02235174447, -187500.02235174447, -187500.02235174447, -187500.02235174447, -187500.02235174447, -187500.02235174447, -187500.02235174447, 0.17200000000000001, -0.022, 0.996, 192.0, 5.0, 96.0, 255.0, 80.0, 31.0, 32.0, 0.0, 0.0, 0.0, 1.677617681593789E9, 0.0, 2023-02-28 15:54:41.593
254.0, 3995.866059764154, -187500.02235174447, -187500.02235174447, -187500.02235174447, -187500.02235174447, -187500.02235174447, -187500.02235174447, -187500.02235174447, 0.17200000000000001, -0.022, 0.996, 192.0, 0.0, 0.0, 0.0, 0.0, 0.0, 0.0, 0.0, 0.0, 0.0, 1.677617681600243E9, 0.0, 2023-02-28 15:54:41.600
255.0, 3359.4895433771067, -187500.02235174447, -187500.02235174447, -187500.02235174447, -187500.02235174447, -187500.02235174447, -187500.02235174447, -187500.02235174447, 0.17200000000000001, -0.022, 0.996, 192.0, 0.0, 0.0, 0.0, 0.0, 0.0, 0.0, 0.0, 0.0, 0.0, 1.677617681600261E9, 0.0, 2023-02-28 15:54:41.600
0.0, 2818.0185339472932, -187500.02235174447, -187500.02235174447, -187500.02235174447, -187500.02235174447, -187500.02235174447, -187500.02235174447, -187500.02235174447, 0.17200000000000001, -0.022, 0.996, 192.0, 0.0, 0.0, 0.0, 0.0, 0.0, 0.0, 0.0, 0.0, 0.0, 1.677617681608313E9, 0.0, 2023-02-28 15:54:41.608
1.0, 3466.0403091955554, -187500.02235174447, -187500.02235174447, -187500.02235174447, -187500.02235174447, -187500.02235174447, -187500.02235174447, -187500.02235174447, 0.17200000000000001, -0.022, 0.996, 192.0, 0.0, 0.0, 0.0, 0.0, 0.0, 0.0, 0.0, 0.0, 0.0, 1.677617681608332E9, 0.0, 2023-02-28 15:54:41.608
2.0, 3937.103323591152, -187500.02235174447, -187500.02235174447, -187500.02235174447, -187500.02235174447, -187500.02235174447, -187500.02235174447, -187500.02235174447, 0.17200000000000001, -0.022, 0.996, 192.0, 0.0, 0.0, 0.0, 0.0, 0.0, 0.0, 0.0, 0.0, 0.0, 1.677617681616291E9, 0.0, 2023-02-28 15:54:41.616
3.0, 3097.4823948719973, -187500.02235174447, -187500.02235174447, -187500.02235174447, -187500.02235174447, -187500.02235174447, -187500.02235174447, -187500.02235174447, 0.17200000000000001, -0.022, 0.996, 192.0, 0.0, 0.0, 0.0, 0.0, 0.0, 0.0, 0.0, 0.0, 0.0, 1.677617681616306E9, 0.0, 2023-02-28 15:54:41.616
4.0, 2711.646582084487, -187500.02235174447, -187500.02235174447, -187500.02235174447, -187500.02235174447, -187500.02235174447, -187500.02235174447, -187500.02235174447, 0.17200000000000001, -0.022, 0.996, 192.0, 0.0, 0.0, 0.0, 0.0, 0.0, 0.0, 0.0, 0.0, 0.0, 1.677617681623434E9, 0.0, 2023-02-28 15:54:41.623
5.0, 3503.3230189470078, -187500.02235174447, -187500.02235174447, -187500.02235174447, -187500.02235174447, -187500.02235174447, -187500.02235174447, -187500.02235174447, 0.17200000000000001, -0.022, 0.996, 192.0, 0.0, 0.0, 0.0, 0.0, 0.0, 0.0, 0.0, 0.0, 0.0, 1.677617681623449E9, 0.0, 2023-02-28 15:54:41.623
6.0, 4073.5607234908016, -187500.02235174447, -187500.02235174447, -187500.02235174447, -187500.02235174447, -187500.02235174447, -187500.02235174447, -187500.02235174447, 0.17200000000000001, -0.022, 0.996, 192.0, 0.0, 0.0, 0.0, 0.0, 0.0, 0.0, 0.0, 0.0, 0.0, 1.677617681629849E9, 0.0, 2023-02-28 15:54:41.629
7.0, 3343.9550809806683, -187500.02235174447, -187500.02235174447, -187500.02235174447, -187500.02235174447, -187500.02235174447, -187500.02235174447, -187500.02235174447, 0.176, -0.024, 0.994, 192.0, 5.0, 128.0, 255.0, 64.0, 31.0, 16.0, 0.0, 0.0, 0.0, 1.677617681638086E9, 0.0, 2023-02-28 15:54:41.638
8.0, 2757.9146931069727, -187500.02235174447, -187500.02235174447, -187500.02235174447, -187500.02235174447, -187500.02235174447, -187500.02235174447, -187500.02235174447, 0.176, -0.024, 0.994, 192.0, 0.0, 0.0, 0.0, 0.0, 0.0, 0.0, 0.0, 0.0, 0.0, 1.677617681638108E9, 0.0, 2023-02-28 15:54:41.638
9.0, 3547.7806386686134, -187500.02235174447, -187500.02235174447, -187500.02235174447, -187500.02235174447, -187500.02235174447, -187500.02235174447, -187500.02235174447, 0.176, -0.024, 0.994, 192.0, 0.0, 0.0, 0.0, 0.0, 0.0, 0.0, 0.0, 0.0, 0.0, 1.677617681645971E9, 0.0, 2023-02-28 15:54:41.645
10.0, 4405.1265007408265, -187500.02235174447, -187500.02235174447, -187500.02235174447, -187500.02235174447, -187500.02235174447, -187500.02235174447, -187500.02235174447, 0.176, -0.024, 0.994, 192.0, 0.0, 0.0, 0.0, 0.0, 0.0, 0.0, 0.0, 0.0, 0.0, 1.677617681645992E9, 0.0, 2023-02-28 15:54:41.645
11.0, 3417.000581860612, -187500.02235174447, -187500.02235174447, -187500.02235174447, -187500.02235174447, -187500.02235174447, -187500.02235174447, -187500.02235174447, 0.176, -0.024, 0.994, 192.0, 0.0, 0.0, 0.0, 0.0, 0.0, 0.0, 0.0, 0.0, 0.0, 1.677617681653089E9, 0.0, 2023-02-28 15:54:41.653
12.0, 2651.229816821792, -187500.02235174447, -187500.02235174447, -187500.02235174447, -187500.02235174447, -187500.02235174447, -187500.02235174447, -187500.02235174447, 0.176, -0.024, 0.994, 192.0, 0.0, 0.0, 0.0, 0.0, 0.0, 0.0, 0.0, 0.0, 0.0, 1.677617681653106E9, 0.0, 2023-02-28 15:54:41.653
13.0, 3362.4176219007522, -187500.02235174447, -187500.02235174447, -187500.02235174447, -187500.02235174447, -187500.02235174447, -187500.02235174447, -187500.02235174447, 0.176, -0.024, 0.994, 192.0, 0.0, 0.0, 0.0, 0.0, 0.0, 0.0, 0.0, 0.0, 0.0, 1.677617681660485E9, 0.0, 2023-02-28 15:54:41.660
14.0, 3998.0788824652295, -187500.02235174447, -187500.02235174447, -187500.02235174447, -187500.02235174447, -187500.02235174447, -187500.02235174447, -187500.02235174447, 0.176, -0.024, 0.994, 192.0, 0.0, 0.0, 0.0, 0.0, 0.0, 0.0, 0.0, 0.0, 0.0, 1.677617681660502E9, 0.0, 2023-02-28 15:54:41.660
15.0, 3581.062386162566, -187500.02235174447, -187500.02235174447, -187500.02235174447, -187500.02235174447, -187500.02235174447, -187500.02235174447, -187500.02235174447, 0.176, -0.024, 0.994, 192.0, 0.0, 0.0, 0.0, 0.0, 0.0, 0.0, 0.0, 0.0, 0.0, 1.677617681668491E9, 0.0, 2023-02-28 15:54:41.668
16.0, 2769.02351010126, -187500.02235174447, -187500.02235174447, -187500.02235174447, -187500.02235174447, -187500.02235174447, -187500.02235174447, -187500.02235174447, 0.176, -0.024, 0.994, 192.0, 0.0, 0.0, 0.0, 0.0, 0.0, 0.0, 0.0, 0.0, 0.0, 1.677617681668505E9, 0.0, 2023-02-28 15:54:41.668
17.0, 3110.3122961893437, -187500.02235174447, -187500.02235174447, -187500.02235174447, -187500.02235174447, -187500.02235174447, -187500.02235174447, -187500.02235174447, 0.176, -0.026000000000000002, 0.994, 192.0, 5.0, 128.0, 255.0, 48.0, 31.0, 16.0, 0.0, 0.0, 0.0, 1.677617681675772E9, 0.0, 2023-02-28 15:54:41.675
18.0, 4012.831033805732, -187500.02235174447, -187500.02235174447, -187500.02235174447, -187500.02235174447, -187500.02235174447, -187500.02235174447, -187500.02235174447, 0.176, -0.026000000000000002, 0.994, 192.0, 0.0, 0.0, 0.0, 0.0, 0.0, 0.0, 0.0, 0.0, 0.0, 1.67761768167579E9, 0.0, 2023-02-28 15:54:41.675
19.0, 3728.047457700665, -187500.02235174447, -187500.02235174447, -187500.02235174447, -187500.02235174447, -187500.02235174447, -187500.02235174447, -187500.02235174447, 0.176, -0.026000000000000002, 0.994, 192.0, 0.0, 0.0, 0.0, 0.0, 0.0, 0.0, 0.0, 0.0, 0.0, 1.67761768168306E9, 0.0, 2023-02-28 15:54:41.683
20.0, 2767.7271089228525, -187500.02235174447, -187500.02235174447, -187500.02235174447, -187500.02235174447, -187500.02235174447, -187500.02235174447, -187500.02235174447, 0.176, -0.026000000000000002, 0.994, 192.0, 0.0, 0.0, 0.0, 0.0, 0.0, 0.0, 0.0, 0.0, 0.0, 1.677617681683089E9, 0.0, 2023-02-28 15:54:41.683
21.0, 2810.4412925769443, -187500.02235174447, -187500.02235174447, -187500.02235174447, -187500.02235174447, -187500.02235174447, -187500.02235174447, -187500.02235174447, 0.176, -0.026000000000000002, 0.994, 192.0, 0.0, 0.0, 0.0, 0.0, 0.0, 0.0, 0.0, 0.0, 0.0, 1.67761768169006E9, 0.0, 2023-02-28 15:54:41.690
22.0, 3835.112313641586, -187500.02235174447, -187500.02235174447, -187500.02235174447, -187500.02235174447, -187500.02235174447, -187500.02235174447, -187500.02235174447, 0.176, -0.026000000000000002, 0.994, 192.0, 0.0, 0.0, 0.0, 0.0, 0.0, 0.0, 0.0, 0.0, 0.0, 1.67761768169008E9, 0.0, 2023-02-28 15:54:41.690
23.0, 4092.515002788902, -187500.02235174447, -187500.02235174447, -187500.02235174447, -187500.02235174447, -187500.02235174447, -187500.02235174447, -187500.02235174447, 0.176, -0.026000000000000002, 0.994, 192.0, 0.0, 0.0, 0.0, 0.0, 0.0, 0.0, 0.0, 0.0, 0.0, 1.677617681698188E9, 0.0, 2023-02-28 15:54:41.698
24.0, 3216.4383788631417, -187500.02235174447, -187500.02235174447, -187500.02235174447, -187500.02235174447, -187500.02235174447, -187500.02235174447, -187500.02235174447, 0.176, -0.026000000000000002, 0.994, 192.0, 0.0, 0.0, 0.0, 0.0, 0.0, 0.0, 0.0, 0.0, 0.0, 1.677617681705249E9, 0.0, 2023-02-28 15:54:41.705
25.0, 2876.5801044201976, -187500.02235174447, -187500.02235174447, -187500.02235174447, -187500.02235174447, -187500.02235174447, -187500.02235174447, -187500.02235174447, 0.176, -0.026000000000000002, 0.994, 192.0, 0.0, 0.0, 0.0, 0.0, 0.0, 0.0, 0.0, 0.0, 0.0, 1.677617681705263E9, 0.0, 2023-02-28 15:54:41.705
26.0, 3594.026397946644, -187500.02235174447, -187500.02235174447, -187500.02235174447, -187500.02235174447, -187500.02235174447, -187500.02235174447, -187500.02235174447, 0.176, -0.026000000000000002, 0.994, 192.0, 0.0, 0.0, 0.0, 0.0, 0.0, 0.0, 0.0, 0.0, 0.0, 1.677617681712723E9, 0.0, 2023-02-28 15:54:41.712
27.0, 4022.7775600883438, -187500.02235174447, -187500.02235174447, -187500.02235174447, -187500.02235174447, -187500.02235174447, -187500.02235174447, -187500.02235174447, 0.17400000000000002, -0.02, 1.0, 192.0, 5.0, 112.0, 255.0, 96.0, 31.0, 64.0, 0.0, 0.0, 0.0, 1.677617681712739E9, 0.0, 2023-02-28 15:54:41.712
28.0, 3172.137221352723, -187500.02235174447, -187500.02235174447, -187500.02235174447, -187500.02235174447, -187500.02235174447, -187500.02235174447, -187500.02235174447, 0.17400000000000002, -0.02, 1.0, 192.0, 0.0, 0.0, 0.0, 0.0, 0.0, 0.0, 0.0, 0.0, 0.0, 1.677617681720736E9, 0.0, 2023-02-28 15:54:41.720
29.0, 2670.228799608803, -187500.02235174447, -187500.02235174447, -187500.02235174447, -187500.02235174447, -187500.02235174447, -187500.02235174447, -187500.02235174447, 0.17400000000000002, -0.02, 1.0, 192.0, 0.0, 0.0, 0.0, 0.0, 0.0, 0.0, 0.0, 0.0, 0.0, 1.677617681720755E9, 0.0, 2023-02-28 15:54:41.720
30.0, 3473.25992265462, -187500.02235174447, -187500.02235174447, -187500.02235174447, -187500.02235174447, -187500.02235174447, -187500.02235174447, -187500.02235174447, 0.17400000000000002, -0.02, 1.0, 192.0, 0.0, 0.0, 0.0, 0.0, 0.0, 0.0, 0.0, 0.0, 0.0, 1.677617681728777E9, 0.0, 2023-02-28 15:54:41.728
31.0, 4147.589701126779, -187500.02235174447, -187500.02235174447, -187500.02235174447, -187500.02235174447, -187500.02235174447, -187500.02235174447, -187500.02235174447, 0.17400000000000002, -0.02, 1.0, 192.0, 0.0, 0.0, 0.0, 0.0, 0.0, 0.0, 0.0, 0.0, 0.0, 1.677617681728802E9, 0.0, 2023-02-28 15:54:41.728
32.0, 3447.0413264085446, -187500.02235174447, -187500.02235174447, -187500.02235174447, -187500.02235174447, -187500.02235174447, -187500.02235174447, -187500.02235174447, 0.17400000000000002, -0.02, 1.0, 192.0, 0.0, 0.0, 0.0, 0.0, 0.0, 0.0, 0.0, 0.0, 0.0, 1.677617681735398E9, 0.0, 2023-02-28 15:54:41.735
33.0, 2639.718668427309, -187500.02235174447, -187500.02235174447, -187500.02235174447, -187500.02235174447, -187500.02235174447, -187500.02235174447, -187500.02235174447, 0.17400000000000002, -0.02, 1.0, 192.0, 0.0, 0.0, 0.0, 0.0, 0.0, 0.0, 0.0, 0.0, 0.0, 1.677617681735414E9, 0.0, 2023-02-28 15:54:41.735
34.0, 3392.838346104425, -187500.02235174447, -187500.02235174447, -187500.02235174447, -187500.02235174447, -187500.02235174447, -187500.02235174447, -187500.02235174447, 0.17400000000000002, -0.02, 1.0, 192.0, 0.0, 0.0, 0.0, 0.0, 0.0, 0.0, 0.0, 0.0, 0.0, 1.67761768174338E9, 0.0, 2023-02-28 15:54:41.743
35.0, 4059.4344209950473, -187500.02235174447, -187500.02235174447, -187500.02235174447, -187500.02235174447, -187500.02235174447, -187500.02235174447, -187500.02235174447, 0.17400000000000002, -0.02, 1.0, 192.0, 0.0, 0.0, 0.0, 0.0, 0.0, 0.0, 0.0, 0.0, 0.0, 1.6776176817434E9, 0.0, 2023-02-28 15:54:41.743
36.0, 3594.09345318001, -187500.02235174447, -187500.02235174447, -187500.02235174447, -187500.02235174447, -187500.02235174447, -187500.02235174447, -187500.02235174447, 0.182, -0.022, 1.0, 192.0, 5.0, 176.0, 255.0, 80.0, 31.0, 64.0, 0.0, 0.0, 0.0, 1.677617681751442E9, 0.0, 2023-02-28 15:54:41.751
37.0, 2726.4881404028106, -187500.02235174447, -187500.02235174447, -187500.02235174447, -187500.02235174447, -187500.02235174447, -187500.02235174447, -187500.02235174447, 0.182, -0.022, 1.0, 192.0, 0.0, 0.0, 0.0, 0.0, 0.0, 0.0, 0.0, 0.0, 0.0, 1.677617681751458E9, 0.0, 2023-02-28 15:54:41.751
38.0, 3214.5161288399854, -187500.02235174447, -187500.02235174447, -187500.02235174447, -187500.02235174447, -187500.02235174447, -187500.02235174447, -187500.02235174447, 0.182, -0.022, 1.0, 192.0, 0.0, 0.0, 0.0, 0.0, 0.0, 0.0, 0.0, 0.0, 0.0, 1.677617681758532E9, 0.0, 2023-02-28 15:54:41.758
39.0, 4037.194435262017, -187500.02235174447, -187500.02235174447, -187500.02235174447, -187500.02235174447, -187500.02235174447, -187500.02235174447, -187500.02235174447, 0.182, -0.022, 1.0, 192.0, 0.0, 0.0, 0.0, 0.0, 0.0, 0.0, 0.0, 0.0, 0.0, 1.677617681765059E9, 0.0, 2023-02-28 15:54:41.765
40.0, 3700.957143420833, -187500.02235174447, -187500.02235174447, -187500.02235174447, -187500.02235174447, -187500.02235174447, -187500.02235174447, -187500.02235174447, 0.182, -0.022, 1.0, 192.0, 0.0, 0.0, 0.0, 0.0, 0.0, 0.0, 0.0, 0.0, 0.0, 1.677617681765077E9, 0.0, 2023-02-28 15:54:41.765
41.0, 2978.1687829695684, -187500.02235174447, -187500.02235174447, -187500.02235174447, -187500.02235174447, -187500.02235174447, -187500.02235174447, -187500.02235174447, 0.182, -0.022, 1.0, 192.0, 0.0, 0.0, 0.0, 0.0, 0.0, 0.0, 0.0, 0.0, 0.0, 1.677617681773059E9, 0.0, 2023-02-28 15:54:41.773
42.0, 3092.7438250474725, -187500.02235174447, -187500.02235174447, -187500.02235174447, -187500.02235174447, -187500.02235174447, -187500.02235174447, -187500.02235174447, 0.182, -0.022, 1.0, 192.0, 0.0, 0.0, 0.0, 0.0, 0.0, 0.0, 0.0, 0.0, 0.0, 1.677617681773084E9, 0.0, 2023-02-28 15:54:41.773
43.0, 3838.979165432354, -187500.02235174447, -187500.02235174447, -187500.02235174447, -187500.02235174447, -187500.02235174447, -187500.02235174447, -187500.02235174447, 0.182, -0.022, 1.0, 192.0, 0.0, 0.0, 0.0, 0.0, 0.0, 0.0, 0.0, 0.0, 0.0, 1.677617681781104E9, 0.0, 2023-02-28 15:54:41.781
44.0, 3791.4817084648266, -187500.02235174447, -187500.02235174447, -187500.02235174447, -187500.02235174447, -187500.02235174447, -187500.02235174447, -187500.02235174447, 0.182, -0.022, 1.0, 192.0, 0.0, 0.0, 0.0, 0.0, 0.0, 0.0, 0.0, 0.0, 0.0, 1.677617681781122E9, 0.0, 2023-02-28 15:54:41.781
45.0, 2963.2378176734233, -187500.02235174447, -187500.02235174447, -187500.02235174447, -187500.02235174447, -187500.02235174447, -187500.02235174447, -187500.02235174447, 0.182, -0.022, 1.0, 192.0, 0.0, 0.0, 0.0, 0.0, 0.0, 0.0, 0.0, 0.0, 0.0, 1.67761768178816E9, 0.0, 2023-02-28 15:54:41.788
46.0, 3047.5709495032966, -187500.02235174447, -187500.02235174447, -187500.02235174447, -187500.02235174447, -187500.02235174447, -187500.02235174447, -187500.02235174447, 0.18, -0.02, 0.994, 192.0, 5.0, 160.0, 255.0, 96.0, 31.0, 16.0, 0.0, 0.0, 0.0, 1.677617681788175E9, 0.0, 2023-02-28 15:54:41.788
47.0, 3978.8787339781206, -187500.02235174447, -187500.02235174447, -187500.02235174447, -187500.02235174447, -187500.02235174447, -187500.02235174447, -187500.02235174447, 0.18, -0.02, 0.994, 192.0, 0.0, 0.0, 0.0, 0.0, 0.0, 0.0, 0.0, 0.0, 0.0, 1.67761768179573E9, 0.0, 2023-02-28 15:54:41.795
48.0, 3901.6534568850348, -187500.02235174447, -187500.02235174447, -187500.02235174447, -187500.02235174447, -187500.02235174447, -187500.02235174447, -187500.02235174447, 0.18, -0.02, 0.994, 192.0, 0.0, 0.0, 0.0, 0.0, 0.0, 0.0, 0.0, 0.0, 0.0, 1.677617681795743E9, 0.0, 2023-02-28 15:54:41.795
49.0, 3005.3932077161326, -187500.02235174447, -187500.02235174447, -187500.02235174447, -187500.02235174447, -187500.02235174447, -187500.02235174447, -187500.02235174447, 0.18, -0.02, 0.994, 192.0, 0.0, 0.0, 0.0, 0.0, 0.0, 0.0, 0.0, 0.0, 0.0, 1.677617681803707E9, 0.0, 2023-02-28 15:54:41.803
50.0, 2708.2044134383696, -187500.02235174447, -187500.02235174447, -187500.02235174447, -187500.02235174447, -187500.02235174447, -187500.02235174447, -187500.02235174447, 0.18, -0.02, 0.994, 192.0, 0.0, 0.0, 0.0, 0.0, 0.0, 0.0, 0.0, 0.0, 0.0, 1.677617681803723E9, 0.0, 2023-02-28 15:54:41.803
51.0, 3649.05639279561, -187500.02235174447, -187500.02235174447, -187500.02235174447, -187500.02235174447, -187500.02235174447, -187500.02235174447, -187500.02235174447, 0.18, -0.02, 0.994, 192.0, 0.0, 0.0, 0.0, 0.0, 0.0, 0.0, 0.0, 0.0, 0.0, 1.677617681811725E9, 0.0, 2023-02-28 15:54:41.811
52.0, 4089.966903920997, -187500.02235174447, -187500.02235174447, -187500.02235174447, -187500.02235174447, -187500.02235174447, -187500.02235174447, -187500.02235174447, 0.18, -0.02, 0.994, 192.0, 0.0, 0.0, 0.0, 0.0, 0.0, 0.0, 0.0, 0.0, 0.0, 1.677617681811756E9, 0.0, 2023-02-28 15:54:41.811
53.0, 3361.90353177828, -187500.02235174447, -187500.02235174447, -187500.02235174447, -187500.02235174447, -187500.02235174447, -187500.02235174447, -187500.02235174447, 0.18, -0.02, 0.994, 192.0, 0.0, 0.0, 0.0, 0.0, 0.0, 0.0, 0.0, 0.0, 0.0, 1.677617681817982E9, 0.0, 2023-02-28 15:54:41.817
54.0, 2584.711025322798, -187500.02235174447, -187500.02235174447, -187500.02235174447, -187500.02235174447, -187500.02235174447, -187500.02235174447, -187500.02235174447, 0.18, -0.02, 0.994, 192.0, 0.0, 0.0, 0.0, 0.0, 0.0, 0.0, 0.0, 0.0, 0.0, 1.677617681825295E9, 0.0, 2023-02-28 15:54:41.825
55.0, 3390.960799570179, -187500.02235174447, -187500.02235174447, -187500.02235174447, -187500.02235174447, -187500.02235174447, -187500.02235174447, -187500.02235174447, 0.18, -0.02, 0.994, 192.0, 0.0, 0.0, 0.0, 0.0, 0.0, 0.0, 0.0, 0.0, 0.0, 1.677617681825311E9, 0.0, 2023-02-28 15:54:41.825
56.0, 4222.289231096414, -187500.02235174447, -187500.02235174447, -187500.02235174447, -187500.02235174447, -187500.02235174447, -187500.02235174447, -187500.02235174447, 0.184, -0.026000000000000002, 0.998, 192.0, 5.0, 192.0, 255.0, 48.0, 31.0, 48.0, 0.0, 0.0, 0.0, 1.677617681833238E9, 0.0, 2023-02-28 15:54:41.833
57.0, 3458.284253869564, -187500.02235174447, -187500.02235174447, -187500.02235174447, -187500.02235174447, -187500.02235174447, -187500.02235174447, -187500.02235174447, 0.184, -0.026000000000000002, 0.998, 192.0, 0.0, 0.0, 0.0, 0.0, 0.0, 0.0, 0.0, 0.0, 0.0, 1.677617681833254E9, 0.0, 2023-02-28 15:54:41.833
58.0, 2686.9479044613727, -187500.02235174447, -187500.02235174447, -187500.02235174447, -187500.02235174447, -187500.02235174447, -187500.02235174447, -187500.02235174447, 0.184, -0.026000000000000002, 0.998, 192.0, 0.0, 0.0, 0.0, 0.0, 0.0, 0.0, 0.0, 0.0, 0.0, 1.677617681840672E9, 0.0, 2023-02-28 15:54:41.840
59.0, 3494.0246932536, -187500.02235174447, -187500.02235174447, -187500.02235174447, -187500.02235174447, -187500.02235174447, -187500.02235174447, -187500.02235174447, 0.184, -0.026000000000000002, 0.998, 192.0, 0.0, 0.0, 0.0, 0.0, 0.0, 0.0, 0.0, 0.0, 0.0, 1.677617681840685E9, 0.0, 2023-02-28 15:54:41.840
60.0, 4065.871723398176, -187500.02235174447, -187500.02235174447, -187500.02235174447, -187500.02235174447, -187500.02235174447, -187500.02235174447, -187500.02235174447, 0.184, -0.026000000000000002, 0.998, 192.0, 0.0, 0.0, 0.0, 0.0, 0.0, 0.0, 0.0, 0.0, 0.0, 1.677617681848705E9, 0.0, 2023-02-28 15:54:41.848
61.0, 3470.0412714530557, -187500.02235174447, -187500.02235174447, -187500.02235174447, -187500.02235174447, -187500.02235174447, -187500.02235174447, -187500.02235174447, 0.184, -0.026000000000000002, 0.998, 192.0, 0.0, 0.0, 0.0, 0.0, 0.0, 0.0, 0.0, 0.0, 0.0, 1.677617681848723E9, 0.0, 2023-02-28 15:54:41.848
62.0, 2794.5044987803103, -187500.02235174447, -187500.02235174447, -187500.02235174447, -187500.02235174447, -187500.02235174447, -187500.02235174447, -187500.02235174447, 0.184, -0.026000000000000002, 0.998, 192.0, 0.0, 0.0, 0.0, 0.0, 0.0, 0.0, 0.0, 0.0, 0.0, 1.677617681855795E9, 0.0, 2023-02-28 15:54:41.855
63.0, 3318.809368468448, -187500.02235174447, -187500.02235174447, -187500.02235174447, -187500.02235174447, -187500.02235174447, -187500.02235174447, -187500.02235174447, 0.184, -0.026000000000000002, 0.998, 192.0, 0.0, 0.0, 0.0, 0.0, 0.0, 0.0, 0.0, 0.0, 0.0, 1.677617681855816E9, 0.0, 2023-02-28 15:54:41.855
64.0, 3939.4949602478696, -187500.02235174447, -187500.02235174447, -187500.02235174447, -187500.02235174447, -187500.02235174447, -187500.02235174447, -187500.02235174447, 0.184, -0.026000000000000002, 0.998, 192.0, 0.0, 0.0, 0.0, 0.0, 0.0, 0.0, 0.0, 0.0, 0.0, 1.677617681863401E9, 0.0, 2023-02-28 15:54:41.863
65.0, 3777.042481546698, -187500.02235174447, -187500.02235174447, -187500.02235174447, -187500.02235174447, -187500.02235174447, -187500.02235174447, -187500.02235174447, 0.184, -0.026000000000000002, 0.998, 192.0, 0.0, 0.0, 0.0, 0.0, 0.0, 0.0, 0.0, 0.0, 0.0, 1.67761768186342E9, 0.0, 2023-02-28 15:54:41.863
66.0, 2887.9124388590385, -187500.02235174447, -187500.02235174447, -187500.02235174447, -187500.02235174447, -187500.02235174447, -187500.02235174447, -187500.02235174447, 0.176, -0.022, 0.994, 192.0, 5.0, 128.0, 255.0, 80.0, 31.0, 16.0, 0.0, 0.0, 0.0, 1.677617681871314E9, 0.0, 2023-02-28 15:54:41.871
67.0, 2948.4633145884654, -187500.02235174447, -187500.02235174447, -187500.02235174447, -187500.02235174447, -187500.02235174447, -187500.02235174447, -187500.02235174447, 0.176, -0.022, 0.994, 192.0, 0.0, 0.0, 0.0, 0.0, 0.0, 0.0, 0.0, 0.0, 0.0, 1.677617681871332E9, 0.0, 2023-02-28 15:54:41.871
68.0, 3826.976278659854, -187500.02235174447, -187500.02235174447, -187500.02235174447, -187500.02235174447, -187500.02235174447, -187500.02235174447, -187500.02235174447, 0.176, -0.022, 0.994, 192.0, 0.0, 0.0, 0.0, 0.0, 0.0, 0.0, 0.0, 0.0, 0.0, 1.67761768187828E9, 0.0, 2023-02-28 15:54:41.878
69.0, 3868.7069855579125, -187500.02235174447, -187500.02235174447, -187500.02235174447, -187500.02235174447, -187500.02235174447, -187500.02235174447, -187500.02235174447, 0.176, -0.022, 0.994, 192.0, 0.0, 0.0, 0.0, 0.0, 0.0, 0.0, 0.0, 0.0, 0.0, 1.677617681885553E9, 0.0, 2023-02-28 15:54:41.885
70.0, 3029.5777952167746, -187500.02235174447, -187500.02235174447, -187500.02235174447, -187500.02235174447, -187500.02235174447, -187500.02235174447, -187500.02235174447, 0.176, -0.022, 0.994, 192.0, 0.0, 0.0, 0.0, 0.0, 0.0, 0.0, 0.0, 0.0, 0.0, 1.677617681885568E9, 0.0, 2023-02-28 15:54:41.885
71.0, 2866.1194880151143, -187500.02235174447, -187500.02235174447, -187500.02235174447, -187500.02235174447, -187500.02235174447, -187500.02235174447, -187500.02235174447, 0.176, -0.022, 0.994, 192.0, 0.0, 0.0, 0.0, 0.0, 0.0, 0.0, 0.0, 0.0, 0.0, 1.677617681893018E9, 0.0, 2023-02-28 15:54:41.893
72.0, 3861.2415029098397, -187500.02235174447, -187500.02235174447, -187500.02235174447, -187500.02235174447, -187500.02235174447, -187500.02235174447, -187500.02235174447, 0.176, -0.022, 0.994, 192.0, 0.0, 0.0, 0.0, 0.0, 0.0, 0.0, 0.0, 0.0, 0.0, 1.677617681893035E9, 0.0, 2023-02-28 15:54:41.893
73.0, 3899.574744650691, -187500.02235174447, -187500.02235174447, -187500.02235174447, -187500.02235174447, -187500.02235174447, -187500.02235174447, -187500.02235174447, 0.176, -0.022, 0.994, 192.0, 0.0, 0.0, 0.0, 0.0, 0.0, 0.0, 0.0, 0.0, 0.0, 1.677617681900983E9, 0.0, 2023-02-28 15:54:41.900
74.0, 3003.1356815261465, -187500.02235174447, -187500.02235174447, -187500.02235174447, -187500.02235174447, -187500.02235174447, -187500.02235174447, -187500.02235174447, 0.176, -0.022, 0.994, 192.0, 0.0, 0.0, 0.0, 0.0, 0.0, 0.0, 0.0, 0.0, 0.0, 1.677617681901003E9, 0.0, 2023-02-28 15:54:41.901
75.0, 2719.6932100883973, -187500.02235174447, -187500.02235174447, -187500.02235174447, -187500.02235174447, -187500.02235174447, -187500.02235174447, -187500.02235174447, 0.176, -0.022, 0.994, 192.0, 0.0, 0.0, 0.0, 0.0, 0.0, 0.0, 0.0, 0.0, 0.0, 1.677617681909084E9, 0.0, 2023-02-28 15:54:41.909
76.0, 3636.785285089646, -187500.02235174447, -187500.02235174447, -187500.02235174447, -187500.02235174447, -187500.02235174447, -187500.02235174447, -187500.02235174447, 0.17400000000000002, -0.02, 0.99, 192.0, 5.0, 112.0, 255.0, 96.0, 30.0, 240.0, 0.0, 0.0, 0.0, 1.677617681909097E9, 0.0, 2023-02-28 15:54:41.909
77.0, 4150.1377999946835, -187500.02235174447, -187500.02235174447, -187500.02235174447, -187500.02235174447, -187500.02235174447, -187500.02235174447, -187500.02235174447, 0.17400000000000002, -0.02, 0.99, 192.0, 0.0, 0.0, 0.0, 0.0, 0.0, 0.0, 0.0, 0.0, 0.0, 1.67761768191556E9, 0.0, 2023-02-28 15:54:41.915
78.0, 3261.5441991739513, -187500.02235174447, -187500.02235174447, -187500.02235174447, -187500.02235174447, -187500.02235174447, -187500.02235174447, -187500.02235174447, 0.17400000000000002, -0.02, 0.99, 192.0, 0.0, 0.0, 0.0, 0.0, 0.0, 0.0, 0.0, 0.0, 0.0, 1.677617681915577E9, 0.0, 2023-02-28 15:54:41.915
79.0, 2808.966077442894, -187500.02235174447, -187500.02235174447, -187500.02235174447, -187500.02235174447, -187500.02235174447, -187500.02235174447, -187500.02235174447, 0.17400000000000002, -0.02, 0.99, 192.0, 0.0, 0.0, 0.0, 0.0, 0.0, 0.0, 0.0, 0.0, 0.0, 1.677617681923841E9, 0.0, 2023-02-28 15:54:41.923
80.0, 3774.784955356712, -187500.02235174447, -187500.02235174447, -187500.02235174447, -187500.02235174447, -187500.02235174447, -187500.02235174447, -187500.02235174447, 0.17400000000000002, -0.02, 0.99, 192.0, 0.0, 0.0, 0.0, 0.0, 0.0, 0.0, 0.0, 0.0, 0.0, 1.677617681923861E9, 0.0, 2023-02-28 15:54:41.923
81.0, 4117.548956578846, -187500.02235174447, -187500.02235174447, -187500.02235174447, -187500.02235174447, -187500.02235174447, -187500.02235174447, -187500.02235174447, 0.17400000000000002, -0.02, 0.99, 192.0, 0.0, 0.0, 0.0, 0.0, 0.0, 0.0, 0.0, 0.0, 0.0, 1.677617681931572E9, 0.0, 2023-02-28 15:54:41.931
82.0, 3326.744237750082, -187500.02235174447, -187500.02235174447, -187500.02235174447, -187500.02235174447, -187500.02235174447, -187500.02235174447, -187500.02235174447, 0.17400000000000002, -0.02, 0.99, 192.0, 0.0, 0.0, 0.0, 0.0, 0.0, 0.0, 0.0, 0.0, 0.0, 1.677617681931584E9, 0.0, 2023-02-28 15:54:41.931
83.0, 2620.6973338958423, -187500.02235174447, -187500.02235174447, -187500.02235174447, -187500.02235174447, -187500.02235174447, -187500.02235174447, -187500.02235174447, 0.17400000000000002, -0.02, 0.99, 192.0, 0.0, 0.0, 0.0, 0.0, 0.0, 0.0, 0.0, 0.0, 0.0, 1.677617681938697E9, 0.0, 2023-02-28 15:54:41.938
84.0, 3329.2476331290763, -187500.02235174447, -187500.02235174447, -187500.02235174447, -187500.02235174447, -187500.02235174447, -187500.02235174447, -187500.02235174447, 0.17400000000000002, -0.02, 0.99, 192.0, 0.0, 0.0, 0.0, 0.0, 0.0, 0.0, 0.0, 0.0, 0.0, 1.677617681938712E9, 0.0, 2023-02-28 15:54:41.938
85.0, 4054.1147058146844, -187500.02235174447, -187500.02235174447, -187500.02235174447, -187500.02235174447, -187500.02235174447, -187500.02235174447, -187500.02235174447, 0.176, -0.02, 0.99, 192.0, 5.0, 128.0, 255.0, 96.0, 30.0, 240.0, 0.0, 0.0, 0.0, 1.677617681945211E9, 0.0, 2023-02-28 15:54:41.945
86.0, 3521.159711022343, -187500.02235174447, -187500.02235174447, -187500.02235174447, -187500.02235174447, -187500.02235174447, -187500.02235174447, -187500.02235174447, 0.176, -0.02, 0.99, 192.0, 0.0, 0.0, 0.0, 0.0, 0.0, 0.0, 0.0, 0.0, 0.0, 1.677617681953139E9, 0.0, 2023-02-28 15:54:41.953
87.0, 2707.8914890159954, -187500.02235174447, -187500.02235174447, -187500.02235174447, -187500.02235174447, -187500.02235174447, -187500.02235174447, -187500.02235174447, 0.176, -0.02, 0.99, 192.0, 0.0, 0.0, 0.0, 0.0, 0.0, 0.0, 0.0, 0.0, 0.0, 1.677617681953153E9, 0.0, 2023-02-28 15:54:41.953
88.0, 3160.2237415580444, -187500.02235174447, -187500.02235174447, -187500.02235174447, -187500.02235174447, -187500.02235174447, -187500.02235174447, -187500.02235174447, 0.176, -0.02, 0.99, 192.0, 0.0, 0.0, 0.0, 0.0, 0.0, 0.0, 0.0, 0.0, 0.0, 1.67761768196124E9, 0.0, 2023-02-28 15:54:41.961
89.0, 4025.5044729118913, -187500.02235174447, -187500.02235174447, -187500.02235174447, -187500.02235174447, -187500.02235174447, -187500.02235174447, -187500.02235174447, 0.176, -0.02, 0.99, 192.0, 0.0, 0.0, 0.0, 0.0, 0.0, 0.0, 0.0, 0.0, 0.0, 1.67761768196126E9, 0.0, 2023-02-28 15:54:41.961
90.0, 3740.698545062369, -187500.02235174447, -187500.02235174447, -187500.02235174447, -187500.02235174447, -187500.02235174447, -187500.02235174447, -187500.02235174447, 0.176, -0.02, 0.99, 192.0, 0.0, 0.0, 0.0, 0.0, 0.0, 0.0, 0.0, 0.0, 0.0, 1.677617681967886E9, 0.0, 2023-02-28 15:54:41.967
91.0, 2836.2352056783684, -187500.02235174447, -187500.02235174447, -187500.02235174447, -187500.02235174447, -187500.02235174447, -187500.02235174447, -187500.02235174447, 0.176, -0.02, 0.99, 192.0, 0.0, 0.0, 0.0, 0.0, 0.0, 0.0, 0.0, 0.0, 0.0, 1.677617681967908E9, 0.0, 2023-02-28 15:54:41.967
92.0, 3158.9273403796365, -187500.02235174447, -187500.02235174447, -187500.02235174447, -187500.02235174447, -187500.02235174447, -187500.02235174447, -187500.02235174447, 0.176, -0.02, 0.99, 192.0, 0.0, 0.0, 0.0, 0.0, 0.0, 0.0, 0.0, 0.0, 0.0, 1.677617681975865E9, 0.0, 2023-02-28 15:54:41.975
93.0, 3965.914722194043, -187500.02235174447, -187500.02235174447, -187500.02235174447, -187500.02235174447, -187500.02235174447, -187500.02235174447, -187500.02235174447, 0.176, -0.02, 0.99, 192.0, 0.0, 0.0, 0.0, 0.0, 0.0, 0.0, 0.0, 0.0, 0.0, 1.677617681975882E9, 0.0, 2023-02-28 15:54:41.975
94.0, 3862.0238139657754, -187500.02235174447, -187500.02235174447, -187500.02235174447, -187500.02235174447, -187500.02235174447, -187500.02235174447, -187500.02235174447, 0.176, -0.02, 0.99, 192.0, 0.0, 0.0, 0.0, 0.0, 0.0, 0.0, 0.0, 0.0, 0.0, 1.67761768198393E9, 0.0, 2023-02-28 15:54:41.983
95.0, 2894.997941851371, -187500.02235174447, -187500.02235174447, -187500.02235174447, -187500.02235174447, -187500.02235174447, -187500.02235174447, -187500.02235174447, 0.176, -0.026000000000000002, 0.992, 192.0, 5.0, 128.0, 255.0, 48.0, 31.0, 0.0, 0.0, 0.0, 0.0, 1.677617681983955E9, 0.0, 2023-02-28 15:54:41.983
96.0, 2877.027139309304, -187500.02235174447, -187500.02235174447, -187500.02235174447, -187500.02235174447, -187500.02235174447, -187500.02235174447, -187500.02235174447, 0.176, -0.026000000000000002, 0.992, 192.0, 0.0, 0.0, 0.0, 0.0, 0.0, 0.0, 0.0, 0.0, 0.0, 1.677617681991014E9, 0.0, 2023-02-28 15:54:41.991
97.0, 3614.925279012356, -187500.02235174447, -187500.02235174447, -187500.02235174447, -187500.02235174447, -187500.02235174447, -187500.02235174447, -187500.02235174447, 0.176, -0.026000000000000002, 0.992, 192.0, 0.0, 0.0, 0.0, 0.0, 0.0, 0.0, 0.0, 0.0, 0.0, 1.677617681991039E9, 0.0, 2023-02-28 15:54:41.991
98.0, 3953.5318557658024, -187500.02235174447, -187500.02235174447, -187500.02235174447, -187500.02235174447, -187500.02235174447, -187500.02235174447, -187500.02235174447, 0.176, -0.026000000000000002, 0.992, 192.0, 0.0, 0.0, 0.0, 0.0, 0.0, 0.0, 0.0, 0.0, 0.0, 1.677617681998404E9, 0.0, 2023-02-28 15:54:41.998
99.0, 3116.5707846368296, -187500.02235174447, -187500.02235174447, -187500.02235174447, -187500.02235174447, -187500.02235174447, -187500.02235174447, -187500.02235174447, 0.176, -0.026000000000000002, 0.992, 192.0, 0.0, 0.0, 0.0, 0.0, 0.0, 0.0, 0.0, 0.0, 0.0, 1.677617681998422E9, 0.0, 2023-02-28 15:54:41.998
100.0, 2741.9778993103387, -187500.02235174447, -187500.02235174447, -187500.02235174447, -187500.02235174447, -187500.02235174447, -187500.02235174447, -187500.02235174447, 0.176, -0.026000000000000002, 0.992, 192.0, 0.0, 0.0, 0.0, 0.0, 0.0, 0.0, 0.0, 0.0, 0.0, 1.677617682005539E9, 0.0, 2023-02-28 15:54:42.005
101.0, 3679.2983030436403, -187500.02235174447, -187500.02235174447, -187500.02235174447, -187500.02235174447, -187500.02235174447, -187500.02235174447, -187500.02235174447, 0.176, -0.026000000000000002, 0.992, 192.0, 0.0, 0.0, 0.0, 0.0, 0.0, 0.0, 0.0, 0.0, 0.0, 1.677617682013381E9, 0.0, 2023-02-28 15:54:42.013
102.0, 4252.575844833355, -187500.02235174447, -187500.02235174447, -187500.02235174447, -187500.02235174447, -187500.02235174447, -187500.02235174447, -187500.02235174447, 0.176, -0.026000000000000002, 0.992, 192.0, 0.0, 0.0, 0.0, 0.0, 0.0, 0.0, 0.0, 0.0, 0.0, 1.677617682013397E9, 0.0, 2023-02-28 15:54:42.013
103.0, 3273.748251646549, -187500.02235174447, -187500.02235174447, -187500.02235174447, -187500.02235174447, -187500.02235174447, -187500.02235174447, -187500.02235174447, 0.176, -0.026000000000000002, 0.992, 192.0, 0.0, 0.0, 0.0, 0.0, 0.0, 0.0, 0.0, 0.0, 0.0, 1.677617682020623E9, 0.0, 2023-02-28 15:54:42.020
104.0, 2900.2729535428234, -187500.02235174447, -187500.02235174447, -187500.02235174447, -187500.02235174447, -187500.02235174447, -187500.02235174447, -187500.02235174447, 0.176, -0.026000000000000002, 0.992, 192.0, 0.0, 0.0, 0.0, 0.0, 0.0, 0.0, 0.0, 0.0, 0.0, 1.677617682020639E9, 0.0, 2023-02-28 15:54:42.020
105.0, 3395.833479861436, -187500.02235174447, -187500.02235174447, -187500.02235174447, -187500.02235174447, -187500.02235174447, -187500.02235174447, -187500.02235174447, 0.178, -0.022, 0.992, 192.0, 5.0, 144.0, 255.0, 80.0, 31.0, 0.0, 0.0, 0.0, 0.0, 1.677617682028117E9, 0.0, 2023-02-28 15:54:42.028
106.0, 4019.4695019089586, -187500.02235174447, -187500.02235174447, -187500.02235174447, -187500.02235174447, -187500.02235174447, -187500.02235174447, -187500.02235174447, 0.178, -0.022, 0.992, 192.0, 0.0, 0.0, 0.0, 0.0, 0.0, 0.0, 0.0, 0.0, 0.0, 1.677617682028141E9, 0.0, 2023-02-28 15:54:42.028
107.0, 3378.2426569751096, -187500.02235174447, -187500.02235174447, -187500.02235174447, -187500.02235174447, -187500.02235174447, -187500.02235174447, -187500.02235174447, 0.178, -0.022, 0.992, 192.0, 0.0, 0.0, 0.0, 0.0, 0.0, 0.0, 0.0, 0.0, 0.0, 1.67761768203607E9, 0.0, 2023-02-28 15:54:42.036
108.0, 2675.034424666694, -187500.02235174447, -187500.02235174447, -187500.02235174447, -187500.02235174447, -187500.02235174447, -187500.02235174447, -187500.02235174447, 0.178, -0.022, 0.992, 192.0, 0.0, 0.0, 0.0, 0.0, 0.0, 0.0, 0.0, 0.0, 0.0, 1.67761768203609E9, 0.0, 2023-02-28 15:54:42.036
109.0, 3253.497571170041, -187500.02235174447, -187500.02235174447, -187500.02235174447, -187500.02235174447, -187500.02235174447, -187500.02235174447, -187500.02235174447, 0.178, -0.022, 0.992, 192.0, 0.0, 0.0, 0.0, 0.0, 0.0, 0.0, 0.0, 0.0, 0.0, 1.677617682044216E9, 0.0, 2023-02-28 15:54:42.044
110.0, 4017.3013826967936, -187500.02235174447, -187500.02235174447, -187500.02235174447, -187500.02235174447, -187500.02235174447, -187500.02235174447, -187500.02235174447, 0.178, -0.022, 0.992, 192.0, 0.0, 0.0, 0.0, 0.0, 0.0, 0.0, 0.0, 0.0, 0.0, 1.677617682044236E9, 0.0, 2023-02-28 15:54:42.044
111.0, 3641.792075847635, -187500.02235174447, -187500.02235174447, -187500.02235174447, -187500.02235174447, -187500.02235174447, -187500.02235174447, -187500.02235174447, 0.178, -0.022, 0.992, 192.0, 0.0, 0.0, 0.0, 0.0, 0.0, 0.0, 0.0, 0.0, 0.0, 1.677617682050763E9, 0.0, 2023-02-28 15:54:42.050
112.0, 2786.569629498676, -187500.02235174447, -187500.02235174447, -187500.02235174447, -187500.02235174447, -187500.02235174447, -187500.02235174447, -187500.02235174447, 0.178, -0.022, 0.992, 192.0, 0.0, 0.0, 0.0, 0.0, 0.0, 0.0, 0.0, 0.0, 0.0, 1.677617682050777E9, 0.0, 2023-02-28 15:54:42.050
113.0, 3135.1227325347345, -187500.02235174447, -187500.02235174447, -187500.02235174447, -187500.02235174447, -187500.02235174447, -187500.02235174447, -187500.02235174447, 0.178, -0.022, 0.992, 192.0, 0.0, 0.0, 0.0, 0.0, 0.0, 0.0, 0.0, 0.0, 0.0, 1.677617682058737E9, 0.0, 2023-02-28 15:54:42.058
114.0, 4070.18561007805, -187500.02235174447, -187500.02235174447, -187500.02235174447, -187500.02235174447, -187500.02235174447, -187500.02235174447, -187500.02235174447, 0.178, -0.022, 0.992, 192.0, 0.0, 0.0, 0.0, 0.0, 0.0, 0.0, 0.0, 0.0, 0.0, 1.677617682058751E9, 0.0, 2023-02-28 15:54:42.058
115.0, 3821.433046034938, -187500.02235174447, -187500.02235174447, -187500.02235174447, -187500.02235174447, -187500.02235174447, -187500.02235174447, -187500.02235174447, 0.18, -0.02, 0.988, 192.0, 5.0, 160.0, 255.0, 96.0, 30.0, 224.0, 0.0, 0.0, 0.0, 1.677617682065701E9, 0.0, 2023-02-28 15:54:42.065
116.0, 2826.4004381180334, -187500.02235174447, -187500.02235174447, -187500.02235174447, -187500.02235174447, -187500.02235174447, -187500.02235174447, -187500.02235174447, 0.18, -0.02, 0.988, 192.0, 0.0, 0.0, 0.0, 0.0, 0.0, 0.0, 0.0, 0.0, 0.0, 1.67761768207373E9, 0.0, 2023-02-28 15:54:42.073
117.0, 3038.183216832068, -187500.02235174447, -187500.02235174447, -187500.02235174447, -187500.02235174447, -187500.02235174447, -187500.02235174447, -187500.02235174447, 0.18, -0.02, 0.988, 192.0, 0.0, 0.0, 0.0, 0.0, 0.0, 0.0, 0.0, 0.0, 0.0, 1.677617682073748E9, 0.0, 2023-02-28 15:54:42.073
118.0, 3893.8526980701326, -187500.02235174447, -187500.02235174447, -187500.02235174447, -187500.02235174447, -187500.02235174447, -187500.02235174447, -187500.02235174447, 0.18, -0.02, 0.988, 192.0, 0.0, 0.0, 0.0, 0.0, 0.0, 0.0, 0.0, 0.0, 0.0, 1.677617682080348E9, 0.0, 2023-02-28 15:54:42.080
119.0, 3918.618430926613, -187500.02235174447, -187500.02235174447, -187500.02235174447, -187500.02235174447, -187500.02235174447, -187500.02235174447, -187500.02235174447, 0.18, -0.02, 0.988, 192.0, 0.0, 0.0, 0.0, 0.0, 0.0, 0.0, 0.0, 0.0, 0.0, 1.677617682080366E9, 0.0, 2023-02-28 15:54:42.080
120.0, 2912.499357759876, -187500.02235174447, -187500.02235174447, -187500.02235174447, -187500.02235174447, -187500.02235174447, -187500.02235174447, -187500.02235174447, 0.18, -0.02, 0.988, 192.0, 0.0, 0.0, 0.0, 0.0, 0.0, 0.0, 0.0, 0.0, 0.0, 1.677617682088419E9, 0.0, 2023-02-28 15:54:42.088
121.0, 2836.615185334109, -187500.02235174447, -187500.02235174447, -187500.02235174447, -187500.02235174447, -187500.02235174447, -187500.02235174447, -187500.02235174447, 0.18, -0.02, 0.988, 192.0, 0.0, 0.0, 0.0, 0.0, 0.0, 0.0, 0.0, 0.0, 0.0, 1.677617682088436E9, 0.0, 2023-02-28 15:54:42.088
122.0, 3654.1749422758753, -187500.02235174447, -187500.02235174447, -187500.02235174447, -187500.02235174447, -187500.02235174447, -187500.02235174447, -187500.02235174447, 0.18, -0.02, 0.988, 192.0, 0.0, 0.0, 0.0, 0.0, 0.0, 0.0, 0.0, 0.0, 0.0, 1.677617682096353E9, 0.0, 2023-02-28 15:54:42.096
123.0, 3907.4425586989596, -187500.02235174447, -187500.02235174447, -187500.02235174447, -187500.02235174447, -187500.02235174447, -187500.02235174447, -187500.02235174447, 0.18, -0.02, 0.988, 192.0, 0.0, 0.0, 0.0, 0.0, 0.0, 0.0, 0.0, 0.0, 0.0, 1.677617682096369E9, 0.0, 2023-02-28 15:54:42.096
124.0, 3189.9292099391473, -187500.02235174447, -187500.02235174447, -187500.02235174447, -187500.02235174447, -187500.02235174447, -187500.02235174447, -187500.02235174447, 0.18, -0.02, 0.988, 192.0, 0.0, 0.0, 0.0, 0.0, 0.0, 0.0, 0.0, 0.0, 0.0, 1.677617682103485E9, 0.0, 2023-02-28 15:54:42.103
125.0, 2799.7124552383966, -187500.02235174447, -187500.02235174447, -187500.02235174447, -187500.02235174447, -187500.02235174447, -187500.02235174447, -187500.02235174447, 0.176, -0.022, 0.994, 192.0, 5.0, 128.0, 255.0, 80.0, 31.0, 16.0, 0.0, 0.0, 0.0, 1.6776176821035E9, 0.0, 2023-02-28 15:54:42.103
126.0, 3750.5780161116145, -187500.02235174447, -187500.02235174447, -187500.02235174447, -187500.02235174447, -187500.02235174447, -187500.02235174447, -187500.02235174447, 0.176, -0.022, 0.994, 192.0, 0.0, 0.0, 0.0, 0.0, 0.0, 0.0, 0.0, 0.0, 0.0, 1.677617682110985E9, 0.0, 2023-02-28 15:54:42.110
127.0, 4190.795623158887, -187500.02235174447, -187500.02235174447, -187500.02235174447, -187500.02235174447, -187500.02235174447, -187500.02235174447, -187500.02235174447, 0.176, -0.022, 0.994, 192.0, 0.0, 0.0, 0.0, 0.0, 0.0, 0.0, 0.0, 0.0, 0.0, 1.677617682111001E9, 0.0, 2023-02-28 15:54:42.111
128.0, 3268.070908554901, -187500.02235174447, -187500.02235174447, -187500.02235174447, -187500.02235174447, -187500.02235174447, -187500.02235174447, -187500.02235174447, 0.176, -0.022, 0.994, 192.0, 0.0, 0.0, 0.0, 0.0, 0.0, 0.0, 0.0, 0.0, 0.0, 1.677617682119037E9, 0.0, 2023-02-28 15:54:42.119
129.0, 2615.131749526471, -187500.02235174447, -187500.02235174447, -187500.02235174447, -187500.02235174447, -187500.02235174447, -187500.02235174447, -187500.02235174447, 0.176, -0.022, 0.994, 192.0, 0.0, 0.0, 0.0, 0.0, 0.0, 0.0, 0.0, 0.0, 0.0, 1.677617682119059E9, 0.0, 2023-02-28 15:54:42.119
130.0, 3378.644988375305, -187500.02235174447, -187500.02235174447, -187500.02235174447, -187500.02235174447, -187500.02235174447, -187500.02235174447, -187500.02235174447, 0.176, -0.022, 0.994, 192.0, 0.0, 0.0, 0.0, 0.0, 0.0, 0.0, 0.0, 0.0, 0.0, 1.677617682126235E9, 0.0, 2023-02-28 15:54:42.126
131.0, 4120.164110680117, -187500.02235174447, -187500.02235174447, -187500.02235174447, -187500.02235174447, -187500.02235174447, -187500.02235174447, -187500.02235174447, 0.176, -0.022, 0.994, 192.0, 0.0, 0.0, 0.0, 0.0, 0.0, 0.0, 0.0, 0.0, 0.0, 1.677617682132726E9, 0.0, 2023-02-28 15:54:42.132
132.0, 3514.4541876857506, -187500.02235174447, -187500.02235174447, -187500.02235174447, -187500.02235174447, -187500.02235174447, -187500.02235174447, -187500.02235174447, 0.176, -0.022, 0.994, 192.0, 0.0, 0.0, 0.0, 0.0, 0.0, 0.0, 0.0, 0.0, 0.0, 1.677617682132741E9, 0.0, 2023-02-28 15:54:42.132
133.0, 2632.7225724127975, -187500.02235174447, -187500.02235174447, -187500.02235174447, -187500.02235174447, -187500.02235174447, -187500.02235174447, -187500.02235174447, 0.176, -0.022, 0.994, 192.0, 0.0, 0.0, 0.0, 0.0, 0.0, 0.0, 0.0, 0.0, 0.0, 1.677617682140634E9, 0.0, 2023-02-28 15:54:42.140
