%OpenBCI Raw EEG Data
%Number of channels = 8
%Sample Rate = 250 Hz
%Board = OpenBCI_GUI$BoardCytonSerial
Sample Index, EXG Channel 0, EXG Channel 1, EXG Channel 2, EXG Channel 3, EXG Channel 4, EXG Channel 5, EXG Channel 6, EXG Channel 7, Accel Channel 0, Accel Channel 1, Accel Channel 2, Other, Other, Other, Other, Other, Other, Other, Analog Channel 0, Analog Channel 1, Analog Channel 2, Timestamp, Other, Timestamp (Formatted)
108.0, 14559.345192831182, 187500.0, 187500.0, 187500.0, -187500.02235174447, 187500.0, -187500.02235174447, -187500.02235174447, 0.0, 0.0, 0.0, 192.0, 0.0, 0.0, 0.0, 0.0, 0.0, 0.0, 0.0, 0.0, 0.0, 1.676047150858146E9, 0.0, 2023-02-10 11:39:10.858
109.0, 14574.142047660596, 187500.0, 187500.0, 187500.0, -187500.02235174447, 187500.0, -187500.02235174447, -187500.02235174447, 0.0, 0.0, 0.0, 192.0, 0.0, 0.0, 0.0, 0.0, 0.0, 0.0, 0.0, 0.0, 0.0, 1.676047150858187E9, 0.0, 2023-02-10 11:39:10.858
110.0, 14762.097866785272, 187500.0, 187500.0, 187500.0, -187500.02235174447, 187500.0, -187500.02235174447, -187500.02235174447, 0.0, 0.0, 0.0, 192.0, 0.0, 0.0, 0.0, 0.0, 0.0, 0.0, 0.0, 0.0, 0.0, 1.676047150858231E9, 0.0, 2023-02-10 11:39:10.858
111.0, 14995.673596343231, 187500.0, 187500.0, 187500.0, -187500.02235174447, 187500.0, -187500.02235174447, -187500.02235174447, 0.0, 0.0, 0.0, 192.0, 0.0, 0.0, 0.0, 0.0, 0.0, 0.0, 0.0, 0.0, 0.0, 1.676047150858281E9, 0.0, 2023-02-10 11:39:10.858
112.0, 15483.321605124665, 187500.0, 187500.0, 187500.0, -187500.02235174447, 187500.0, -187500.02235174447, -187500.02235174447, 0.0, 0.0, 0.0, 192.0, 0.0, 0.0, 0.0, 0.0, 0.0, 0.0, 0.0, 0.0, 0.0, 1.676047150858291E9, 0.0, 2023-02-10 11:39:10.858
0.0, 0.0, 0.0, 0.0, 0.0, 0.0, 0.0, 0.0, 0.0, 0.0, 0.0, 0.0, 192.0, 0.0, 0.0, 0.0, 0.0, 0.0, 0.0, 0.0, 0.0, 0.0, 1.676047150936566E9, 0.0, 2023-02-10 11:39:10.936
1.0, 15372.389897392977, 187500.0, 187500.0, 187500.0, -187500.02235174447, 187500.0, -187500.02235174447, -187500.02235174447, -0.03, 0.034, 1.002, 192.0, 255.0, 16.0, 1.0, 16.0, 31.0, 80.0, 0.0, 0.0, 0.0, 1.676047150952554E9, 0.0, 2023-02-10 11:39:10.952
2.0, 15821.861126644746, 187500.0, 187500.0, 187500.0, -187500.02235174447, 187500.0, -187500.02235174447, -187500.02235174447, -0.03, 0.034, 1.002, 192.0, 0.0, 0.0, 0.0, 0.0, 0.0, 0.0, 0.0, 0.0, 0.0, 1.676047150960132E9, 0.0, 2023-02-10 11:39:10.960
3.0, 15577.243635325865, 187500.0, 187500.0, 187500.0, -187500.02235174447, 187500.0, -187500.02235174447, -187500.02235174447, -0.03, 0.034, 1.002, 192.0, 0.0, 0.0, 0.0, 0.0, 0.0, 0.0, 0.0, 0.0, 0.0, 1.676047150960155E9, 0.0, 2023-02-10 11:39:10.960
4.0, 15288.16852428538, 187500.0, 187500.0, 187500.0, -187500.02235174447, 187500.0, -187500.02235174447, -187500.02235174447, -0.03, 0.034, 1.002, 192.0, 0.0, 0.0, 0.0, 0.0, 0.0, 0.0, 0.0, 0.0, 0.0, 1.676047150966771E9, 0.0, 2023-02-10 11:39:10.966
5.0, 15036.197309040703, 187500.0, 187500.0, 187500.0, -187500.02235174447, 187500.0, -187500.02235174447, -187500.02235174447, -0.03, 0.034, 1.002, 192.0, 0.0, 0.0, 0.0, 0.0, 0.0, 0.0, 0.0, 0.0, 0.0, 1.676047150966794E9, 0.0, 2023-02-10 11:39:10.966
6.0, 15328.4687195383, 187500.0, 187500.0, 187500.0, -187500.02235174447, 187500.0, -187500.02235174447, -187500.02235174447, -0.03, 0.034, 1.002, 192.0, 0.0, 0.0, 0.0, 0.0, 0.0, 0.0, 0.0, 0.0, 0.0, 1.676047150973757E9, 0.0, 2023-02-10 11:39:10.973
7.0, 15470.961090440882, 187500.0, 187500.0, 187500.0, -187500.02235174447, 187500.0, -187500.02235174447, -187500.02235174447, -0.03, 0.034, 1.002, 192.0, 0.0, 0.0, 0.0, 0.0, 0.0, 0.0, 0.0, 0.0, 0.0, 1.676047150981866E9, 0.0, 2023-02-10 11:39:10.981
8.0, 14824.660399515678, 187500.0, 187500.0, 187500.0, -187500.02235174447, 187500.0, -187500.02235174447, -187500.02235174447, -0.03, 0.04, 1.004, 192.0, 255.0, 16.0, 1.0, 64.0, 31.0, 96.0, 0.0, 0.0, 0.0, 1.676047150981895E9, 0.0, 2023-02-10 11:39:10.981
9.0, 15034.610335184378, 187500.0, 187500.0, 187500.0, -187500.02235174447, 187500.0, -187500.02235174447, -187500.02235174447, -0.03, 0.04, 1.004, 192.0, 0.0, 0.0, 0.0, 0.0, 0.0, 0.0, 0.0, 0.0, 0.0, 1.67604715098978E9, 0.0, 2023-02-10 11:39:10.989
10.0, 15452.72206696535, 187500.0, 187500.0, 187500.0, -187500.02235174447, 187500.0, -187500.02235174447, -187500.02235174447, -0.03, 0.04, 1.004, 192.0, 0.0, 0.0, 0.0, 0.0, 0.0, 0.0, 0.0, 0.0, 0.0, 1.676047150989801E9, 0.0, 2023-02-10 11:39:10.989
11.0, 15407.012749554247, 187500.0, 187500.0, 187500.0, -187500.02235174447, 187500.0, -187500.02235174447, -187500.02235174447, -0.03, 0.04, 1.004, 192.0, 0.0, 0.0, 0.0, 0.0, 0.0, 0.0, 0.0, 0.0, 0.0, 1.676047150996373E9, 0.0, 2023-02-10 11:39:10.996
12.0, 15969.069715627398, 187500.0, 187500.0, 187500.0, -187500.02235174447, 187500.0, -187500.02235174447, -187500.02235174447, -0.03, 0.04, 1.004, 192.0, 0.0, 0.0, 0.0, 0.0, 0.0, 0.0, 0.0, 0.0, 0.0, 1.676047150996402E9, 0.0, 2023-02-10 11:39:10.996
13.0, 15389.198409223369, 187500.0, 187500.0, 187500.0, -187500.02235174447, 187500.0, -187500.02235174447, -187500.02235174447, -0.03, 0.04, 1.004, 192.0, 0.0, 0.0, 0.0, 0.0, 0.0, 0.0, 0.0, 0.0, 0.0, 1.676047151004385E9, 0.0, 2023-02-10 11:39:11.004
14.0, 14930.920592656208, 187500.0, 187500.0, 187500.0, -187500.02235174447, 187500.0, -187500.02235174447, -187500.02235174447, -0.03, 0.04, 1.004, 192.0, 0.0, 0.0, 0.0, 0.0, 0.0, 0.0, 0.0, 0.0, 0.0, 1.676047151004406E9, 0.0, 2023-02-10 11:39:11.004
15.0, 15054.637498216332, 187500.0, 187500.0, 187500.0, -187500.02235174447, 187500.0, -187500.02235174447, -187500.02235174447, -0.03, 0.04, 1.004, 192.0, 0.0, 0.0, 0.0, 0.0, 0.0, 0.0, 0.0, 0.0, 0.0, 1.676047151012361E9, 0.0, 2023-02-10 11:39:11.012
16.0, 14547.051733380764, 187500.0, 187500.0, 187500.0, -187500.02235174447, 187500.0, -187500.02235174447, -187500.02235174447, -0.03, 0.04, 1.004, 192.0, 0.0, 0.0, 0.0, 0.0, 0.0, 0.0, 0.0, 0.0, 0.0, 1.676047151012384E9, 0.0, 2023-02-10 11:39:11.012
17.0, 14883.400783944224, 187500.0, 187500.0, 187500.0, -187500.02235174447, 187500.0, -187500.02235174447, -187500.02235174447, -0.024, 0.038, 1.002, 192.0, 255.0, 64.0, 1.0, 48.0, 31.0, 80.0, 0.0, 0.0, 0.0, 1.676047151019457E9, 0.0, 2023-02-10 11:39:11.019
18.0, 15900.785136316435, 187500.0, 187500.0, 187500.0, -187500.02235174447, 187500.0, -187500.02235174447, -187500.02235174447, -0.024, 0.038, 1.002, 192.0, 0.0, 0.0, 0.0, 0.0, 0.0, 0.0, 0.0, 0.0, 0.0, 1.676047151019482E9, 0.0, 2023-02-10 11:39:11.019
19.0, 15888.089345465822, 187500.0, 187500.0, 187500.0, -187500.02235174447, 187500.0, -187500.02235174447, -187500.02235174447, -0.024, 0.038, 1.002, 192.0, 0.0, 0.0, 0.0, 0.0, 0.0, 0.0, 0.0, 0.0, 0.0, 1.676047151026999E9, 0.0, 2023-02-10 11:39:11.026
20.0, 15325.540641014653, 187500.0, 187500.0, 187500.0, -187500.02235174447, 187500.0, -187500.02235174447, -187500.02235174447, -0.024, 0.038, 1.002, 192.0, 0.0, 0.0, 0.0, 0.0, 0.0, 0.0, 0.0, 0.0, 0.0, 1.676047151027023E9, 0.0, 2023-02-10 11:39:11.027
21.0, 15087.896893965828, 187500.0, 187500.0, 187500.0, -187500.02235174447, 187500.0, -187500.02235174447, -187500.02235174447, -0.024, 0.038, 1.002, 192.0, 0.0, 0.0, 0.0, 0.0, 0.0, 0.0, 0.0, 0.0, 0.0, 1.676047151033982E9, 0.0, 2023-02-10 11:39:11.033
22.0, 15375.273272427712, 187500.0, 187500.0, 187500.0, -187500.02235174447, 187500.0, -187500.02235174447, -187500.02235174447, -0.024, 0.038, 1.002, 192.0, 0.0, 0.0, 0.0, 0.0, 0.0, 0.0, 0.0, 0.0, 0.0, 1.676047151033999E9, 0.0, 2023-02-10 11:39:11.033
23.0, 15030.274096760048, 187500.0, 187500.0, 187500.0, -187500.02235174447, 187500.0, -187500.02235174447, -187500.02235174447, -0.024, 0.038, 1.002, 192.0, 0.0, 0.0, 0.0, 0.0, 0.0, 0.0, 0.0, 0.0, 0.0, 1.676047151042136E9, 0.0, 2023-02-10 11:39:11.042
24.0, 14977.635738567798, 187500.0, 187500.0, 187500.0, -187500.02235174447, 187500.0, -187500.02235174447, -187500.02235174447, -0.024, 0.038, 1.002, 192.0, 0.0, 0.0, 0.0, 0.0, 0.0, 0.0, 0.0, 0.0, 0.0, 1.67604715104857E9, 0.0, 2023-02-10 11:39:11.048
25.0, 15489.043651705224, 187500.0, 187500.0, 187500.0, -187500.02235174447, 187500.0, -187500.02235174447, -187500.02235174447, -0.024, 0.038, 1.002, 192.0, 0.0, 0.0, 0.0, 0.0, 0.0, 0.0, 0.0, 0.0, 0.0, 1.676047151048589E9, 0.0, 2023-02-10 11:39:11.048
26.0, 15516.1116142406, 187500.0, 187500.0, 187500.0, -187500.02235174447, 187500.0, -187500.02235174447, -187500.02235174447, -0.024, 0.038, 1.002, 192.0, 0.0, 0.0, 0.0, 0.0, 0.0, 0.0, 0.0, 0.0, 0.0, 1.676047151056704E9, 0.0, 2023-02-10 11:39:11.056
27.0, 15537.278716239778, 187500.0, 187500.0, 187500.0, -187500.02235174447, 187500.0, -187500.02235174447, -187500.02235174447, -0.032, 0.04, 1.004, 192.0, 255.0, 0.0, 1.0, 64.0, 31.0, 96.0, 0.0, 0.0, 0.0, 1.676047151056725E9, 0.0, 2023-02-10 11:39:11.056
28.0, 15563.027925852291, 187500.0, 187500.0, 187500.0, -187500.02235174447, 187500.0, -187500.02235174447, -187500.02235174447, -0.032, 0.04, 1.004, 192.0, 0.0, 0.0, 0.0, 0.0, 0.0, 0.0, 0.0, 0.0, 0.0, 1.676047151064736E9, 0.0, 2023-02-10 11:39:11.064
29.0, 15381.822333553117, 187500.0, 187500.0, 187500.0, -187500.02235174447, 187500.0, -187500.02235174447, -187500.02235174447, -0.032, 0.04, 1.004, 192.0, 0.0, 0.0, 0.0, 0.0, 0.0, 0.0, 0.0, 0.0, 0.0, 1.676047151064763E9, 0.0, 2023-02-10 11:39:11.064
30.0, 15131.058112509027, 187500.0, 187500.0, 187500.0, -187500.02235174447, 187500.0, -187500.02235174447, -187500.02235174447, -0.032, 0.04, 1.004, 192.0, 0.0, 0.0, 0.0, 0.0, 0.0, 0.0, 0.0, 0.0, 0.0, 1.676047151071849E9, 0.0, 2023-02-10 11:39:11.071
31.0, 15340.158681888424, 187500.0, 187500.0, 187500.0, -187500.02235174447, 187500.0, -187500.02235174447, -187500.02235174447, -0.032, 0.04, 1.004, 192.0, 0.0, 0.0, 0.0, 0.0, 0.0, 0.0, 0.0, 0.0, 0.0, 1.67604715107187E9, 0.0, 2023-02-10 11:39:11.071
32.0, 15363.89623449996, 187500.0, 187500.0, 187500.0, -187500.02235174447, 187500.0, -187500.02235174447, -187500.02235174447, -0.032, 0.04, 1.004, 192.0, 0.0, 0.0, 0.0, 0.0, 0.0, 0.0, 0.0, 0.0, 0.0, 1.676047151079341E9, 0.0, 2023-02-10 11:39:11.079
33.0, 14813.395120310202, 187500.0, 187500.0, 187500.0, -187500.02235174447, 187500.0, -187500.02235174447, -187500.02235174447, -0.032, 0.04, 1.004, 192.0, 0.0, 0.0, 0.0, 0.0, 0.0, 0.0, 0.0, 0.0, 0.0, 1.676047151079366E9, 0.0, 2023-02-10 11:39:11.079
34.0, 15428.96216260936, 187500.0, 187500.0, 187500.0, -187500.02235174447, 187500.0, -187500.02235174447, -187500.02235174447, -0.032, 0.04, 1.004, 192.0, 0.0, 0.0, 0.0, 0.0, 0.0, 0.0, 0.0, 0.0, 0.0, 1.676047151087372E9, 0.0, 2023-02-10 11:39:11.087
35.0, 15874.52183658145, 187500.0, 187500.0, 187500.0, -187500.02235174447, 187500.0, -187500.02235174447, -187500.02235174447, -0.032, 0.04, 1.004, 192.0, 0.0, 0.0, 0.0, 0.0, 0.0, 0.0, 0.0, 0.0, 0.0, 1.676047151087397E9, 0.0, 2023-02-10 11:39:11.087
36.0, 15213.468994315745, 187500.0, 187500.0, 187500.0, -187500.02235174447, 187500.0, -187500.02235174447, -187500.02235174447, -0.032, 0.04, 1.004, 192.0, 0.0, 0.0, 0.0, 0.0, 0.0, 0.0, 0.0, 0.0, 0.0, 1.676047151095359E9, 0.0, 2023-02-10 11:39:11.095
37.0, 14756.845206838276, 187500.0, 187500.0, 187500.0, -187500.02235174447, 187500.0, -187500.02235174447, -187500.02235174447, -0.034, 0.036000000000000004, 0.998, 192.0, 254.0, 240.0, 1.0, 32.0, 31.0, 48.0, 0.0, 0.0, 0.0, 1.676047151095389E9, 0.0, 2023-02-10 11:39:11.095
38.0, 15315.951742643327, 187500.0, 187500.0, 187500.0, -187500.02235174447, 187500.0, -187500.02235174447, -187500.02235174447, -0.034, 0.036000000000000004, 0.998, 192.0, 0.0, 0.0, 0.0, 0.0, 0.0, 0.0, 0.0, 0.0, 0.0, 1.676047151101398E9, 0.0, 2023-02-10 11:39:11.101
39.0, 15614.883972988604, 187500.0, 187500.0, 187500.0, -187500.02235174447, 187500.0, -187500.02235174447, -187500.02235174447, -0.034, 0.036000000000000004, 0.998, 192.0, 0.0, 0.0, 0.0, 0.0, 0.0, 0.0, 0.0, 0.0, 0.0, 1.676047151109008E9, 0.0, 2023-02-10 11:39:11.109
40.0, 15931.027046564466, 187500.0, 187500.0, 187500.0, -187500.02235174447, 187500.0, -187500.02235174447, -187500.02235174447, -0.034, 0.036000000000000004, 0.998, 192.0, 0.0, 0.0, 0.0, 0.0, 0.0, 0.0, 0.0, 0.0, 0.0, 1.676047151109031E9, 0.0, 2023-02-10 11:39:11.109
41.0, 15537.435178450964, 187500.0, 187500.0, 187500.0, -187500.02235174447, 187500.0, -187500.02235174447, -187500.02235174447, -0.034, 0.036000000000000004, 0.998, 192.0, 0.0, 0.0, 0.0, 0.0, 0.0, 0.0, 0.0, 0.0, 0.0, 1.67604715111699E9, 0.0, 2023-02-10 11:39:11.116
42.0, 15177.639147953887, 187500.0, 187500.0, 187500.0, -187500.02235174447, 187500.0, -187500.02235174447, -187500.02235174447, -0.034, 0.036000000000000004, 0.998, 192.0, 0.0, 0.0, 0.0, 0.0, 0.0, 0.0, 0.0, 0.0, 0.0, 1.676047151117014E9, 0.0, 2023-02-10 11:39:11.117
43.0, 15167.469104226722, 187500.0, 187500.0, 187500.0, -187500.02235174447, 187500.0, -187500.02235174447, -187500.02235174447, -0.034, 0.036000000000000004, 0.998, 192.0, 0.0, 0.0, 0.0, 0.0, 0.0, 0.0, 0.0, 0.0, 0.0, 1.676047151124926E9, 0.0, 2023-02-10 11:39:11.124
44.0, 15185.417555024333, 187500.0, 187500.0, 187500.0, -187500.02235174447, 187500.0, -187500.02235174447, -187500.02235174447, -0.034, 0.036000000000000004, 0.998, 192.0, 0.0, 0.0, 0.0, 0.0, 0.0, 0.0, 0.0, 0.0, 0.0, 1.676047151124945E9, 0.0, 2023-02-10 11:39:11.124
45.0, 15386.449144655366, 187500.0, 187500.0, 187500.0, -187500.02235174447, 187500.0, -187500.02235174447, -187500.02235174447, -0.034, 0.036000000000000004, 0.998, 192.0, 0.0, 0.0, 0.0, 0.0, 0.0, 0.0, 0.0, 0.0, 0.0, 1.676047151131542E9, 0.0, 2023-02-10 11:39:11.131
46.0, 15341.70095225584, 187500.0, 187500.0, 187500.0, -187500.02235174447, 187500.0, -187500.02235174447, -187500.02235174447, -0.034, 0.036000000000000004, 0.998, 192.0, 0.0, 0.0, 0.0, 0.0, 0.0, 0.0, 0.0, 0.0, 0.0, 1.676047151131561E9, 0.0, 2023-02-10 11:39:11.131
47.0, 15551.874405369093, 187500.0, 187500.0, 187500.0, -187500.02235174447, 187500.0, -187500.02235174447, -187500.02235174447, -0.032, 0.034, 0.996, 192.0, 255.0, 0.0, 1.0, 16.0, 31.0, 32.0, 0.0, 0.0, 0.0, 1.67604715113952E9, 0.0, 2023-02-10 11:39:11.139
48.0, 15672.417363216564, 187500.0, 187500.0, 187500.0, -187500.02235174447, 187500.0, -187500.02235174447, -187500.02235174447, -0.032, 0.034, 0.996, 192.0, 0.0, 0.0, 0.0, 0.0, 0.0, 0.0, 0.0, 0.0, 0.0, 1.676047151139535E9, 0.0, 2023-02-10 11:39:11.139
49.0, 15586.184333107989, 187500.0, 187500.0, 187500.0, -187500.02235174447, 187500.0, -187500.02235174447, -187500.02235174447, -0.032, 0.034, 0.996, 192.0, 0.0, 0.0, 0.0, 0.0, 0.0, 0.0, 0.0, 0.0, 0.0, 1.67604715114753E9, 0.0, 2023-02-10 11:39:11.147
50.0, 15221.783843253119, 187500.0, 187500.0, 187500.0, -187500.02235174447, 187500.0, -187500.02235174447, -187500.02235174447, -0.032, 0.034, 0.996, 192.0, 0.0, 0.0, 0.0, 0.0, 0.0, 0.0, 0.0, 0.0, 0.0, 1.676047151147546E9, 0.0, 2023-02-10 11:39:11.147
51.0, 14837.713818277576, 187500.0, 187500.0, 187500.0, -187500.02235174447, 187500.0, -187500.02235174447, -187500.02235174447, -0.032, 0.034, 0.996, 192.0, 0.0, 0.0, 0.0, 0.0, 0.0, 0.0, 0.0, 0.0, 0.0, 1.676047151154721E9, 0.0, 2023-02-10 11:39:11.154
52.0, 14929.579487988889, 187500.0, 187500.0, 187500.0, -187500.02235174447, 187500.0, -187500.02235174447, -187500.02235174447, -0.032, 0.034, 0.996, 192.0, 0.0, 0.0, 0.0, 0.0, 0.0, 0.0, 0.0, 0.0, 0.0, 1.676047151154738E9, 0.0, 2023-02-10 11:39:11.154
53.0, 15354.642612295464, 187500.0, 187500.0, 187500.0, -187500.02235174447, 187500.0, -187500.02235174447, -187500.02235174447, -0.032, 0.034, 0.996, 192.0, 0.0, 0.0, 0.0, 0.0, 0.0, 0.0, 0.0, 0.0, 0.0, 1.676047151161162E9, 0.0, 2023-02-10 11:39:11.161
54.0, 15493.044613962724, 187500.0, 187500.0, 187500.0, -187500.02235174447, 187500.0, -187500.02235174447, -187500.02235174447, -0.032, 0.034, 0.996, 192.0, 0.0, 0.0, 0.0, 0.0, 0.0, 0.0, 0.0, 0.0, 0.0, 1.676047151169268E9, 0.0, 2023-02-10 11:39:11.169
55.0, 15546.621745422095, 187500.0, 187500.0, 187500.0, -187500.02235174447, 187500.0, -187500.02235174447, -187500.02235174447, -0.032, 0.034, 0.996, 192.0, 0.0, 0.0, 0.0, 0.0, 0.0, 0.0, 0.0, 0.0, 0.0, 1.676047151169292E9, 0.0, 2023-02-10 11:39:11.169
56.0, 15677.737078396927, 187500.0, 187500.0, 187500.0, -187500.02235174447, 187500.0, -187500.02235174447, -187500.02235174447, -0.032, 0.034, 0.996, 192.0, 0.0, 0.0, 0.0, 0.0, 0.0, 0.0, 0.0, 0.0, 0.0, 1.676047151177392E9, 0.0, 2023-02-10 11:39:11.177
57.0, 15584.150324362556, 187500.0, 187500.0, 187500.0, -187500.02235174447, 187500.0, -187500.02235174447, -187500.02235174447, -0.038, 0.032, 1.0, 192.0, 254.0, 208.0, 1.0, 0.0, 31.0, 64.0, 0.0, 0.0, 0.0, 1.676047151177425E9, 0.0, 2023-02-10 11:39:11.177
58.0, 15510.389567660042, 187500.0, 187500.0, 187500.0, -187500.02235174447, 187500.0, -187500.02235174447, -187500.02235174447, -0.038, 0.032, 1.0, 192.0, 0.0, 0.0, 0.0, 0.0, 0.0, 0.0, 0.0, 0.0, 0.0, 1.676047151184075E9, 0.0, 2023-02-10 11:39:11.184
59.0, 15256.250233203202, 187500.0, 187500.0, 187500.0, -187500.02235174447, 187500.0, -187500.02235174447, -187500.02235174447, -0.038, 0.032, 1.0, 192.0, 0.0, 0.0, 0.0, 0.0, 0.0, 0.0, 0.0, 0.0, 0.0, 1.676047151184097E9, 0.0, 2023-02-10 11:39:11.184
60.0, 15240.894584762405, 187500.0, 187500.0, 187500.0, -187500.02235174447, 187500.0, -187500.02235174447, -187500.02235174447, -0.038, 0.032, 1.0, 192.0, 0.0, 0.0, 0.0, 0.0, 0.0, 0.0, 0.0, 0.0, 0.0, 1.676047151191909E9, 0.0, 2023-02-10 11:39:11.191
61.0, 14945.739799230076, 187500.0, 187500.0, 187500.0, -187500.02235174447, 187500.0, -187500.02235174447, -187500.02235174447, -0.038, 0.032, 1.0, 192.0, 0.0, 0.0, 0.0, 0.0, 0.0, 0.0, 0.0, 0.0, 0.0, 1.676047151191956E9, 0.0, 2023-02-10 11:39:11.191
62.0, 14897.504734695523, 187500.0, 187500.0, 187500.0, -187500.02235174447, 187500.0, -187500.02235174447, -187500.02235174447, -0.038, 0.032, 1.0, 192.0, 0.0, 0.0, 0.0, 0.0, 0.0, 0.0, 0.0, 0.0, 0.0, 1.676047151199927E9, 0.0, 2023-02-10 11:39:11.199
63.0, 16092.406641531783, 187500.0, 187500.0, 187500.0, -187500.02235174447, 187500.0, -187500.02235174447, -187500.02235174447, -0.038, 0.032, 1.0, 192.0, 0.0, 0.0, 0.0, 0.0, 0.0, 0.0, 0.0, 0.0, 0.0, 1.676047151199951E9, 0.0, 2023-02-10 11:39:11.199
64.0, 15676.351270240697, 187500.0, 187500.0, 187500.0, -187500.02235174447, 187500.0, -187500.02235174447, -187500.02235174447, -0.038, 0.032, 1.0, 192.0, 0.0, 0.0, 0.0, 0.0, 0.0, 0.0, 0.0, 0.0, 0.0, 1.676047151207924E9, 0.0, 2023-02-10 11:39:11.207
65.0, 15147.307830728036, 187500.0, 187500.0, 187500.0, -187500.02235174447, 187500.0, -187500.02235174447, -187500.02235174447, -0.038, 0.032, 1.0, 192.0, 0.0, 0.0, 0.0, 0.0, 0.0, 0.0, 0.0, 0.0, 0.0, 1.676047151207946E9, 0.0, 2023-02-10 11:39:11.207
66.0, 15196.168744107335, 187500.0, 187500.0, 187500.0, -187500.02235174447, 187500.0, -187500.02235174447, -187500.02235174447, -0.036000000000000004, 0.03, 1.0, 192.0, 254.0, 224.0, 0.0, 240.0, 31.0, 64.0, 0.0, 0.0, 0.0, 1.676047151214608E9, 0.0, 2023-02-10 11:39:11.214
67.0, 15765.378268406186, 187500.0, 187500.0, 187500.0, -187500.02235174447, 187500.0, -187500.02235174447, -187500.02235174447, -0.036000000000000004, 0.03, 1.0, 192.0, 0.0, 0.0, 0.0, 0.0, 0.0, 0.0, 0.0, 0.0, 0.0, 1.67604715121464E9, 0.0, 2023-02-10 11:39:11.214
68.0, 15348.18295814788, 187500.0, 187500.0, 187500.0, -187500.02235174447, 187500.0, -187500.02235174447, -187500.02235174447, -0.036000000000000004, 0.03, 1.0, 192.0, 0.0, 0.0, 0.0, 0.0, 0.0, 0.0, 0.0, 0.0, 0.0, 1.676047151221492E9, 0.0, 2023-02-10 11:39:11.221
69.0, 15088.07570792147, 187500.0, 187500.0, 187500.0, -187500.02235174447, 187500.0, -187500.02235174447, -187500.02235174447, -0.036000000000000004, 0.03, 1.0, 192.0, 0.0, 0.0, 0.0, 0.0, 0.0, 0.0, 0.0, 0.0, 0.0, 1.676047151229482E9, 0.0, 2023-02-10 11:39:11.229
70.0, 15074.374088570368, 187500.0, 187500.0, 187500.0, -187500.02235174447, 187500.0, -187500.02235174447, -187500.02235174447, -0.036000000000000004, 0.03, 1.0, 192.0, 0.0, 0.0, 0.0, 0.0, 0.0, 0.0, 0.0, 0.0, 0.0, 1.676047151229503E9, 0.0, 2023-02-10 11:39:11.229
71.0, 15160.070676812014, 187500.0, 187500.0, 187500.0, -187500.02235174447, 187500.0, -187500.02235174447, -187500.02235174447, -0.036000000000000004, 0.03, 1.0, 192.0, 0.0, 0.0, 0.0, 0.0, 0.0, 0.0, 0.0, 0.0, 0.0, 1.676047151236733E9, 0.0, 2023-02-10 11:39:11.236
72.0, 16083.488295494117, 187500.0, 187500.0, 187500.0, -187500.02235174447, 187500.0, -187500.02235174447, -187500.02235174447, -0.036000000000000004, 0.03, 1.0, 192.0, 0.0, 0.0, 0.0, 0.0, 0.0, 0.0, 0.0, 0.0, 0.0, 1.676047151236812E9, 0.0, 2023-02-10 11:39:11.236
73.0, 15880.936787240124, 187500.0, 187500.0, 187500.0, -187500.02235174447, 187500.0, -187500.02235174447, -187500.02235174447, -0.036000000000000004, 0.03, 1.0, 192.0, 0.0, 0.0, 0.0, 0.0, 0.0, 0.0, 0.0, 0.0, 0.0, 1.676047151244261E9, 0.0, 2023-02-10 11:39:11.244
74.0, 15212.91020070436, 187500.0, 187500.0, 187500.0, -187500.02235174447, 187500.0, -187500.02235174447, -187500.02235174447, -0.036000000000000004, 0.03, 1.0, 192.0, 0.0, 0.0, 0.0, 0.0, 0.0, 0.0, 0.0, 0.0, 0.0, 1.676047151244285E9, 0.0, 2023-02-10 11:39:11.244
75.0, 14677.362403555204, 187500.0, 187500.0, 187500.0, -187500.02235174447, 187500.0, -187500.02235174447, -187500.02235174447, -0.036000000000000004, 0.03, 1.0, 192.0, 0.0, 0.0, 0.0, 0.0, 0.0, 0.0, 0.0, 0.0, 0.0, 1.676047151252184E9, 0.0, 2023-02-10 11:39:11.252
76.0, 15609.765423508337, 187500.0, 187500.0, 187500.0, -187500.02235174447, 187500.0, -187500.02235174447, -187500.02235174447, -0.034, 0.034, 1.002, 192.0, 254.0, 240.0, 1.0, 16.0, 31.0, 80.0, 0.0, 0.0, 0.0, 1.676047151252207E9, 0.0, 2023-02-10 11:39:11.252
77.0, 15911.24575272152, 187500.0, 187500.0, 187500.0, -187500.02235174447, 187500.0, -187500.02235174447, -187500.02235174447, -0.034, 0.034, 1.002, 192.0, 0.0, 0.0, 0.0, 0.0, 0.0, 0.0, 0.0, 0.0, 0.0, 1.676047151260194E9, 0.0, 2023-02-10 11:39:11.260
78.0, 15222.454395586778, 187500.0, 187500.0, 187500.0, -187500.02235174447, 187500.0, -187500.02235174447, -187500.02235174447, -0.034, 0.034, 1.002, 192.0, 0.0, 0.0, 0.0, 0.0, 0.0, 0.0, 0.0, 0.0, 0.0, 1.676047151260221E9, 0.0, 2023-02-10 11:39:11.260
79.0, 15101.598513316932, 187500.0, 187500.0, 187500.0, -187500.02235174447, 187500.0, -187500.02235174447, -187500.02235174447, -0.034, 0.034, 1.002, 192.0, 0.0, 0.0, 0.0, 0.0, 0.0, 0.0, 0.0, 0.0, 0.0, 1.676047151266891E9, 0.0, 2023-02-10 11:39:11.266
80.0, 15069.903739679306, 187500.0, 187500.0, 187500.0, -187500.02235174447, 187500.0, -187500.02235174447, -187500.02235174447, -0.034, 0.034, 1.002, 192.0, 0.0, 0.0, 0.0, 0.0, 0.0, 0.0, 0.0, 0.0, 0.0, 1.676047151266926E9, 0.0, 2023-02-10 11:39:11.266
81.0, 15343.869071468005, 187500.0, 187500.0, 187500.0, -187500.02235174447, 187500.0, -187500.02235174447, -187500.02235174447, -0.034, 0.034, 1.002, 192.0, 0.0, 0.0, 0.0, 0.0, 0.0, 0.0, 0.0, 0.0, 0.0, 1.676047151274872E9, 0.0, 2023-02-10 11:39:11.274
82.0, 15463.562663026174, 187500.0, 187500.0, 187500.0, -187500.02235174447, 187500.0, -187500.02235174447, -187500.02235174447, -0.034, 0.034, 1.002, 192.0, 0.0, 0.0, 0.0, 0.0, 0.0, 0.0, 0.0, 0.0, 0.0, 1.676047151274898E9, 0.0, 2023-02-10 11:39:11.274
83.0, 15510.680140337961, 187500.0, 187500.0, 187500.0, -187500.02235174447, 187500.0, -187500.02235174447, -187500.02235174447, -0.034, 0.034, 1.002, 192.0, 0.0, 0.0, 0.0, 0.0, 0.0, 0.0, 0.0, 0.0, 0.0, 1.676047151281826E9, 0.0, 2023-02-10 11:39:11.281
84.0, 15559.339888017164, 187500.0, 187500.0, 187500.0, -187500.02235174447, 187500.0, -187500.02235174447, -187500.02235174447, -0.034, 0.034, 1.002, 192.0, 0.0, 0.0, 0.0, 0.0, 0.0, 0.0, 0.0, 0.0, 0.0, 1.676047151281854E9, 0.0, 2023-02-10 11:39:11.281
85.0, 15802.526867690905, 187500.0, 187500.0, 187500.0, -187500.02235174447, 187500.0, -187500.02235174447, -187500.02235174447, -0.034, 0.034, 1.002, 192.0, 0.0, 0.0, 0.0, 0.0, 0.0, 0.0, 0.0, 0.0, 0.0, 1.676047151289883E9, 0.0, 2023-02-10 11:39:11.289
86.0, 15311.50374549672, 187500.0, 187500.0, 187500.0, -187500.02235174447, 187500.0, -187500.02235174447, -187500.02235174447, -0.03, 0.032, 0.998, 192.0, 255.0, 16.0, 1.0, 0.0, 31.0, 48.0, 0.0, 0.0, 0.0, 1.676047151296574E9, 0.0, 2023-02-10 11:39:11.296
87.0, 15265.056820518592, 187500.0, 187500.0, 187500.0, -187500.02235174447, 187500.0, -187500.02235174447, -187500.02235174447, -0.03, 0.032, 0.998, 192.0, 0.0, 0.0, 0.0, 0.0, 0.0, 0.0, 0.0, 0.0, 0.0, 1.676047151296608E9, 0.0, 2023-02-10 11:39:11.296
88.0, 15144.133883015382, 187500.0, 187500.0, 187500.0, -187500.02235174447, 187500.0, -187500.02235174447, -187500.02235174447, -0.03, 0.032, 0.998, 192.0, 0.0, 0.0, 0.0, 0.0, 0.0, 0.0, 0.0, 0.0, 0.0, 1.676047151304519E9, 0.0, 2023-02-10 11:39:11.304
89.0, 15434.885374890016, 187500.0, 187500.0, 187500.0, -187500.02235174447, 187500.0, -187500.02235174447, -187500.02235174447, -0.03, 0.032, 0.998, 192.0, 0.0, 0.0, 0.0, 0.0, 0.0, 0.0, 0.0, 0.0, 0.0, 1.676047151304544E9, 0.0, 2023-02-10 11:39:11.304
90.0, 15815.490879474984, 187500.0, 187500.0, 187500.0, -187500.02235174447, 187500.0, -187500.02235174447, -187500.02235174447, -0.03, 0.032, 0.998, 192.0, 0.0, 0.0, 0.0, 0.0, 0.0, 0.0, 0.0, 0.0, 0.0, 1.676047151312418E9, 0.0, 2023-02-10 11:39:11.312
91.0, 15543.470149453897, 187500.0, 187500.0, 187500.0, -187500.02235174447, 187500.0, -187500.02235174447, -187500.02235174447, -0.03, 0.032, 0.998, 192.0, 0.0, 0.0, 0.0, 0.0, 0.0, 0.0, 0.0, 0.0, 0.0, 1.676047151312438E9, 0.0, 2023-02-10 11:39:11.312
92.0, 15539.916222085503, 187500.0, 187500.0, 187500.0, -187500.02235174447, 187500.0, -187500.02235174447, -187500.02235174447, -0.03, 0.032, 0.998, 192.0, 0.0, 0.0, 0.0, 0.0, 0.0, 0.0, 0.0, 0.0, 0.0, 1.676047151319481E9, 0.0, 2023-02-10 11:39:11.319
93.0, 15470.4022968295, 187500.0, 187500.0, 187500.0, -187500.02235174447, 187500.0, -187500.02235174447, -187500.02235174447, -0.03, 0.032, 0.998, 192.0, 0.0, 0.0, 0.0, 0.0, 0.0, 0.0, 0.0, 0.0, 0.0, 1.676047151319499E9, 0.0, 2023-02-10 11:39:11.319
94.0, 15346.551280802641, 187500.0, 187500.0, 187500.0, -187500.02235174447, 187500.0, -187500.02235174447, -187500.02235174447, -0.03, 0.032, 0.998, 192.0, 0.0, 0.0, 0.0, 0.0, 0.0, 0.0, 0.0, 0.0, 0.0, 1.676047151327011E9, 0.0, 2023-02-10 11:39:11.327
95.0, 15308.016873361692, 187500.0, 187500.0, 187500.0, -187500.02235174447, 187500.0, -187500.02235174447, -187500.02235174447, -0.03, 0.032, 0.998, 192.0, 0.0, 0.0, 0.0, 0.0, 0.0, 0.0, 0.0, 0.0, 0.0, 1.676047151327028E9, 0.0, 2023-02-10 11:39:11.327
96.0, 15105.21949591869, 187500.0, 187500.0, 187500.0, -187500.02235174447, 187500.0, -187500.02235174447, -187500.02235174447, -0.03, 0.028, 1.002, 192.0, 255.0, 16.0, 0.0, 224.0, 31.0, 80.0, 0.0, 0.0, 0.0, 1.676047151335004E9, 0.0, 2023-02-10 11:39:11.335
97.0, 15371.94286250387, 187500.0, 187500.0, 187500.0, -187500.02235174447, 187500.0, -187500.02235174447, -187500.02235174447, -0.03, 0.028, 1.002, 192.0, 0.0, 0.0, 0.0, 0.0, 0.0, 0.0, 0.0, 0.0, 0.0, 1.676047151335021E9, 0.0, 2023-02-10 11:39:11.335
98.0, 15367.003126979249, 187500.0, 187500.0, 187500.0, -187500.02235174447, 187500.0, -187500.02235174447, -187500.02235174447, -0.03, 0.028, 1.002, 192.0, 0.0, 0.0, 0.0, 0.0, 0.0, 0.0, 0.0, 0.0, 0.0, 1.676047151342278E9, 0.0, 2023-02-10 11:39:11.342
99.0, 15425.788214896706, 187500.0, 187500.0, 187500.0, -187500.02235174447, 187500.0, -187500.02235174447, -187500.02235174447, -0.03, 0.028, 1.002, 192.0, 0.0, 0.0, 0.0, 0.0, 0.0, 0.0, 0.0, 0.0, 0.0, 1.676047151342301E9, 0.0, 2023-02-10 11:39:11.342
100.0, 16325.736501900734, 187500.0, 187500.0, 187500.0, -187500.02235174447, 187500.0, -187500.02235174447, -187500.02235174447, -0.03, 0.028, 1.002, 192.0, 0.0, 0.0, 0.0, 0.0, 0.0, 0.0, 0.0, 0.0, 0.0, 1.676047151348715E9, 0.0, 2023-02-10 11:39:11.348
101.0, 15587.32427207521, 187500.0, 187500.0, 187500.0, -187500.02235174447, 187500.0, -187500.02235174447, -187500.02235174447, -0.03, 0.028, 1.002, 192.0, 0.0, 0.0, 0.0, 0.0, 0.0, 0.0, 0.0, 0.0, 0.0, 1.676047151356735E9, 0.0, 2023-02-10 11:39:11.356
102.0, 15004.234314469615, 187500.0, 187500.0, 187500.0, -187500.02235174447, 187500.0, -187500.02235174447, -187500.02235174447, -0.03, 0.028, 1.002, 192.0, 0.0, 0.0, 0.0, 0.0, 0.0, 0.0, 0.0, 0.0, 0.0, 1.676047151356764E9, 0.0, 2023-02-10 11:39:11.356
103.0, 15196.10168887397, 187500.0, 187500.0, 187500.0, -187500.02235174447, 187500.0, -187500.02235174447, -187500.02235174447, -0.03, 0.028, 1.002, 192.0, 0.0, 0.0, 0.0, 0.0, 0.0, 0.0, 0.0, 0.0, 0.0, 1.676047151364772E9, 0.0, 2023-02-10 11:39:11.364
104.0, 15408.487964688298, 187500.0, 187500.0, 187500.0, -187500.02235174447, 187500.0, -187500.02235174447, -187500.02235174447, -0.03, 0.028, 1.002, 192.0, 0.0, 0.0, 0.0, 0.0, 0.0, 0.0, 0.0, 0.0, 0.0, 1.676047151364794E9, 0.0, 2023-02-10 11:39:11.364
105.0, 15341.298620855645, 187500.0, 187500.0, 187500.0, -187500.02235174447, 187500.0, -187500.02235174447, -187500.02235174447, -0.03, 0.028, 1.002, 192.0, 0.0, 0.0, 0.0, 0.0, 0.0, 0.0, 0.0, 0.0, 0.0, 1.676047151371946E9, 0.0, 2023-02-10 11:39:11.371
106.0, 15652.680772862528, 187500.0, 187500.0, 187500.0, -187500.02235174447, 187500.0, -187500.02235174447, -187500.02235174447, -0.03, 0.026000000000000002, 1.004, 192.0, 255.0, 16.0, 0.0, 208.0, 31.0, 96.0, 0.0, 0.0, 0.0, 1.676047151371967E9, 0.0, 2023-02-10 11:39:11.371
107.0, 15717.165555616088, 187500.0, 187500.0, 187500.0, -187500.02235174447, 187500.0, -187500.02235174447, -187500.02235174447, -0.03, 0.026000000000000002, 1.004, 192.0, 0.0, 0.0, 0.0, 0.0, 0.0, 0.0, 0.0, 0.0, 0.0, 1.676047151379436E9, 0.0, 2023-02-10 11:39:11.379
108.0, 15409.538496677698, 187500.0, 187500.0, 187500.0, -187500.02235174447, 187500.0, -187500.02235174447, -187500.02235174447, -0.03, 0.026000000000000002, 1.004, 192.0, 0.0, 0.0, 0.0, 0.0, 0.0, 0.0, 0.0, 0.0, 0.0, 1.67604715137946E9, 0.0, 2023-02-10 11:39:11.379
109.0, 15500.219523932878, 187500.0, 187500.0, 187500.0, -187500.02235174447, 187500.0, -187500.02235174447, -187500.02235174447, -0.03, 0.026000000000000002, 1.004, 192.0, 0.0, 0.0, 0.0, 0.0, 0.0, 0.0, 0.0, 0.0, 0.0, 1.676047151387326E9, 0.0, 2023-02-10 11:39:11.387
110.0, 15334.056655652126, 187500.0, 187500.0, 187500.0, -187500.02235174447, 187500.0, -187500.02235174447, -187500.02235174447, -0.03, 0.026000000000000002, 1.004, 192.0, 0.0, 0.0, 0.0, 0.0, 0.0, 0.0, 0.0, 0.0, 0.0, 1.676047151387349E9, 0.0, 2023-02-10 11:39:11.387
111.0, 15471.452828818898, 187500.0, 187500.0, 187500.0, -187500.02235174447, 187500.0, -187500.02235174447, -187500.02235174447, -0.03, 0.026000000000000002, 1.004, 192.0, 0.0, 0.0, 0.0, 0.0, 0.0, 0.0, 0.0, 0.0, 0.0, 1.676047151395388E9, 0.0, 2023-02-10 11:39:11.395
112.0, 15528.717998113394, 187500.0, 187500.0, 187500.0, -187500.02235174447, 187500.0, -187500.02235174447, -187500.02235174447, -0.03, 0.026000000000000002, 1.004, 192.0, 0.0, 0.0, 0.0, 0.0, 0.0, 0.0, 0.0, 0.0, 0.0, 1.67604715139541E9, 0.0, 2023-02-10 11:39:11.395
113.0, 15675.72542139595, 187500.0, 187500.0, 187500.0, -187500.02235174447, 187500.0, -187500.02235174447, -187500.02235174447, -0.03, 0.026000000000000002, 1.004, 192.0, 0.0, 0.0, 0.0, 0.0, 0.0, 0.0, 0.0, 0.0, 0.0, 1.676047151402006E9, 0.0, 2023-02-10 11:39:11.402
114.0, 15751.45313161053, 187500.0, 187500.0, 187500.0, -187500.02235174447, 187500.0, -187500.02235174447, -187500.02235174447, -0.03, 0.026000000000000002, 1.004, 192.0, 0.0, 0.0, 0.0, 0.0, 0.0, 0.0, 0.0, 0.0, 0.0, 1.676047151402031E9, 0.0, 2023-02-10 11:39:11.402
115.0, 15184.098802101471, 187500.0, 187500.0, 187500.0, -187500.02235174447, 187500.0, -187500.02235174447, -187500.02235174447, -0.03, 0.026000000000000002, 1.004, 192.0, 0.0, 0.0, 0.0, 0.0, 0.0, 0.0, 0.0, 0.0, 0.0, 1.676047151408902E9, 0.0, 2023-02-10 11:39:11.408
116.0, 15030.609372926876, 187500.0, 187500.0, 187500.0, -187500.02235174447, 187500.0, -187500.02235174447, -187500.02235174447, -0.03, 0.028, 1.004, 192.0, 255.0, 16.0, 0.0, 224.0, 31.0, 96.0, 0.0, 0.0, 0.0, 1.676047151416885E9, 0.0, 2023-02-10 11:39:11.416
117.0, 15409.940828077893, 187500.0, 187500.0, 187500.0, -187500.02235174447, 187500.0, -187500.02235174447, -187500.02235174447, -0.03, 0.028, 1.004, 192.0, 0.0, 0.0, 0.0, 0.0, 0.0, 0.0, 0.0, 0.0, 0.0, 1.676047151416906E9, 0.0, 2023-02-10 11:39:11.416
118.0, 15267.02377403066, 187500.0, 187500.0, 187500.0, -187500.02235174447, 187500.0, -187500.02235174447, -187500.02235174447, -0.03, 0.028, 1.004, 192.0, 0.0, 0.0, 0.0, 0.0, 0.0, 0.0, 0.0, 0.0, 0.0, 1.676047151424909E9, 0.0, 2023-02-10 11:39:11.424
119.0, 15209.333921591511, 187500.0, 187500.0, 187500.0, -187500.02235174447, 187500.0, -187500.02235174447, -187500.02235174447, -0.03, 0.028, 1.004, 192.0, 0.0, 0.0, 0.0, 0.0, 0.0, 0.0, 0.0, 0.0, 0.0, 1.676047151424924E9, 0.0, 2023-02-10 11:39:11.424
120.0, 15944.281631026464, 187500.0, 187500.0, 187500.0, -187500.02235174447, 187500.0, -187500.02235174447, -187500.02235174447, -0.03, 0.028, 1.004, 192.0, 0.0, 0.0, 0.0, 0.0, 0.0, 0.0, 0.0, 0.0, 0.0, 1.676047151431503E9, 0.0, 2023-02-10 11:39:11.431
121.0, 15817.770757409426, 187500.0, 187500.0, 187500.0, -187500.02235174447, 187500.0, -187500.02235174447, -187500.02235174447, -0.03, 0.028, 1.004, 192.0, 0.0, 0.0, 0.0, 0.0, 0.0, 0.0, 0.0, 0.0, 0.0, 1.676047151431519E9, 0.0, 2023-02-10 11:39:11.431
122.0, 15351.55807156063, 187500.0, 187500.0, 187500.0, -187500.02235174447, 187500.0, -187500.02235174447, -187500.02235174447, -0.03, 0.028, 1.004, 192.0, 0.0, 0.0, 0.0, 0.0, 0.0, 0.0, 0.0, 0.0, 0.0, 1.67604715143997E9, 0.0, 2023-02-10 11:39:11.439
123.0, 14906.020749332994, 187500.0, 187500.0, 187500.0, -187500.02235174447, 187500.0, -187500.02235174447, -187500.02235174447, -0.03, 0.028, 1.004, 192.0, 0.0, 0.0, 0.0, 0.0, 0.0, 0.0, 0.0, 0.0, 0.0, 1.676047151440024E9, 0.0, 2023-02-10 11:39:11.440
124.0, 15033.425692728246, 187500.0, 187500.0, 187500.0, -187500.02235174447, 187500.0, -187500.02235174447, -187500.02235174447, -0.03, 0.028, 1.004, 192.0, 0.0, 0.0, 0.0, 0.0, 0.0, 0.0, 0.0, 0.0, 0.0, 1.676047151447606E9, 0.0, 2023-02-10 11:39:11.447
125.0, 16037.063722260444, 187500.0, 187500.0, 187500.0, -187500.02235174447, 187500.0, -187500.02235174447, -187500.02235174447, -0.032, 0.03, 0.998, 192.0, 255.0, 0.0, 0.0, 240.0, 31.0, 48.0, 0.0, 0.0, 0.0, 1.676047151447634E9, 0.0, 2023-02-10 11:39:11.447
126.0, 15788.624082639704, 187500.0, 187500.0, 187500.0, -187500.02235174447, 187500.0, -187500.02235174447, -187500.02235174447, -0.032, 0.03, 0.998, 192.0, 0.0, 0.0, 0.0, 0.0, 0.0, 0.0, 0.0, 0.0, 0.0, 1.676047151454692E9, 0.0, 2023-02-10 11:39:11.454
127.0, 15641.61665935715, 187500.0, 187500.0, 187500.0, -187500.02235174447, 187500.0, -187500.02235174447, -187500.02235174447, -0.032, 0.03, 0.998, 192.0, 0.0, 0.0, 0.0, 0.0, 0.0, 0.0, 0.0, 0.0, 0.0, 1.676047151454714E9, 0.0, 2023-02-10 11:39:11.454
128.0, 15753.464788611507, 187500.0, 187500.0, 187500.0, -187500.02235174447, 187500.0, -187500.02235174447, -187500.02235174447, -0.032, 0.03, 0.998, 192.0, 0.0, 0.0, 0.0, 0.0, 0.0, 0.0, 0.0, 0.0, 0.0, 1.676047151462366E9, 0.0, 2023-02-10 11:39:11.462
129.0, 15348.697048270351, 187500.0, 187500.0, 187500.0, -187500.02235174447, 187500.0, -187500.02235174447, -187500.02235174447, -0.032, 0.03, 0.998, 192.0, 0.0, 0.0, 0.0, 0.0, 0.0, 0.0, 0.0, 0.0, 0.0, 1.676047151462397E9, 0.0, 2023-02-10 11:39:11.462
130.0, 14974.43943911069, 187500.0, 187500.0, 187500.0, -187500.02235174447, 187500.0, -187500.02235174447, -187500.02235174447, -0.032, 0.03, 0.998, 192.0, 0.0, 0.0, 0.0, 0.0, 0.0, 0.0, 0.0, 0.0, 0.0, 1.676047151469315E9, 0.0, 2023-02-10 11:39:11.469
131.0, 15507.774413558773, 187500.0, 187500.0, 187500.0, -187500.02235174447, 187500.0, -187500.02235174447, -187500.02235174447, -0.032, 0.03, 0.998, 192.0, 0.0, 0.0, 0.0, 0.0, 0.0, 0.0, 0.0, 0.0, 0.0, 1.676047151477403E9, 0.0, 2023-02-10 11:39:11.477
132.0, 16352.066856869085, 187500.0, 187500.0, 187500.0, -187500.02235174447, 187500.0, -187500.02235174447, -187500.02235174447, -0.032, 0.03, 0.998, 192.0, 0.0, 0.0, 0.0, 0.0, 0.0, 0.0, 0.0, 0.0, 0.0, 1.676047151477429E9, 0.0, 2023-02-10 11:39:11.477
133.0, 15756.281108412875, 187500.0, 187500.0, 187500.0, -187500.02235174447, 187500.0, -187500.02235174447, -187500.02235174447, -0.032, 0.03, 0.998, 192.0, 0.0, 0.0, 0.0, 0.0, 0.0, 0.0, 0.0, 0.0, 0.0, 1.676047151484621E9, 0.0, 2023-02-10 11:39:11.484
134.0, 14963.285918627493, 187500.0, 187500.0, 187500.0, -187500.02235174447, 187500.0, -187500.02235174447, -187500.02235174447, -0.032, 0.03, 0.998, 192.0, 0.0, 0.0, 0.0, 0.0, 0.0, 0.0, 0.0, 0.0, 0.0, 1.676047151484643E9, 0.0, 2023-02-10 11:39:11.484
135.0, 15261.525244894654, 187500.0, 187500.0, 187500.0, -187500.02235174447, 187500.0, -187500.02235174447, -187500.02235174447, -0.03, 0.03, 0.998, 192.0, 255.0, 16.0, 0.0, 240.0, 31.0, 48.0, 0.0, 0.0, 0.0, 1.676047151492677E9, 0.0, 2023-02-10 11:39:11.492
136.0, 15397.490906416288, 187500.0, 187500.0, 187500.0, -187500.02235174447, 187500.0, -187500.02235174447, -187500.02235174447, -0.03, 0.03, 0.998, 192.0, 0.0, 0.0, 0.0, 0.0, 0.0, 0.0, 0.0, 0.0, 0.0, 1.676047151492698E9, 0.0, 2023-02-10 11:39:11.492
137.0, 14616.833879570233, 187500.0, 187500.0, 187500.0, -187500.02235174447, 187500.0, -187500.02235174447, -187500.02235174447, -0.03, 0.03, 0.998, 192.0, 0.0, 0.0, 0.0, 0.0, 0.0, 0.0, 0.0, 0.0, 0.0, 1.67604715149923E9, 0.0, 2023-02-10 11:39:11.499
138.0, 15194.805287695563, 187500.0, 187500.0, 187500.0, -187500.02235174447, 187500.0, -187500.02235174447, -187500.02235174447, -0.03, 0.03, 0.998, 192.0, 0.0, 0.0, 0.0, 0.0, 0.0, 0.0, 0.0, 0.0, 0.0, 1.676047151499252E9, 0.0, 2023-02-10 11:39:11.499
139.0, 16263.419838359338, 187500.0, 187500.0, 187500.0, -187500.02235174447, 187500.0, -187500.02235174447, -187500.02235174447, -0.03, 0.03, 0.998, 192.0, 0.0, 0.0, 0.0, 0.0, 0.0, 0.0, 0.0, 0.0, 0.0, 1.676047151507189E9, 0.0, 2023-02-10 11:39:11.507
140.0, 16180.62897689688, 187500.0, 187500.0, 187500.0, -187500.02235174447, 187500.0, -187500.02235174447, -187500.02235174447, -0.03, 0.03, 0.998, 192.0, 0.0, 0.0, 0.0, 0.0, 0.0, 0.0, 0.0, 0.0, 0.0, 1.676047151507213E9, 0.0, 2023-02-10 11:39:11.507
141.0, 15729.59312553324, 187500.0, 187500.0, 187500.0, -187500.02235174447, 187500.0, -187500.02235174447, -187500.02235174447, -0.03, 0.03, 0.998, 192.0, 0.0, 0.0, 0.0, 0.0, 0.0, 0.0, 0.0, 0.0, 0.0, 1.676047151515208E9, 0.0, 2023-02-10 11:39:11.515
142.0, 15164.33986000298, 187500.0, 187500.0, 187500.0, -187500.02235174447, 187500.0, -187500.02235174447, -187500.02235174447, -0.03, 0.03, 0.998, 192.0, 0.0, 0.0, 0.0, 0.0, 0.0, 0.0, 0.0, 0.0, 0.0, 1.676047151515229E9, 0.0, 2023-02-10 11:39:11.515
143.0, 14997.037052755006, 187500.0, 187500.0, 187500.0, -187500.02235174447, 187500.0, -187500.02235174447, -187500.02235174447, -0.03, 0.03, 0.998, 192.0, 0.0, 0.0, 0.0, 0.0, 0.0, 0.0, 0.0, 0.0, 0.0, 1.676047151522367E9, 0.0, 2023-02-10 11:39:11.522
144.0, 15388.840781312083, 187500.0, 187500.0, 187500.0, -187500.02235174447, 187500.0, -187500.02235174447, -187500.02235174447, -0.03, 0.03, 0.998, 192.0, 0.0, 0.0, 0.0, 0.0, 0.0, 0.0, 0.0, 0.0, 0.0, 1.676047151522384E9, 0.0, 2023-02-10 11:39:11.522
145.0, 15611.978246209414, 187500.0, 187500.0, 187500.0, -187500.02235174447, 187500.0, -187500.02235174447, -187500.02235174447, -0.032, 0.038, 0.996, 192.0, 255.0, 0.0, 1.0, 48.0, 31.0, 32.0, 0.0, 0.0, 0.0, 1.676047151528819E9, 0.0, 2023-02-10 11:39:11.528
146.0, 15553.595489692152, 187500.0, 187500.0, 187500.0, -187500.02235174447, 187500.0, -187500.02235174447, -187500.02235174447, -0.032, 0.038, 0.996, 192.0, 0.0, 0.0, 0.0, 0.0, 0.0, 0.0, 0.0, 0.0, 0.0, 1.676047151528928E9, 0.0, 2023-02-10 11:39:11.528
147.0, 15756.146997946144, 187500.0, 187500.0, 187500.0, -187500.02235174447, 187500.0, -187500.02235174447, -187500.02235174447, -0.032, 0.038, 0.996, 192.0, 0.0, 0.0, 0.0, 0.0, 0.0, 0.0, 0.0, 0.0, 0.0, 1.676047151536923E9, 0.0, 2023-02-10 11:39:11.536
148.0, 15793.541466419872, 187500.0, 187500.0, 187500.0, -187500.02235174447, 187500.0, -187500.02235174447, -187500.02235174447, -0.032, 0.038, 0.996, 192.0, 0.0, 0.0, 0.0, 0.0, 0.0, 0.0, 0.0, 0.0, 0.0, 1.676047151544907E9, 0.0, 2023-02-10 11:39:11.544
149.0, 15616.068615444734, 187500.0, 187500.0, 187500.0, -187500.02235174447, 187500.0, -187500.02235174447, -187500.02235174447, -0.032, 0.038, 0.996, 192.0, 0.0, 0.0, 0.0, 0.0, 0.0, 0.0, 0.0, 0.0, 0.0, 1.676047151544931E9, 0.0, 2023-02-10 11:39:11.544
150.0, 15231.216279413258, 187500.0, 187500.0, 187500.0, -187500.02235174447, 187500.0, -187500.02235174447, -187500.02235174447, -0.032, 0.038, 0.996, 192.0, 0.0, 0.0, 0.0, 0.0, 0.0, 0.0, 0.0, 0.0, 0.0, 1.676047151552071E9, 0.0, 2023-02-10 11:39:11.552
151.0, 15180.790743922085, 187500.0, 187500.0, 187500.0, -187500.02235174447, 187500.0, -187500.02235174447, -187500.02235174447, -0.032, 0.038, 0.996, 192.0, 0.0, 0.0, 0.0, 0.0, 0.0, 0.0, 0.0, 0.0, 0.0, 1.676047151552093E9, 0.0, 2023-02-10 11:39:11.552
152.0, 15310.229696062768, 187500.0, 187500.0, 187500.0, -187500.02235174447, 187500.0, -187500.02235174447, -187500.02235174447, -0.032, 0.038, 0.996, 192.0, 0.0, 0.0, 0.0, 0.0, 0.0, 0.0, 0.0, 0.0, 0.0, 1.676047151559456E9, 0.0, 2023-02-10 11:39:11.559
153.0, 15762.74076256046, 187500.0, 187500.0, 187500.0, -187500.02235174447, 187500.0, -187500.02235174447, -187500.02235174447, -0.032, 0.038, 0.996, 192.0, 0.0, 0.0, 0.0, 0.0, 0.0, 0.0, 0.0, 0.0, 0.0, 1.676047151559477E9, 0.0, 2023-02-10 11:39:11.559
154.0, 15568.302937543744, 187500.0, 187500.0, 187500.0, -187500.02235174447, 187500.0, -187500.02235174447, -187500.02235174447, -0.032, 0.038, 0.996, 192.0, 0.0, 0.0, 0.0, 0.0, 0.0, 0.0, 0.0, 0.0, 0.0, 1.676047151567808E9, 0.0, 2023-02-10 11:39:11.567
155.0, 15290.336643497545, 187500.0, 187500.0, 187500.0, -187500.02235174447, 187500.0, -187500.02235174447, -187500.02235174447, -0.028, 0.032, 0.994, 192.0, 255.0, 32.0, 1.0, 0.0, 31.0, 16.0, 0.0, 0.0, 0.0, 1.676047151567859E9, 0.0, 2023-02-10 11:39:11.567
156.0, 15435.041837101202, 187500.0, 187500.0, 187500.0, -187500.02235174447, 187500.0, -187500.02235174447, -187500.02235174447, -0.028, 0.032, 0.994, 192.0, 0.0, 0.0, 0.0, 0.0, 0.0, 0.0, 0.0, 0.0, 0.0, 1.676047151576131E9, 0.0, 2023-02-10 11:39:11.576
157.0, 15720.227744606465, 187500.0, 187500.0, 187500.0, -187500.02235174447, 187500.0, -187500.02235174447, -187500.02235174447, -0.028, 0.032, 0.994, 192.0, 0.0, 0.0, 0.0, 0.0, 0.0, 0.0, 0.0, 0.0, 0.0, 1.676047151576154E9, 0.0, 2023-02-10 11:39:11.576
158.0, 15459.829921702138, 187500.0, 187500.0, 187500.0, -187500.02235174447, 187500.0, -187500.02235174447, -187500.02235174447, -0.028, 0.032, 0.994, 192.0, 0.0, 0.0, 0.0, 0.0, 0.0, 0.0, 0.0, 0.0, 0.0, 1.676047151582408E9, 0.0, 2023-02-10 11:39:11.582
159.0, 15334.347228330045, 187500.0, 187500.0, 187500.0, -187500.02235174447, 187500.0, -187500.02235174447, -187500.02235174447, -0.028, 0.032, 0.994, 192.0, 0.0, 0.0, 0.0, 0.0, 0.0, 0.0, 0.0, 0.0, 0.0, 1.676047151582432E9, 0.0, 2023-02-10 11:39:11.582
160.0, 15845.08458913381, 187500.0, 187500.0, 187500.0, -187500.02235174447, 187500.0, -187500.02235174447, -187500.02235174447, -0.028, 0.032, 0.994, 192.0, 0.0, 0.0, 0.0, 0.0, 0.0, 0.0, 0.0, 0.0, 0.0, 1.676047151590085E9, 0.0, 2023-02-10 11:39:11.590
161.0, 15719.780709717359, 187500.0, 187500.0, 187500.0, -187500.02235174447, 187500.0, -187500.02235174447, -187500.02235174447, -0.028, 0.032, 0.994, 192.0, 0.0, 0.0, 0.0, 0.0, 0.0, 0.0, 0.0, 0.0, 0.0, 1.676047151590221E9, 0.0, 2023-02-10 11:39:11.590
162.0, 15230.00928521267, 187500.0, 187500.0, 187500.0, -187500.02235174447, 187500.0, -187500.02235174447, -187500.02235174447, -0.028, 0.032, 0.994, 192.0, 0.0, 0.0, 0.0, 0.0, 0.0, 0.0, 0.0, 0.0, 0.0, 1.676047151597189E9, 0.0, 2023-02-10 11:39:11.597
163.0, 14666.90178715012, 187500.0, 187500.0, 187500.0, -187500.02235174447, 187500.0, -187500.02235174447, -187500.02235174447, -0.028, 0.032, 0.994, 192.0, 0.0, 0.0, 0.0, 0.0, 0.0, 0.0, 0.0, 0.0, 0.0, 1.676047151604313E9, 0.0, 2023-02-10 11:39:11.604
164.0, 15494.2069046744, 187500.0, 187500.0, 187500.0, -187500.02235174447, 187500.0, -187500.02235174447, -187500.02235174447, -0.028, 0.032, 0.994, 192.0, 0.0, 0.0, 0.0, 0.0, 0.0, 0.0, 0.0, 0.0, 0.0, 1.676047151604334E9, 0.0, 2023-02-10 11:39:11.604
165.0, 16819.732406107476, 187500.0, 187500.0, 187500.0, -187500.02235174447, 187500.0, -187500.02235174447, -187500.02235174447, -0.032, 0.028, 0.992, 192.0, 255.0, 0.0, 0.0, 224.0, 31.0, 0.0, 0.0, 0.0, 0.0, 1.67604715161171E9, 0.0, 2023-02-10 11:39:11.611
166.0, 15988.247512370053, 187500.0, 187500.0, 187500.0, -187500.02235174447, 187500.0, -187500.02235174447, -187500.02235174447, -0.032, 0.028, 0.992, 192.0, 0.0, 0.0, 0.0, 0.0, 0.0, 0.0, 0.0, 0.0, 0.0, 1.676047151611731E9, 0.0, 2023-02-10 11:39:11.611
167.0, 14760.197968506573, 187500.0, 187500.0, 187500.0, -187500.02235174447, 187500.0, -187500.02235174447, -187500.02235174447, -0.032, 0.028, 0.992, 192.0, 0.0, 0.0, 0.0, 0.0, 0.0, 0.0, 0.0, 0.0, 0.0, 1.676047151619654E9, 0.0, 2023-02-10 11:39:11.619
168.0, 14764.802427864364, 187500.0, 187500.0, 187500.0, -187500.02235174447, 187500.0, -187500.02235174447, -187500.02235174447, -0.032, 0.028, 0.992, 192.0, 0.0, 0.0, 0.0, 0.0, 0.0, 0.0, 0.0, 0.0, 0.0, 1.676047151619677E9, 0.0, 2023-02-10 11:39:11.619
169.0, 15709.789479945837, 187500.0, 187500.0, 187500.0, -187500.02235174447, 187500.0, -187500.02235174447, -187500.02235174447, -0.032, 0.028, 0.992, 192.0, 0.0, 0.0, 0.0, 0.0, 0.0, 0.0, 0.0, 0.0, 0.0, 1.676047151627864E9, 0.0, 2023-02-10 11:39:11.627
170.0, 15751.54253858835, 187500.0, 187500.0, 187500.0, -187500.02235174447, 187500.0, -187500.02235174447, -187500.02235174447, -0.032, 0.028, 0.992, 192.0, 0.0, 0.0, 0.0, 0.0, 0.0, 0.0, 0.0, 0.0, 0.0, 1.676047151627894E9, 0.0, 2023-02-10 11:39:11.627
171.0, 15700.446450763518, 187500.0, 187500.0, 187500.0, -187500.02235174447, 187500.0, -187500.02235174447, -187500.02235174447, -0.032, 0.028, 0.992, 192.0, 0.0, 0.0, 0.0, 0.0, 0.0, 0.0, 0.0, 0.0, 0.0, 1.676047151634482E9, 0.0, 2023-02-10 11:39:11.634
172.0, 15521.274867209777, 187500.0, 187500.0, 187500.0, -187500.02235174447, 187500.0, -187500.02235174447, -187500.02235174447, -0.032, 0.028, 0.992, 192.0, 0.0, 0.0, 0.0, 0.0, 0.0, 0.0, 0.0, 0.0, 0.0, 1.67604715163451E9, 0.0, 2023-02-10 11:39:11.634
173.0, 15590.408812810043, 187500.0, 187500.0, 187500.0, -187500.02235174447, 187500.0, -187500.02235174447, -187500.02235174447, -0.032, 0.028, 0.992, 192.0, 0.0, 0.0, 0.0, 0.0, 0.0, 0.0, 0.0, 0.0, 0.0, 1.676047151642526E9, 0.0, 2023-02-10 11:39:11.642
174.0, 15644.835310558716, 187500.0, 187500.0, 187500.0, -187500.02235174447, 187500.0, -187500.02235174447, -187500.02235174447, -0.032, 0.028, 0.994, 192.0, 255.0, 0.0, 0.0, 224.0, 31.0, 16.0, 0.0, 0.0, 0.0, 1.676047151642582E9, 0.0, 2023-02-10 11:39:11.642
175.0, 15436.204127812878, 187500.0, 187500.0, 187500.0, -187500.02235174447, 187500.0, -187500.02235174447, -187500.02235174447, -0.032, 0.028, 0.994, 192.0, 0.0, 0.0, 0.0, 0.0, 0.0, 0.0, 0.0, 0.0, 0.0, 1.676047151650424E9, 0.0, 2023-02-10 11:39:11.650
176.0, 15263.983936784738, 187500.0, 187500.0, 187500.0, -187500.02235174447, 187500.0, -187500.02235174447, -187500.02235174447, -0.032, 0.028, 0.994, 192.0, 0.0, 0.0, 0.0, 0.0, 0.0, 0.0, 0.0, 0.0, 0.0, 1.676047151650531E9, 0.0, 2023-02-10 11:39:11.650
177.0, 15552.991992591858, 187500.0, 187500.0, 187500.0, -187500.02235174447, 187500.0, -187500.02235174447, -187500.02235174447, -0.032, 0.028, 0.994, 192.0, 0.0, 0.0, 0.0, 0.0, 0.0, 0.0, 0.0, 0.0, 0.0, 1.676047151657571E9, 0.0, 2023-02-10 11:39:11.657
178.0, 15461.05926764718, 187500.0, 187500.0, 187500.0, -187500.02235174447, 187500.0, -187500.02235174447, -187500.02235174447, -0.032, 0.028, 0.994, 192.0, 0.0, 0.0, 0.0, 0.0, 0.0, 0.0, 0.0, 0.0, 0.0, 1.676047151663995E9, 0.0, 2023-02-10 11:39:11.663
179.0, 15439.556889481175, 187500.0, 187500.0, 187500.0, -187500.02235174447, 187500.0, -187500.02235174447, -187500.02235174447, -0.032, 0.028, 0.994, 192.0, 0.0, 0.0, 0.0, 0.0, 0.0, 0.0, 0.0, 0.0, 0.0, 1.67604715166402E9, 0.0, 2023-02-10 11:39:11.664
180.0, 15633.324162164232, 187500.0, 187500.0, 187500.0, -187500.02235174447, 187500.0, -187500.02235174447, -187500.02235174447, -0.032, 0.028, 0.994, 192.0, 0.0, 0.0, 0.0, 0.0, 0.0, 0.0, 0.0, 0.0, 0.0, 1.676047151672126E9, 0.0, 2023-02-10 11:39:11.672
181.0, 15647.294002448798, 187500.0, 187500.0, 187500.0, -187500.02235174447, 187500.0, -187500.02235174447, -187500.02235174447, -0.032, 0.028, 0.994, 192.0, 0.0, 0.0, 0.0, 0.0, 0.0, 0.0, 0.0, 0.0, 0.0, 1.676047151672148E9, 0.0, 2023-02-10 11:39:11.672
182.0, 15770.630928353183, 187500.0, 187500.0, 187500.0, -187500.02235174447, 187500.0, -187500.02235174447, -187500.02235174447, -0.032, 0.028, 0.994, 192.0, 0.0, 0.0, 0.0, 0.0, 0.0, 0.0, 0.0, 0.0, 0.0, 1.676047151680164E9, 0.0, 2023-02-10 11:39:11.680
183.0, 15523.130061999567, 187500.0, 187500.0, 187500.0, -187500.02235174447, 187500.0, -187500.02235174447, -187500.02235174447, -0.032, 0.028, 0.994, 192.0, 0.0, 0.0, 0.0, 0.0, 0.0, 0.0, 0.0, 0.0, 0.0, 1.676047151680194E9, 0.0, 2023-02-10 11:39:11.680
184.0, 15357.593042563563, 187500.0, 187500.0, 187500.0, -187500.02235174447, 187500.0, -187500.02235174447, -187500.02235174447, -0.03, 0.028, 1.0, 192.0, 255.0, 16.0, 0.0, 224.0, 31.0, 64.0, 0.0, 0.0, 0.0, 1.676047151687149E9, 0.0, 2023-02-10 11:39:11.687
185.0, 15493.357538385098, 187500.0, 187500.0, 187500.0, -187500.02235174447, 187500.0, -187500.02235174447, -187500.02235174447, -0.03, 0.028, 1.0, 192.0, 0.0, 0.0, 0.0, 0.0, 0.0, 0.0, 0.0, 0.0, 0.0, 1.676047151687171E9, 0.0, 2023-02-10 11:39:11.687
186.0, 15510.948361271425, 187500.0, 187500.0, 187500.0, -187500.02235174447, 187500.0, -187500.02235174447, -187500.02235174447, -0.03, 0.028, 1.0, 192.0, 0.0, 0.0, 0.0, 0.0, 0.0, 0.0, 0.0, 0.0, 0.0, 1.676047151694582E9, 0.0, 2023-02-10 11:39:11.694
187.0, 15408.800889110673, 187500.0, 187500.0, 187500.0, -187500.02235174447, 187500.0, -187500.02235174447, -187500.02235174447, -0.03, 0.028, 1.0, 192.0, 0.0, 0.0, 0.0, 0.0, 0.0, 0.0, 0.0, 0.0, 0.0, 1.676047151694605E9, 0.0, 2023-02-10 11:39:11.694
188.0, 15519.777300331272, 187500.0, 187500.0, 187500.0, -187500.02235174447, 187500.0, -187500.02235174447, -187500.02235174447, -0.03, 0.028, 1.0, 192.0, 0.0, 0.0, 0.0, 0.0, 0.0, 0.0, 0.0, 0.0, 0.0, 1.676047151702572E9, 0.0, 2023-02-10 11:39:11.702
189.0, 15302.27247503668, 187500.0, 187500.0, 187500.0, -187500.02235174447, 187500.0, -187500.02235174447, -187500.02235174447, -0.03, 0.028, 1.0, 192.0, 0.0, 0.0, 0.0, 0.0, 0.0, 0.0, 0.0, 0.0, 0.0, 1.67604715170259E9, 0.0, 2023-02-10 11:39:11.702
190.0, 15154.527444187099, 187500.0, 187500.0, 187500.0, -187500.02235174447, 187500.0, -187500.02235174447, -187500.02235174447, -0.03, 0.028, 1.0, 192.0, 0.0, 0.0, 0.0, 0.0, 0.0, 0.0, 0.0, 0.0, 0.0, 1.67604715170973E9, 0.0, 2023-02-10 11:39:11.709
191.0, 15475.699660265407, 187500.0, 187500.0, 187500.0, -187500.02235174447, 187500.0, -187500.02235174447, -187500.02235174447, -0.03, 0.028, 1.0, 192.0, 0.0, 0.0, 0.0, 0.0, 0.0, 0.0, 0.0, 0.0, 0.0, 1.676047151709822E9, 0.0, 2023-02-10 11:39:11.709
192.0, 15870.81144700187, 187500.0, 187500.0, 187500.0, -187500.02235174447, 187500.0, -187500.02235174447, -187500.02235174447, -0.03, 0.028, 1.0, 192.0, 0.0, 0.0, 0.0, 0.0, 0.0, 0.0, 0.0, 0.0, 0.0, 1.676047151716368E9, 0.0, 2023-02-10 11:39:11.716
193.0, 15393.959330792348, 187500.0, 187500.0, 187500.0, -187500.02235174447, 187500.0, -187500.02235174447, -187500.02235174447, -0.03, 0.028, 1.0, 192.0, 0.0, 0.0, 0.0, 0.0, 0.0, 0.0, 0.0, 0.0, 0.0, 1.676047151724244E9, 0.0, 2023-02-10 11:39:11.724
194.0, 15356.117827429514, 187500.0, 187500.0, 187500.0, -187500.02235174447, 187500.0, -187500.02235174447, -187500.02235174447, -0.032, 0.034, 0.996, 192.0, 255.0, 0.0, 1.0, 16.0, 31.0, 32.0, 0.0, 0.0, 0.0, 1.676047151724267E9, 0.0, 2023-02-10 11:39:11.724
195.0, 15339.242260365756, 187500.0, 187500.0, 187500.0, -187500.02235174447, 187500.0, -187500.02235174447, -187500.02235174447, -0.032, 0.034, 0.996, 192.0, 0.0, 0.0, 0.0, 0.0, 0.0, 0.0, 0.0, 0.0, 0.0, 1.676047151732351E9, 0.0, 2023-02-10 11:39:11.732
196.0, 15786.724184361005, 187500.0, 187500.0, 187500.0, -187500.02235174447, 187500.0, -187500.02235174447, -187500.02235174447, -0.032, 0.034, 0.996, 192.0, 0.0, 0.0, 0.0, 0.0, 0.0, 0.0, 0.0, 0.0, 0.0, 1.676047151732379E9, 0.0, 2023-02-10 11:39:11.732
197.0, 15741.171329161089, 187500.0, 187500.0, 187500.0, -187500.02235174447, 187500.0, -187500.02235174447, -187500.02235174447, -0.032, 0.034, 0.996, 192.0, 0.0, 0.0, 0.0, 0.0, 0.0, 0.0, 0.0, 0.0, 0.0, 1.676047151739347E9, 0.0, 2023-02-10 11:39:11.739
198.0, 15691.05871809229, 187500.0, 187500.0, 187500.0, -187500.02235174447, 187500.0, -187500.02235174447, -187500.02235174447, -0.032, 0.034, 0.996, 192.0, 0.0, 0.0, 0.0, 0.0, 0.0, 0.0, 0.0, 0.0, 0.0, 1.676047151739367E9, 0.0, 2023-02-10 11:39:11.739
199.0, 15685.314319767276, 187500.0, 187500.0, 187500.0, -187500.02235174447, 187500.0, -187500.02235174447, -187500.02235174447, -0.032, 0.034, 0.996, 192.0, 0.0, 0.0, 0.0, 0.0, 0.0, 0.0, 0.0, 0.0, 0.0, 1.676047151746916E9, 0.0, 2023-02-10 11:39:11.746
200.0, 15196.079337129515, 187500.0, 187500.0, 187500.0, -187500.02235174447, 187500.0, -187500.02235174447, -187500.02235174447, -0.032, 0.034, 0.996, 192.0, 0.0, 0.0, 0.0, 0.0, 0.0, 0.0, 0.0, 0.0, 0.0, 1.676047151746937E9, 0.0, 2023-02-10 11:39:11.746
201.0, 15475.20792188739, 187500.0, 187500.0, 187500.0, -187500.02235174447, 187500.0, -187500.02235174447, -187500.02235174447, -0.032, 0.034, 0.996, 192.0, 0.0, 0.0, 0.0, 0.0, 0.0, 0.0, 0.0, 0.0, 0.0, 1.676047151754979E9, 0.0, 2023-02-10 11:39:11.754
202.0, 15902.617979361772, 187500.0, 187500.0, 187500.0, -187500.02235174447, 187500.0, -187500.02235174447, -187500.02235174447, -0.032, 0.034, 0.996, 192.0, 0.0, 0.0, 0.0, 0.0, 0.0, 0.0, 0.0, 0.0, 0.0, 1.676047151755002E9, 0.0, 2023-02-10 11:39:11.755
203.0, 15635.67109533204, 187500.0, 187500.0, 187500.0, -187500.02235174447, 187500.0, -187500.02235174447, -187500.02235174447, -0.032, 0.034, 0.996, 192.0, 0.0, 0.0, 0.0, 0.0, 0.0, 0.0, 0.0, 0.0, 0.0, 1.676047151763035E9, 0.0, 2023-02-10 11:39:11.763
204.0, 15563.98905086387, 187500.0, 187500.0, 187500.0, -187500.02235174447, 187500.0, -187500.02235174447, -187500.02235174447, -0.032, 0.042, 0.992, 192.0, 255.0, 0.0, 1.0, 80.0, 31.0, 0.0, 0.0, 0.0, 0.0, 1.676047151763071E9, 0.0, 2023-02-10 11:39:11.763
205.0, 16100.47562128015, 187500.0, 187500.0, 187500.0, -187500.02235174447, 187500.0, -187500.02235174447, -187500.02235174447, -0.032, 0.042, 0.992, 192.0, 0.0, 0.0, 0.0, 0.0, 0.0, 0.0, 0.0, 0.0, 0.0, 1.676047151769598E9, 0.0, 2023-02-10 11:39:11.769
206.0, 15826.934972636102, 187500.0, 187500.0, 187500.0, -187500.02235174447, 187500.0, -187500.02235174447, -187500.02235174447, -0.032, 0.042, 0.992, 192.0, 0.0, 0.0, 0.0, 0.0, 0.0, 0.0, 0.0, 0.0, 0.0, 1.676047151769712E9, 0.0, 2023-02-10 11:39:11.769
207.0, 15247.197776698802, 187500.0, 187500.0, 187500.0, -187500.02235174447, 187500.0, -187500.02235174447, -187500.02235174447, -0.032, 0.042, 0.992, 192.0, 0.0, 0.0, 0.0, 0.0, 0.0, 0.0, 0.0, 0.0, 0.0, 1.676047151776628E9, 0.0, 2023-02-10 11:39:11.776
208.0, 15363.158626932935, 187500.0, 187500.0, 187500.0, -187500.02235174447, 187500.0, -187500.02235174447, -187500.02235174447, -0.032, 0.042, 0.992, 192.0, 0.0, 0.0, 0.0, 0.0, 0.0, 0.0, 0.0, 0.0, 0.0, 1.676047151776664E9, 0.0, 2023-02-10 11:39:11.776
209.0, 15524.225297477878, 187500.0, 187500.0, 187500.0, -187500.02235174447, 187500.0, -187500.02235174447, -187500.02235174447, -0.032, 0.042, 0.992, 192.0, 0.0, 0.0, 0.0, 0.0, 0.0, 0.0, 0.0, 0.0, 0.0, 1.67604715178459E9, 0.0, 2023-02-10 11:39:11.784
210.0, 15429.431549242921, 187500.0, 187500.0, 187500.0, -187500.02235174447, 187500.0, -187500.02235174447, -187500.02235174447, -0.032, 0.042, 0.992, 192.0, 0.0, 0.0, 0.0, 0.0, 0.0, 0.0, 0.0, 0.0, 0.0, 1.67604715179254E9, 0.0, 2023-02-10 11:39:11.792
211.0, 15460.969860669358, 187500.0, 187500.0, 187500.0, -187500.02235174447, 187500.0, -187500.02235174447, -187500.02235174447, -0.032, 0.042, 0.992, 192.0, 0.0, 0.0, 0.0, 0.0, 0.0, 0.0, 0.0, 0.0, 0.0, 1.67604715179256E9, 0.0, 2023-02-10 11:39:11.792
212.0, 15204.349482577978, 187500.0, 187500.0, 187500.0, -187500.02235174447, 187500.0, -187500.02235174447, -187500.02235174447, -0.032, 0.042, 0.992, 192.0, 0.0, 0.0, 0.0, 0.0, 0.0, 0.0, 0.0, 0.0, 0.0, 1.676047151799076E9, 0.0, 2023-02-10 11:39:11.799
213.0, 15432.225517299834, 187500.0, 187500.0, 187500.0, -187500.02235174447, 187500.0, -187500.02235174447, -187500.02235174447, -0.032, 0.042, 0.992, 192.0, 0.0, 0.0, 0.0, 0.0, 0.0, 0.0, 0.0, 0.0, 0.0, 1.67604715179914E9, 0.0, 2023-02-10 11:39:11.799
214.0, 16052.262908490053, 187500.0, 187500.0, 187500.0, -187500.02235174447, 187500.0, -187500.02235174447, -187500.02235174447, -0.03, 0.034, 0.994, 192.0, 255.0, 16.0, 1.0, 16.0, 31.0, 16.0, 0.0, 0.0, 0.0, 1.67604715180711E9, 0.0, 2023-02-10 11:39:11.807
215.0, 16159.528930131071, 187500.0, 187500.0, 187500.0, -187500.02235174447, 187500.0, -187500.02235174447, -187500.02235174447, -0.03, 0.034, 0.994, 192.0, 0.0, 0.0, 0.0, 0.0, 0.0, 0.0, 0.0, 0.0, 0.0, 1.676047151807124E9, 0.0, 2023-02-10 11:39:11.807
216.0, 15457.997078656803, 187500.0, 187500.0, 187500.0, -187500.02235174447, 187500.0, -187500.02235174447, -187500.02235174447, -0.03, 0.034, 0.994, 192.0, 0.0, 0.0, 0.0, 0.0, 0.0, 0.0, 0.0, 0.0, 0.0, 1.676047151815711E9, 0.0, 2023-02-10 11:39:11.815
217.0, 15334.347228330045, 187500.0, 187500.0, 187500.0, -187500.02235174447, 187500.0, -187500.02235174447, -187500.02235174447, -0.03, 0.034, 0.994, 192.0, 0.0, 0.0, 0.0, 0.0, 0.0, 0.0, 0.0, 0.0, 0.0, 1.676047151815765E9, 0.0, 2023-02-10 11:39:11.815
218.0, 15579.478809771397, 187500.0, 187500.0, 187500.0, -187500.02235174447, 187500.0, -187500.02235174447, -187500.02235174447, -0.03, 0.034, 0.994, 192.0, 0.0, 0.0, 0.0, 0.0, 0.0, 0.0, 0.0, 0.0, 0.0, 1.676047151822451E9, 0.0, 2023-02-10 11:39:11.822
219.0, 15262.173445483859, 187500.0, 187500.0, 187500.0, -187500.02235174447, 187500.0, -187500.02235174447, -187500.02235174447, -0.03, 0.034, 0.994, 192.0, 0.0, 0.0, 0.0, 0.0, 0.0, 0.0, 0.0, 0.0, 0.0, 1.67604715182248E9, 0.0, 2023-02-10 11:39:11.822
220.0, 15172.05121184006, 187500.0, 187500.0, 187500.0, -187500.02235174447, 187500.0, -187500.02235174447, -187500.02235174447, -0.03, 0.034, 0.994, 192.0, 0.0, 0.0, 0.0, 0.0, 0.0, 0.0, 0.0, 0.0, 0.0, 1.676047151829947E9, 0.0, 2023-02-10 11:39:11.829
221.0, 15591.235827354889, 187500.0, 187500.0, 187500.0, -187500.02235174447, 187500.0, -187500.02235174447, -187500.02235174447, -0.03, 0.034, 0.994, 192.0, 0.0, 0.0, 0.0, 0.0, 0.0, 0.0, 0.0, 0.0, 0.0, 1.676047151830072E9, 0.0, 2023-02-10 11:39:11.830
222.0, 15778.655204612638, 187500.0, 187500.0, 187500.0, -187500.02235174447, 187500.0, -187500.02235174447, -187500.02235174447, -0.03, 0.034, 0.994, 192.0, 0.0, 0.0, 0.0, 0.0, 0.0, 0.0, 0.0, 0.0, 0.0, 1.676047151837858E9, 0.0, 2023-02-10 11:39:11.837
223.0, 15829.147795337178, 187500.0, 187500.0, 187500.0, -187500.02235174447, 187500.0, -187500.02235174447, -187500.02235174447, -0.03, 0.034, 0.994, 192.0, 0.0, 0.0, 0.0, 0.0, 0.0, 0.0, 0.0, 0.0, 0.0, 1.67604715183788E9, 0.0, 2023-02-10 11:39:11.837
224.0, 16328.530469957648, 187500.0, 187500.0, 187500.0, -187500.02235174447, 187500.0, -187500.02235174447, -187500.02235174447, -0.034, 0.036000000000000004, 1.0, 192.0, 254.0, 240.0, 1.0, 32.0, 31.0, 64.0, 0.0, 0.0, 0.0, 1.676047151844889E9, 0.0, 2023-02-10 11:39:11.844
225.0, 15335.978905675282, 187500.0, 187500.0, 187500.0, -187500.02235174447, 187500.0, -187500.02235174447, -187500.02235174447, -0.034, 0.036000000000000004, 1.0, 192.0, 0.0, 0.0, 0.0, 0.0, 0.0, 0.0, 0.0, 0.0, 0.0, 1.676047151851966E9, 0.0, 2023-02-10 11:39:11.851
226.0, 14986.598788094378, 187500.0, 187500.0, 187500.0, -187500.02235174447, 187500.0, -187500.02235174447, -187500.02235174447, -0.034, 0.036000000000000004, 1.0, 192.0, 0.0, 0.0, 0.0, 0.0, 0.0, 0.0, 0.0, 0.0, 0.0, 1.676047151851986E9, 0.0, 2023-02-10 11:39:11.851
227.0, 15778.118762745711, 187500.0, 187500.0, 187500.0, -187500.02235174447, 187500.0, -187500.02235174447, -187500.02235174447, -0.034, 0.036000000000000004, 1.0, 192.0, 0.0, 0.0, 0.0, 0.0, 0.0, 0.0, 0.0, 0.0, 0.0, 1.676047151859526E9, 0.0, 2023-02-10 11:39:11.859
228.0, 15818.284847531897, 187500.0, 187500.0, 187500.0, -187500.02235174447, 187500.0, -187500.02235174447, -187500.02235174447, -0.034, 0.036000000000000004, 1.0, 192.0, 0.0, 0.0, 0.0, 0.0, 0.0, 0.0, 0.0, 0.0, 0.0, 1.676047151859547E9, 0.0, 2023-02-10 11:39:11.859
229.0, 15704.290950809831, 187500.0, 187500.0, 187500.0, -187500.02235174447, 187500.0, -187500.02235174447, -187500.02235174447, -0.034, 0.036000000000000004, 1.0, 192.0, 0.0, 0.0, 0.0, 0.0, 0.0, 0.0, 0.0, 0.0, 0.0, 1.676047151867553E9, 0.0, 2023-02-10 11:39:11.867
230.0, 15336.515347542208, 187500.0, 187500.0, 187500.0, -187500.02235174447, 187500.0, -187500.02235174447, -187500.02235174447, -0.034, 0.036000000000000004, 1.0, 192.0, 0.0, 0.0, 0.0, 0.0, 0.0, 0.0, 0.0, 0.0, 0.0, 1.676047151867576E9, 0.0, 2023-02-10 11:39:11.867
231.0, 14900.90219985273, 187500.0, 187500.0, 187500.0, -187500.02235174447, 187500.0, -187500.02235174447, -187500.02235174447, -0.034, 0.036000000000000004, 1.0, 192.0, 0.0, 0.0, 0.0, 0.0, 0.0, 0.0, 0.0, 0.0, 0.0, 1.676047151875589E9, 0.0, 2023-02-10 11:39:11.875
232.0, 15578.361222548632, 187500.0, 187500.0, 187500.0, -187500.02235174447, 187500.0, -187500.02235174447, -187500.02235174447, -0.034, 0.036000000000000004, 1.0, 192.0, 0.0, 0.0, 0.0, 0.0, 0.0, 0.0, 0.0, 0.0, 0.0, 1.676047151875614E9, 0.0, 2023-02-10 11:39:11.875
233.0, 16120.167508145274, 187500.0, 187500.0, 187500.0, -187500.02235174447, 187500.0, -187500.02235174447, -187500.02235174447, -0.036000000000000004, 0.036000000000000004, 0.994, 192.0, 254.0, 224.0, 1.0, 32.0, 31.0, 16.0, 0.0, 0.0, 0.0, 1.676047151882097E9, 0.0, 2023-02-10 11:39:11.882
234.0, 15874.946519726102, 187500.0, 187500.0, 187500.0, -187500.02235174447, 187500.0, -187500.02235174447, -187500.02235174447, -0.036000000000000004, 0.036000000000000004, 0.994, 192.0, 0.0, 0.0, 0.0, 0.0, 0.0, 0.0, 0.0, 0.0, 0.0, 1.676047151882116E9, 0.0, 2023-02-10 11:39:11.882
235.0, 15476.660785276985, 187500.0, 187500.0, 187500.0, -187500.02235174447, 187500.0, -187500.02235174447, -187500.02235174447, -0.036000000000000004, 0.036000000000000004, 0.994, 192.0, 0.0, 0.0, 0.0, 0.0, 0.0, 0.0, 0.0, 0.0, 0.0, 1.676047151890101E9, 0.0, 2023-02-10 11:39:11.890
236.0, 15531.31080047021, 187500.0, 187500.0, 187500.0, -187500.02235174447, 187500.0, -187500.02235174447, -187500.02235174447, -0.036000000000000004, 0.036000000000000004, 0.994, 192.0, 0.0, 0.0, 0.0, 0.0, 0.0, 0.0, 0.0, 0.0, 0.0, 1.676047151890248E9, 0.0, 2023-02-10 11:39:11.890
237.0, 15766.384096906675, 187500.0, 187500.0, 187500.0, -187500.02235174447, 187500.0, -187500.02235174447, -187500.02235174447, -0.036000000000000004, 0.036000000000000004, 0.994, 192.0, 0.0, 0.0, 0.0, 0.0, 0.0, 0.0, 0.0, 0.0, 0.0, 1.676047151898099E9, 0.0, 2023-02-10 11:39:11.898
238.0, 15571.879216656593, 187500.0, 187500.0, 187500.0, -187500.02235174447, 187500.0, -187500.02235174447, -187500.02235174447, -0.036000000000000004, 0.036000000000000004, 0.994, 192.0, 0.0, 0.0, 0.0, 0.0, 0.0, 0.0, 0.0, 0.0, 0.0, 1.676047151898118E9, 0.0, 2023-02-10 11:39:11.898
239.0, 15751.1178554437, 187500.0, 187500.0, 187500.0, -187500.02235174447, 187500.0, -187500.02235174447, -187500.02235174447, -0.036000000000000004, 0.036000000000000004, 0.994, 192.0, 0.0, 0.0, 0.0, 0.0, 0.0, 0.0, 0.0, 0.0, 0.0, 1.676047151904334E9, 0.0, 2023-02-10 11:39:11.904
240.0, 15660.034496788323, 187500.0, 187500.0, 187500.0, -187500.02235174447, 187500.0, -187500.02235174447, -187500.02235174447, -0.036000000000000004, 0.036000000000000004, 0.994, 192.0, 0.0, 0.0, 0.0, 0.0, 0.0, 0.0, 0.0, 0.0, 0.0, 1.6760471519119E9, 0.0, 2023-02-10 11:39:11.911
241.0, 15537.41282670651, 187500.0, 187500.0, 187500.0, -187500.02235174447, 187500.0, -187500.02235174447, -187500.02235174447, -0.036000000000000004, 0.036000000000000004, 0.994, 192.0, 0.0, 0.0, 0.0, 0.0, 0.0, 0.0, 0.0, 0.0, 0.0, 1.676047151911938E9, 0.0, 2023-02-10 11:39:11.911
242.0, 15573.197969579456, 187500.0, 187500.0, 187500.0, -187500.02235174447, 187500.0, -187500.02235174447, -187500.02235174447, -0.036000000000000004, 0.036000000000000004, 0.994, 192.0, 0.0, 0.0, 0.0, 0.0, 0.0, 0.0, 0.0, 0.0, 0.0, 1.676047151919785E9, 0.0, 2023-02-10 11:39:11.919
243.0, 15683.392069744119, 187500.0, 187500.0, 187500.0, -187500.02235174447, 187500.0, -187500.02235174447, -187500.02235174447, -0.038, 0.03, 1.0, 192.0, 254.0, 208.0, 0.0, 240.0, 31.0, 64.0, 0.0, 0.0, 0.0, 1.676047151919811E9, 0.0, 2023-02-10 11:39:11.919
244.0, 15816.340245764286, 187500.0, 187500.0, 187500.0, -187500.02235174447, 187500.0, -187500.02235174447, -187500.02235174447, -0.038, 0.03, 1.0, 192.0, 0.0, 0.0, 0.0, 0.0, 0.0, 0.0, 0.0, 0.0, 0.0, 1.676047151927775E9, 0.0, 2023-02-10 11:39:11.927
245.0, 15566.112466587123, 187500.0, 187500.0, 187500.0, -187500.02235174447, 187500.0, -187500.02235174447, -187500.02235174447, -0.038, 0.03, 1.0, 192.0, 0.0, 0.0, 0.0, 0.0, 0.0, 0.0, 0.0, 0.0, 0.0, 1.6760471519278E9, 0.0, 2023-02-10 11:39:11.927
246.0, 15353.569728561608, 187500.0, 187500.0, 187500.0, -187500.02235174447, 187500.0, -187500.02235174447, -187500.02235174447, -0.038, 0.03, 1.0, 192.0, 0.0, 0.0, 0.0, 0.0, 0.0, 0.0, 0.0, 0.0, 0.0, 1.676047151934383E9, 0.0, 2023-02-10 11:39:11.934
247.0, 15113.534344856065, 187500.0, 187500.0, 187500.0, -187500.02235174447, 187500.0, -187500.02235174447, -187500.02235174447, -0.038, 0.03, 1.0, 192.0, 0.0, 0.0, 0.0, 0.0, 0.0, 0.0, 0.0, 0.0, 0.0, 1.676047151934404E9, 0.0, 2023-02-10 11:39:11.934
248.0, 15374.401554393955, 187500.0, 187500.0, 187500.0, -187500.02235174447, 187500.0, -187500.02235174447, -187500.02235174447, -0.038, 0.03, 1.0, 192.0, 0.0, 0.0, 0.0, 0.0, 0.0, 0.0, 0.0, 0.0, 0.0, 1.67604715194242E9, 0.0, 2023-02-10 11:39:11.942
249.0, 15766.160579462121, 187500.0, 187500.0, 187500.0, -187500.02235174447, 187500.0, -187500.02235174447, -187500.02235174447, -0.038, 0.03, 1.0, 192.0, 0.0, 0.0, 0.0, 0.0, 0.0, 0.0, 0.0, 0.0, 0.0, 1.676047151942444E9, 0.0, 2023-02-10 11:39:11.942
250.0, 15838.915507664145, 187500.0, 187500.0, 187500.0, -187500.02235174447, 187500.0, -187500.02235174447, -187500.02235174447, -0.038, 0.03, 1.0, 192.0, 0.0, 0.0, 0.0, 0.0, 0.0, 0.0, 0.0, 0.0, 0.0, 1.676047151950443E9, 0.0, 2023-02-10 11:39:11.950
251.0, 15884.75893554198, 187500.0, 187500.0, 187500.0, -187500.02235174447, 187500.0, -187500.02235174447, -187500.02235174447, -0.038, 0.03, 1.0, 192.0, 0.0, 0.0, 0.0, 0.0, 0.0, 0.0, 0.0, 0.0, 0.0, 1.676047151950551E9, 0.0, 2023-02-10 11:39:11.950
252.0, 15580.775210949805, 187500.0, 187500.0, 187500.0, -187500.02235174447, 187500.0, -187500.02235174447, -187500.02235174447, -0.038, 0.03, 1.0, 192.0, 0.0, 0.0, 0.0, 0.0, 0.0, 0.0, 0.0, 0.0, 0.0, 1.676047151957597E9, 0.0, 2023-02-10 11:39:11.957
253.0, 16035.677914104213, 187500.0, 187500.0, 187500.0, -187500.02235174447, 187500.0, -187500.02235174447, -187500.02235174447, -0.034, 0.034, 1.0, 192.0, 254.0, 240.0, 1.0, 16.0, 31.0, 64.0, 0.0, 0.0, 0.0, 1.676047151957619E9, 0.0, 2023-02-10 11:39:11.957
254.0, 15515.97750377387, 187500.0, 187500.0, 187500.0, -187500.02235174447, 187500.0, -187500.02235174447, -187500.02235174447, -0.034, 0.034, 1.0, 192.0, 0.0, 0.0, 0.0, 0.0, 0.0, 0.0, 0.0, 0.0, 0.0, 1.676047151964137E9, 0.0, 2023-02-10 11:39:11.964
255.0, 15035.102073562393, 187500.0, 187500.0, 187500.0, -187500.02235174447, 187500.0, -187500.02235174447, -187500.02235174447, -0.034, 0.034, 1.0, 192.0, 0.0, 0.0, 0.0, 0.0, 0.0, 0.0, 0.0, 0.0, 0.0, 1.676047151972029E9, 0.0, 2023-02-10 11:39:11.972
0.0, 15028.441253714713, 187500.0, 187500.0, 187500.0, -187500.02235174447, 187500.0, -187500.02235174447, -187500.02235174447, -0.034, 0.034, 1.0, 192.0, 0.0, 0.0, 0.0, 0.0, 0.0, 0.0, 0.0, 0.0, 0.0, 1.676047151972048E9, 0.0, 2023-02-10 11:39:11.972
1.0, 16133.913830985288, 187500.0, 187500.0, 187500.0, -187500.02235174447, 187500.0, -187500.02235174447, -187500.02235174447, -0.034, 0.034, 1.0, 192.0, 0.0, 0.0, 0.0, 0.0, 0.0, 0.0, 0.0, 0.0, 0.0, 1.676047151980677E9, 0.0, 2023-02-10 11:39:11.980
2.0, 16153.695124828235, 187500.0, 187500.0, 187500.0, -187500.02235174447, 187500.0, -187500.02235174447, -187500.02235174447, -0.034, 0.034, 1.0, 192.0, 0.0, 0.0, 0.0, 0.0, 0.0, 0.0, 0.0, 0.0, 0.0, 1.676047151980698E9, 0.0, 2023-02-10 11:39:11.980
3.0, 15460.567529269163, 187500.0, 187500.0, 187500.0, -187500.02235174447, 187500.0, -187500.02235174447, -187500.02235174447, -0.034, 0.034, 1.0, 192.0, 0.0, 0.0, 0.0, 0.0, 0.0, 0.0, 0.0, 0.0, 0.0, 1.676047151987134E9, 0.0, 2023-02-10 11:39:11.987
4.0, 15307.83805940605, 187500.0, 187500.0, 187500.0, -187500.02235174447, 187500.0, -187500.02235174447, -187500.02235174447, -0.034, 0.034, 1.0, 192.0, 0.0, 0.0, 0.0, 0.0, 0.0, 0.0, 0.0, 0.0, 0.0, 1.676047151987149E9, 0.0, 2023-02-10 11:39:11.987
5.0, 15908.38472943124, 187500.0, 187500.0, 187500.0, -187500.02235174447, 187500.0, -187500.02235174447, -187500.02235174447, -0.034, 0.034, 1.0, 192.0, 0.0, 0.0, 0.0, 0.0, 0.0, 0.0, 0.0, 0.0, 0.0, 1.676047151994691E9, 0.0, 2023-02-10 11:39:11.994
6.0, 15847.90090893518, 187500.0, 187500.0, 187500.0, -187500.02235174447, 187500.0, -187500.02235174447, -187500.02235174447, -0.034, 0.034, 1.0, 192.0, 0.0, 0.0, 0.0, 0.0, 0.0, 0.0, 0.0, 0.0, 0.0, 1.67604715199472E9, 0.0, 2023-02-10 11:39:11.994
7.0, 15473.39743058651, 187500.0, 187500.0, 187500.0, -187500.02235174447, 187500.0, -187500.02235174447, -187500.02235174447, -0.03, 0.034, 0.998, 192.0, 255.0, 16.0, 1.0, 16.0, 31.0, 48.0, 0.0, 0.0, 0.0, 1.676047152002715E9, 0.0, 2023-02-10 11:39:12.002
8.0, 15518.324436941677, 187500.0, 187500.0, 187500.0, -187500.02235174447, 187500.0, -187500.02235174447, -187500.02235174447, -0.03, 0.034, 0.998, 192.0, 0.0, 0.0, 0.0, 0.0, 0.0, 0.0, 0.0, 0.0, 0.0, 1.676047152002746E9, 0.0, 2023-02-10 11:39:12.002
9.0, 15564.972527619902, 187500.0, 187500.0, 187500.0, -187500.02235174447, 187500.0, -187500.02235174447, -187500.02235174447, -0.03, 0.034, 0.998, 192.0, 0.0, 0.0, 0.0, 0.0, 0.0, 0.0, 0.0, 0.0, 0.0, 1.676047152010695E9, 0.0, 2023-02-10 11:39:12.010
10.0, 15532.249573737334, 187500.0, 187500.0, 187500.0, -187500.02235174447, 187500.0, -187500.02235174447, -187500.02235174447, -0.03, 0.034, 0.998, 192.0, 0.0, 0.0, 0.0, 0.0, 0.0, 0.0, 0.0, 0.0, 0.0, 1.676047152010716E9, 0.0, 2023-02-10 11:39:12.010
11.0, 15600.914132704036, 187500.0, 187500.0, 187500.0, -187500.02235174447, 187500.0, -187500.02235174447, -187500.02235174447, -0.03, 0.034, 0.998, 192.0, 0.0, 0.0, 0.0, 0.0, 0.0, 0.0, 0.0, 0.0, 0.0, 1.676047152017419E9, 0.0, 2023-02-10 11:39:12.017
12.0, 15915.358473701297, 187500.0, 187500.0, 187500.0, -187500.02235174447, 187500.0, -187500.02235174447, -187500.02235174447, -0.03, 0.034, 0.998, 192.0, 0.0, 0.0, 0.0, 0.0, 0.0, 0.0, 0.0, 0.0, 0.0, 1.676047152017449E9, 0.0, 2023-02-10 11:39:12.017
13.0, 15949.154311317721, 187500.0, 187500.0, 187500.0, -187500.02235174447, 187500.0, -187500.02235174447, -187500.02235174447, -0.03, 0.034, 0.998, 192.0, 0.0, 0.0, 0.0, 0.0, 0.0, 0.0, 0.0, 0.0, 0.0, 1.676047152024447E9, 0.0, 2023-02-10 11:39:12.024
14.0, 15496.375023886565, 187500.0, 187500.0, 187500.0, -187500.02235174447, 187500.0, -187500.02235174447, -187500.02235174447, -0.03, 0.034, 0.998, 192.0, 0.0, 0.0, 0.0, 0.0, 0.0, 0.0, 0.0, 0.0, 0.0, 1.67604715202447E9, 0.0, 2023-02-10 11:39:12.024
15.0, 15618.035568956802, 187500.0, 187500.0, 187500.0, -187500.02235174447, 187500.0, -187500.02235174447, -187500.02235174447, -0.03, 0.034, 0.998, 192.0, 0.0, 0.0, 0.0, 0.0, 0.0, 0.0, 0.0, 0.0, 0.0, 1.676047152032415E9, 0.0, 2023-02-10 11:39:12.032
16.0, 15622.483566103409, 187500.0, 187500.0, 187500.0, -187500.02235174447, 187500.0, -187500.02235174447, -187500.02235174447, -0.03, 0.034, 0.998, 192.0, 0.0, 0.0, 0.0, 0.0, 0.0, 0.0, 0.0, 0.0, 0.0, 1.676047152039618E9, 0.0, 2023-02-10 11:39:12.039
17.0, 15471.877511963548, 187500.0, 187500.0, 187500.0, -187500.02235174447, 187500.0, -187500.02235174447, -187500.02235174447, -0.028, 0.032, 0.998, 192.0, 255.0, 32.0, 1.0, 0.0, 31.0, 48.0, 0.0, 0.0, 0.0, 1.67604715203964E9, 0.0, 2023-02-10 11:39:12.039
18.0, 15421.608438683563, 187500.0, 187500.0, 187500.0, -187500.02235174447, 187500.0, -187500.02235174447, -187500.02235174447, -0.028, 0.032, 0.998, 192.0, 0.0, 0.0, 0.0, 0.0, 0.0, 0.0, 0.0, 0.0, 0.0, 1.676047152047022E9, 0.0, 2023-02-10 11:39:12.047
19.0, 15227.550593322587, 187500.0, 187500.0, 187500.0, -187500.02235174447, 187500.0, -187500.02235174447, -187500.02235174447, -0.028, 0.032, 0.998, 192.0, 0.0, 0.0, 0.0, 0.0, 0.0, 0.0, 0.0, 0.0, 0.0, 1.676047152047049E9, 0.0, 2023-02-10 11:39:12.047
20.0, 15458.310003079177, 187500.0, 187500.0, 187500.0, -187500.02235174447, 187500.0, -187500.02235174447, -187500.02235174447, -0.028, 0.032, 0.998, 192.0, 0.0, 0.0, 0.0, 0.0, 0.0, 0.0, 0.0, 0.0, 0.0, 1.676047152054985E9, 0.0, 2023-02-10 11:39:12.054
21.0, 16170.816561081001, 187500.0, 187500.0, 187500.0, -187500.02235174447, 187500.0, -187500.02235174447, -187500.02235174447, -0.028, 0.032, 0.998, 192.0, 0.0, 0.0, 0.0, 0.0, 0.0, 0.0, 0.0, 0.0, 0.0, 1.676047152055007E9, 0.0, 2023-02-10 11:39:12.055
22.0, 15862.004859686478, 187500.0, 187500.0, 187500.0, -187500.02235174447, 187500.0, -187500.02235174447, -187500.02235174447, -0.028, 0.032, 0.998, 192.0, 0.0, 0.0, 0.0, 0.0, 0.0, 0.0, 0.0, 0.0, 0.0, 1.676047152062904E9, 0.0, 2023-02-10 11:39:12.062
23.0, 15587.190161608478, 187500.0, 187500.0, 187500.0, -187500.02235174447, 187500.0, -187500.02235174447, -187500.02235174447, -0.028, 0.032, 0.998, 192.0, 0.0, 0.0, 0.0, 0.0, 0.0, 0.0, 0.0, 0.0, 0.0, 1.676047152062924E9, 0.0, 2023-02-10 11:39:12.062
24.0, 15880.310938395374, 187500.0, 187500.0, 187500.0, -187500.02235174447, 187500.0, -187500.02235174447, -187500.02235174447, -0.028, 0.032, 0.998, 192.0, 0.0, 0.0, 0.0, 0.0, 0.0, 0.0, 0.0, 0.0, 0.0, 1.676047152069456E9, 0.0, 2023-02-10 11:39:12.069
25.0, 15798.145925777666, 187500.0, 187500.0, 187500.0, -187500.02235174447, 187500.0, -187500.02235174447, -187500.02235174447, -0.028, 0.032, 0.998, 192.0, 0.0, 0.0, 0.0, 0.0, 0.0, 0.0, 0.0, 0.0, 0.0, 1.676047152069471E9, 0.0, 2023-02-10 11:39:12.069
26.0, 15593.314539589232, 187500.0, 187500.0, 187500.0, -187500.02235174447, 187500.0, -187500.02235174447, -187500.02235174447, -0.03, 0.03, 0.996, 192.0, 255.0, 16.0, 0.0, 240.0, 31.0, 32.0, 0.0, 0.0, 0.0, 1.676047152077533E9, 0.0, 2023-02-10 11:39:12.077
27.0, 15414.254714757768, 187500.0, 187500.0, 187500.0, -187500.02235174447, 187500.0, -187500.02235174447, -187500.02235174447, -0.03, 0.03, 0.996, 192.0, 0.0, 0.0, 0.0, 0.0, 0.0, 0.0, 0.0, 0.0, 0.0, 1.676047152077553E9, 0.0, 2023-02-10 11:39:12.077
28.0, 15322.187879346357, 187500.0, 187500.0, 187500.0, -187500.02235174447, 187500.0, -187500.02235174447, -187500.02235174447, -0.03, 0.03, 0.996, 192.0, 0.0, 0.0, 0.0, 0.0, 0.0, 0.0, 0.0, 0.0, 0.0, 1.676047152085575E9, 0.0, 2023-02-10 11:39:12.085
29.0, 15472.279843363744, 187500.0, 187500.0, 187500.0, -187500.02235174447, 187500.0, -187500.02235174447, -187500.02235174447, -0.03, 0.03, 0.996, 192.0, 0.0, 0.0, 0.0, 0.0, 0.0, 0.0, 0.0, 0.0, 0.0, 1.676047152085597E9, 0.0, 2023-02-10 11:39:12.085
30.0, 15857.08747590631, 187500.0, 187500.0, 187500.0, -187500.02235174447, 187500.0, -187500.02235174447, -187500.02235174447, -0.03, 0.03, 0.996, 192.0, 0.0, 0.0, 0.0, 0.0, 0.0, 0.0, 0.0, 0.0, 0.0, 1.676047152092817E9, 0.0, 2023-02-10 11:39:12.092
31.0, 15816.295542275375, 187500.0, 187500.0, 187500.0, -187500.02235174447, 187500.0, -187500.02235174447, -187500.02235174447, -0.03, 0.03, 0.996, 192.0, 0.0, 0.0, 0.0, 0.0, 0.0, 0.0, 0.0, 0.0, 0.0, 1.676047152099247E9, 0.0, 2023-02-10 11:39:12.099
32.0, 15598.187219880489, 187500.0, 187500.0, 187500.0, -187500.02235174447, 187500.0, -187500.02235174447, -187500.02235174447, -0.03, 0.03, 0.996, 192.0, 0.0, 0.0, 0.0, 0.0, 0.0, 0.0, 0.0, 0.0, 0.0, 1.676047152099292E9, 0.0, 2023-02-10 11:39:12.099
33.0, 15623.265877159343, 187500.0, 187500.0, 187500.0, -187500.02235174447, 187500.0, -187500.02235174447, -187500.02235174447, -0.03, 0.03, 0.996, 192.0, 0.0, 0.0, 0.0, 0.0, 0.0, 0.0, 0.0, 0.0, 0.0, 1.676047152107193E9, 0.0, 2023-02-10 11:39:12.107
34.0, 16006.441832356673, 187500.0, 187500.0, 187500.0, -187500.02235174447, 187500.0, -187500.02235174447, -187500.02235174447, -0.03, 0.03, 0.996, 192.0, 0.0, 0.0, 0.0, 0.0, 0.0, 0.0, 0.0, 0.0, 0.0, 1.676047152107211E9, 0.0, 2023-02-10 11:39:12.107
35.0, 15633.458272630964, 187500.0, 187500.0, 187500.0, -187500.02235174447, 187500.0, -187500.02235174447, -187500.02235174447, -0.03, 0.03, 0.996, 192.0, 0.0, 0.0, 0.0, 0.0, 0.0, 0.0, 0.0, 0.0, 0.0, 1.676047152115344E9, 0.0, 2023-02-10 11:39:12.115
36.0, 15173.660537440843, 187500.0, 187500.0, 187500.0, -187500.02235174447, 187500.0, -187500.02235174447, -187500.02235174447, -0.028, 0.032, 0.998, 192.0, 255.0, 32.0, 1.0, 0.0, 31.0, 48.0, 0.0, 0.0, 0.0, 1.676047152115373E9, 0.0, 2023-02-10 11:39:12.115
37.0, 15158.260185511135, 187500.0, 187500.0, 187500.0, -187500.02235174447, 187500.0, -187500.02235174447, -187500.02235174447, -0.028, 0.032, 0.998, 192.0, 0.0, 0.0, 0.0, 0.0, 0.0, 0.0, 0.0, 0.0, 0.0, 1.676047152122487E9, 0.0, 2023-02-10 11:39:12.122
38.0, 15802.437460713085, 187500.0, 187500.0, 187500.0, -187500.02235174447, 187500.0, -187500.02235174447, -187500.02235174447, -0.028, 0.032, 0.998, 192.0, 0.0, 0.0, 0.0, 0.0, 0.0, 0.0, 0.0, 0.0, 0.0, 1.67604715212251E9, 0.0, 2023-02-10 11:39:12.122
39.0, 16393.66345330041, 187500.0, 187500.0, 187500.0, -187500.02235174447, 187500.0, -187500.02235174447, -187500.02235174447, -0.028, 0.032, 0.998, 192.0, 0.0, 0.0, 0.0, 0.0, 0.0, 0.0, 0.0, 0.0, 0.0, 1.676047152130008E9, 0.0, 2023-02-10 11:39:12.130
40.0, 15846.403342056674, 187500.0, 187500.0, 187500.0, -187500.02235174447, 187500.0, -187500.02235174447, -187500.02235174447, -0.028, 0.032, 0.998, 192.0, 0.0, 0.0, 0.0, 0.0, 0.0, 0.0, 0.0, 0.0, 0.0, 1.676047152130042E9, 0.0, 2023-02-10 11:39:12.130
41.0, 15432.76195916676, 187500.0, 187500.0, 187500.0, -187500.02235174447, 187500.0, -187500.02235174447, -187500.02235174447, -0.028, 0.032, 0.998, 192.0, 0.0, 0.0, 0.0, 0.0, 0.0, 0.0, 0.0, 0.0, 0.0, 1.676047152137957E9, 0.0, 2023-02-10 11:39:12.137
42.0, 15604.199839138966, 187500.0, 187500.0, 187500.0, -187500.02235174447, 187500.0, -187500.02235174447, -187500.02235174447, -0.028, 0.032, 0.998, 192.0, 0.0, 0.0, 0.0, 0.0, 0.0, 0.0, 0.0, 0.0, 0.0, 1.676047152138007E9, 0.0, 2023-02-10 11:39:12.138
43.0, 15766.764076562415, 187500.0, 187500.0, 187500.0, -187500.02235174447, 187500.0, -187500.02235174447, -187500.02235174447, -0.028, 0.032, 0.998, 192.0, 0.0, 0.0, 0.0, 0.0, 0.0, 0.0, 0.0, 0.0, 0.0, 1.676047152145872E9, 0.0, 2023-02-10 11:39:12.145
44.0, 15667.209406758477, 187500.0, 187500.0, 187500.0, -187500.02235174447, 187500.0, -187500.02235174447, -187500.02235174447, -0.028, 0.032, 0.998, 192.0, 0.0, 0.0, 0.0, 0.0, 0.0, 0.0, 0.0, 0.0, 0.0, 1.676047152145899E9, 0.0, 2023-02-10 11:39:12.145
45.0, 15386.80677256665, 187500.0, 187500.0, 187500.0, -187500.02235174447, 187500.0, -187500.02235174447, -187500.02235174447, -0.028, 0.032, 0.998, 192.0, 0.0, 0.0, 0.0, 0.0, 0.0, 0.0, 0.0, 0.0, 0.0, 1.676047152151984E9, 0.0, 2023-02-10 11:39:12.151
46.0, 15834.489862261995, 187500.0, 187500.0, 187500.0, -187500.02235174447, 187500.0, -187500.02235174447, -187500.02235174447, -0.036000000000000004, 0.032, 0.998, 192.0, 254.0, 224.0, 1.0, 0.0, 31.0, 48.0, 0.0, 0.0, 0.0, 1.676047152159485E9, 0.0, 2023-02-10 11:39:12.159
47.0, 16206.199372553752, 187500.0, 187500.0, 187500.0, -187500.02235174447, 187500.0, -187500.02235174447, -187500.02235174447, -0.036000000000000004, 0.032, 0.998, 192.0, 0.0, 0.0, 0.0, 0.0, 0.0, 0.0, 0.0, 0.0, 0.0, 1.676047152159551E9, 0.0, 2023-02-10 11:39:12.159
48.0, 15255.669087847364, 187500.0, 187500.0, 187500.0, -187500.02235174447, 187500.0, -187500.02235174447, -187500.02235174447, -0.036000000000000004, 0.032, 0.998, 192.0, 0.0, 0.0, 0.0, 0.0, 0.0, 0.0, 0.0, 0.0, 0.0, 1.676047152167557E9, 0.0, 2023-02-10 11:39:12.167
49.0, 15107.946408742238, 187500.0, 187500.0, 187500.0, -187500.02235174447, 187500.0, -187500.02235174447, -187500.02235174447, -0.036000000000000004, 0.032, 0.998, 192.0, 0.0, 0.0, 0.0, 0.0, 0.0, 0.0, 0.0, 0.0, 0.0, 1.67604715216758E9, 0.0, 2023-02-10 11:39:12.167
50.0, 15806.214905526032, 187500.0, 187500.0, 187500.0, -187500.02235174447, 187500.0, -187500.02235174447, -187500.02235174447, -0.036000000000000004, 0.032, 0.998, 192.0, 0.0, 0.0, 0.0, 0.0, 0.0, 0.0, 0.0, 0.0, 0.0, 1.676047152175435E9, 0.0, 2023-02-10 11:39:12.175
51.0, 16085.634062961826, 187500.0, 187500.0, 187500.0, -187500.02235174447, 187500.0, -187500.02235174447, -187500.02235174447, -0.036000000000000004, 0.032, 0.998, 192.0, 0.0, 0.0, 0.0, 0.0, 0.0, 0.0, 0.0, 0.0, 0.0, 1.676047152175477E9, 0.0, 2023-02-10 11:39:12.175
52.0, 15903.690863095626, 187500.0, 187500.0, 187500.0, -187500.02235174447, 187500.0, -187500.02235174447, -187500.02235174447, -0.036000000000000004, 0.032, 0.998, 192.0, 0.0, 0.0, 0.0, 0.0, 0.0, 0.0, 0.0, 0.0, 0.0, 1.676047152182151E9, 0.0, 2023-02-10 11:39:12.182
53.0, 15711.39880554662, 187500.0, 187500.0, 187500.0, -187500.02235174447, 187500.0, -187500.02235174447, -187500.02235174447, -0.036000000000000004, 0.032, 0.998, 192.0, 0.0, 0.0, 0.0, 0.0, 0.0, 0.0, 0.0, 0.0, 0.0, 1.676047152182172E9, 0.0, 2023-02-10 11:39:12.182
54.0, 15458.287651334722, 187500.0, 187500.0, 187500.0, -187500.02235174447, 187500.0, -187500.02235174447, -187500.02235174447, -0.036000000000000004, 0.032, 0.998, 192.0, 0.0, 0.0, 0.0, 0.0, 0.0, 0.0, 0.0, 0.0, 0.0, 1.676047152190034E9, 0.0, 2023-02-10 11:39:12.190
55.0, 15664.460142190474, 187500.0, 187500.0, 187500.0, -187500.02235174447, 187500.0, -187500.02235174447, -187500.02235174447, -0.036000000000000004, 0.032, 0.998, 192.0, 0.0, 0.0, 0.0, 0.0, 0.0, 0.0, 0.0, 0.0, 0.0, 1.676047152190055E9, 0.0, 2023-02-10 11:39:12.190
56.0, 15991.890846716267, 187500.0, 187500.0, 187500.0, -187500.02235174447, 187500.0, -187500.02235174447, -187500.02235174447, -0.032, 0.034, 0.998, 192.0, 255.0, 0.0, 1.0, 16.0, 31.0, 48.0, 0.0, 0.0, 0.0, 1.676047152198258E9, 0.0, 2023-02-10 11:39:12.198
57.0, 15616.158022422556, 187500.0, 187500.0, 187500.0, -187500.02235174447, 187500.0, -187500.02235174447, -187500.02235174447, -0.032, 0.034, 0.998, 192.0, 0.0, 0.0, 0.0, 0.0, 0.0, 0.0, 0.0, 0.0, 0.0, 1.676047152198288E9, 0.0, 2023-02-10 11:39:12.198
58.0, 15629.323199906732, 187500.0, 187500.0, 187500.0, -187500.02235174447, 187500.0, -187500.02235174447, -187500.02235174447, -0.032, 0.034, 0.998, 192.0, 0.0, 0.0, 0.0, 0.0, 0.0, 0.0, 0.0, 0.0, 0.0, 1.676047152204733E9, 0.0, 2023-02-10 11:39:12.204
59.0, 15440.093331348102, 187500.0, 187500.0, 187500.0, -187500.02235174447, 187500.0, -187500.02235174447, -187500.02235174447, -0.032, 0.034, 0.998, 192.0, 0.0, 0.0, 0.0, 0.0, 0.0, 0.0, 0.0, 0.0, 0.0, 1.676047152204753E9, 0.0, 2023-02-10 11:39:12.204
60.0, 15331.307391084123, 187500.0, 187500.0, 187500.0, -187500.02235174447, 187500.0, -187500.02235174447, -187500.02235174447, -0.032, 0.034, 0.998, 192.0, 0.0, 0.0, 0.0, 0.0, 0.0, 0.0, 0.0, 0.0, 0.0, 1.676047152211731E9, 0.0, 2023-02-10 11:39:12.211
61.0, 15618.303789890266, 187500.0, 187500.0, 187500.0, -187500.02235174447, 187500.0, -187500.02235174447, -187500.02235174447, -0.032, 0.034, 0.998, 192.0, 0.0, 0.0, 0.0, 0.0, 0.0, 0.0, 0.0, 0.0, 0.0, 1.676047152219741E9, 0.0, 2023-02-10 11:39:12.219
62.0, 16002.150297421254, 187500.0, 187500.0, 187500.0, -187500.02235174447, 187500.0, -187500.02235174447, -187500.02235174447, -0.032, 0.034, 0.998, 192.0, 0.0, 0.0, 0.0, 0.0, 0.0, 0.0, 0.0, 0.0, 0.0, 1.676047152219762E9, 0.0, 2023-02-10 11:39:12.219
63.0, 15942.806415892413, 187500.0, 187500.0, 187500.0, -187500.02235174447, 187500.0, -187500.02235174447, -187500.02235174447, -0.032, 0.034, 0.998, 192.0, 0.0, 0.0, 0.0, 0.0, 0.0, 0.0, 0.0, 0.0, 0.0, 1.67604715222771E9, 0.0, 2023-02-10 11:39:12.227
64.0, 15548.566347189708, 187500.0, 187500.0, 187500.0, -187500.02235174447, 187500.0, -187500.02235174447, -187500.02235174447, -0.032, 0.034, 0.998, 192.0, 0.0, 0.0, 0.0, 0.0, 0.0, 0.0, 0.0, 0.0, 0.0, 1.676047152227731E9, 0.0, 2023-02-10 11:39:12.227
65.0, 16139.52411884357, 187500.0, 187500.0, 187500.0, -187500.02235174447, 187500.0, -187500.02235174447, -187500.02235174447, -0.032, 0.034, 0.998, 192.0, 0.0, 0.0, 0.0, 0.0, 0.0, 0.0, 0.0, 0.0, 0.0, 1.676047152234214E9, 0.0, 2023-02-10 11:39:12.234
66.0, 15631.826595285725, 187500.0, 187500.0, 187500.0, -187500.02235174447, 187500.0, -187500.02235174447, -187500.02235174447, -0.04, 0.032, 1.0, 192.0, 254.0, 192.0, 1.0, 0.0, 31.0, 64.0, 0.0, 0.0, 0.0, 1.676047152234229E9, 0.0, 2023-02-10 11:39:12.234
67.0, 15258.440704159822, 187500.0, 187500.0, 187500.0, -187500.02235174447, 187500.0, -187500.02235174447, -187500.02235174447, -0.04, 0.032, 1.0, 192.0, 0.0, 0.0, 0.0, 0.0, 0.0, 0.0, 0.0, 0.0, 0.0, 1.6760471522423E9, 0.0, 2023-02-10 11:39:12.242
68.0, 15903.199124717608, 187500.0, 187500.0, 187500.0, -187500.02235174447, 187500.0, -187500.02235174447, -187500.02235174447, -0.04, 0.032, 1.0, 192.0, 0.0, 0.0, 0.0, 0.0, 0.0, 0.0, 0.0, 0.0, 0.0, 1.676047152242315E9, 0.0, 2023-02-10 11:39:12.242
69.0, 16174.705764616225, 187500.0, 187500.0, 187500.0, -187500.02235174447, 187500.0, -187500.02235174447, -187500.02235174447, -0.04, 0.032, 1.0, 192.0, 0.0, 0.0, 0.0, 0.0, 0.0, 0.0, 0.0, 0.0, 0.0, 1.676047152250556E9, 0.0, 2023-02-10 11:39:12.250
70.0, 16110.75742372959, 187500.0, 187500.0, 187500.0, -187500.02235174447, 187500.0, -187500.02235174447, -187500.02235174447, -0.04, 0.032, 1.0, 192.0, 0.0, 0.0, 0.0, 0.0, 0.0, 0.0, 0.0, 0.0, 0.0, 1.676047152250577E9, 0.0, 2023-02-10 11:39:12.250
71.0, 15524.337056200155, 187500.0, 187500.0, 187500.0, -187500.02235174447, 187500.0, -187500.02235174447, -187500.02235174447, -0.04, 0.032, 1.0, 192.0, 0.0, 0.0, 0.0, 0.0, 0.0, 0.0, 0.0, 0.0, 0.0, 1.676047152257442E9, 0.0, 2023-02-10 11:39:12.257
72.0, 15225.136604921414, 187500.0, 187500.0, 187500.0, -187500.02235174447, 187500.0, -187500.02235174447, -187500.02235174447, -0.04, 0.032, 1.0, 192.0, 0.0, 0.0, 0.0, 0.0, 0.0, 0.0, 0.0, 0.0, 0.0, 1.676047152257465E9, 0.0, 2023-02-10 11:39:12.257
73.0, 15404.174078008424, 187500.0, 187500.0, 187500.0, -187500.02235174447, 187500.0, -187500.02235174447, -187500.02235174447, -0.04, 0.032, 1.0, 192.0, 0.0, 0.0, 0.0, 0.0, 0.0, 0.0, 0.0, 0.0, 0.0, 1.67604715226528E9, 0.0, 2023-02-10 11:39:12.265
74.0, 15608.692539774484, 187500.0, 187500.0, 187500.0, -187500.02235174447, 187500.0, -187500.02235174447, -187500.02235174447, -0.04, 0.032, 1.0, 192.0, 0.0, 0.0, 0.0, 0.0, 0.0, 0.0, 0.0, 0.0, 0.0, 1.676047152265324E9, 0.0, 2023-02-10 11:39:12.265
75.0, 16176.024517539086, 187500.0, 187500.0, 187500.0, -187500.02235174447, 187500.0, -187500.02235174447, -187500.02235174447, -0.04, 0.032, 1.0, 192.0, 0.0, 0.0, 0.0, 0.0, 0.0, 0.0, 0.0, 0.0, 0.0, 1.676047152272103E9, 0.0, 2023-02-10 11:39:12.272
76.0, 16282.865856035454, 187500.0, 187500.0, 187500.0, -187500.02235174447, 187500.0, -187500.02235174447, -187500.02235174447, -0.034, 0.034, 0.996, 192.0, 254.0, 240.0, 1.0, 16.0, 31.0, 32.0, 0.0, 0.0, 0.0, 1.676047152272146E9, 0.0, 2023-02-10 11:39:12.272
77.0, 15674.920758595557, 187500.0, 187500.0, 187500.0, -187500.02235174447, 187500.0, -187500.02235174447, -187500.02235174447, -0.034, 0.034, 0.996, 192.0, 0.0, 0.0, 0.0, 0.0, 0.0, 0.0, 0.0, 0.0, 0.0, 1.67604715228166E9, 0.0, 2023-02-10 11:39:12.281
78.0, 15306.139326827448, 187500.0, 187500.0, 187500.0, -187500.02235174447, 187500.0, -187500.02235174447, -187500.02235174447, -0.034, 0.034, 0.996, 192.0, 0.0, 0.0, 0.0, 0.0, 0.0, 0.0, 0.0, 0.0, 0.0, 1.67604715228755E9, 0.0, 2023-02-10 11:39:12.287
79.0, 15698.971235629468, 187500.0, 187500.0, 187500.0, -187500.02235174447, 187500.0, -187500.02235174447, -187500.02235174447, -0.034, 0.034, 0.996, 192.0, 0.0, 0.0, 0.0, 0.0, 0.0, 0.0, 0.0, 0.0, 0.0, 1.676047152287589E9, 0.0, 2023-02-10 11:39:12.287
80.0, 15539.849166852138, 187500.0, 187500.0, 187500.0, -187500.02235174447, 187500.0, -187500.02235174447, -187500.02235174447, -0.034, 0.034, 0.996, 192.0, 0.0, 0.0, 0.0, 0.0, 0.0, 0.0, 0.0, 0.0, 0.0, 1.676047152294933E9, 0.0, 2023-02-10 11:39:12.294
81.0, 15343.869071468005, 187500.0, 187500.0, 187500.0, -187500.02235174447, 187500.0, -187500.02235174447, -187500.02235174447, -0.034, 0.034, 0.996, 192.0, 0.0, 0.0, 0.0, 0.0, 0.0, 0.0, 0.0, 0.0, 0.0, 1.676047152294973E9, 0.0, 2023-02-10 11:39:12.294
82.0, 15500.06306172169, 187500.0, 187500.0, 187500.0, -187500.02235174447, 187500.0, -187500.02235174447, -187500.02235174447, -0.034, 0.034, 0.996, 192.0, 0.0, 0.0, 0.0, 0.0, 0.0, 0.0, 0.0, 0.0, 0.0, 1.676047152302744E9, 0.0, 2023-02-10 11:39:12.302
83.0, 15816.161431808643, 187500.0, 187500.0, 187500.0, -187500.02235174447, 187500.0, -187500.02235174447, -187500.02235174447, -0.034, 0.034, 0.996, 192.0, 0.0, 0.0, 0.0, 0.0, 0.0, 0.0, 0.0, 0.0, 0.0, 1.676047152302768E9, 0.0, 2023-02-10 11:39:12.302
84.0, 16102.800202703502, 187500.0, 187500.0, 187500.0, -187500.02235174447, 187500.0, -187500.02235174447, -187500.02235174447, -0.034, 0.034, 0.996, 192.0, 0.0, 0.0, 0.0, 0.0, 0.0, 0.0, 0.0, 0.0, 0.0, 1.676047152309901E9, 0.0, 2023-02-10 11:39:12.309
85.0, 16070.36782149885, 187500.0, 187500.0, 187500.0, -187500.02235174447, 187500.0, -187500.02235174447, -187500.02235174447, -0.032, 0.034, 0.996, 192.0, 255.0, 0.0, 1.0, 16.0, 31.0, 32.0, 0.0, 0.0, 0.0, 1.676047152309929E9, 0.0, 2023-02-10 11:39:12.309
86.0, 15905.702520096604, 187500.0, 187500.0, 187500.0, -187500.02235174447, 187500.0, -187500.02235174447, -187500.02235174447, -0.032, 0.034, 0.996, 192.0, 0.0, 0.0, 0.0, 0.0, 0.0, 0.0, 0.0, 0.0, 0.0, 1.676047152317278E9, 0.0, 2023-02-10 11:39:12.317
87.0, 15846.984487412512, 187500.0, 187500.0, 187500.0, -187500.02235174447, 187500.0, -187500.02235174447, -187500.02235174447, -0.032, 0.034, 0.996, 192.0, 0.0, 0.0, 0.0, 0.0, 0.0, 0.0, 0.0, 0.0, 0.0, 1.676047152317308E9, 0.0, 2023-02-10 11:39:12.317
88.0, 15977.49632328705, 187500.0, 187500.0, 187500.0, -187500.02235174447, 187500.0, -187500.02235174447, -187500.02235174447, -0.032, 0.034, 0.996, 192.0, 0.0, 0.0, 0.0, 0.0, 0.0, 0.0, 0.0, 0.0, 0.0, 1.676047152325314E9, 0.0, 2023-02-10 11:39:12.325
89.0, 15644.85766230317, 187500.0, 187500.0, 187500.0, -187500.02235174447, 187500.0, -187500.02235174447, -187500.02235174447, -0.032, 0.034, 0.996, 192.0, 0.0, 0.0, 0.0, 0.0, 0.0, 0.0, 0.0, 0.0, 0.0, 1.676047152325336E9, 0.0, 2023-02-10 11:39:12.325
90.0, 15156.136769787881, 187500.0, 187500.0, 187500.0, -187500.02235174447, 187500.0, -187500.02235174447, -187500.02235174447, -0.032, 0.034, 0.996, 192.0, 0.0, 0.0, 0.0, 0.0, 0.0, 0.0, 0.0, 0.0, 0.0, 1.676047152333339E9, 0.0, 2023-02-10 11:39:12.333
91.0, 15410.007883311258, 187500.0, 187500.0, 187500.0, -187500.02235174447, 187500.0, -187500.02235174447, -187500.02235174447, -0.032, 0.034, 0.996, 192.0, 0.0, 0.0, 0.0, 0.0, 0.0, 0.0, 0.0, 0.0, 0.0, 1.676047152333371E9, 0.0, 2023-02-10 11:39:12.333
92.0, 15933.418683221184, 187500.0, 187500.0, 187500.0, -187500.02235174447, 187500.0, -187500.02235174447, -187500.02235174447, -0.032, 0.034, 0.996, 192.0, 0.0, 0.0, 0.0, 0.0, 0.0, 0.0, 0.0, 0.0, 0.0, 1.676047152339332E9, 0.0, 2023-02-10 11:39:12.339
93.0, 16000.988006709578, 187500.0, 187500.0, 187500.0, -187500.02235174447, 187500.0, -187500.02235174447, -187500.02235174447, -0.032, 0.034, 0.996, 192.0, 0.0, 0.0, 0.0, 0.0, 0.0, 0.0, 0.0, 0.0, 0.0, 1.676047152346852E9, 0.0, 2023-02-10 11:39:12.346
94.0, 15424.223592784834, 187500.0, 187500.0, 187500.0, -187500.02235174447, 187500.0, -187500.02235174447, -187500.02235174447, -0.032, 0.034, 0.996, 192.0, 0.0, 0.0, 0.0, 0.0, 0.0, 0.0, 0.0, 0.0, 0.0, 1.676047152346868E9, 0.0, 2023-02-10 11:39:12.346
95.0, 15608.84900198567, 187500.0, 187500.0, 187500.0, -187500.02235174447, 187500.0, -187500.02235174447, -187500.02235174447, -0.038, 0.034, 0.994, 192.0, 254.0, 208.0, 1.0, 16.0, 31.0, 16.0, 0.0, 0.0, 0.0, 1.676047152354875E9, 0.0, 2023-02-10 11:39:12.354
96.0, 16071.887740121812, 187500.0, 187500.0, 187500.0, -187500.02235174447, 187500.0, -187500.02235174447, -187500.02235174447, -0.038, 0.034, 0.994, 192.0, 0.0, 0.0, 0.0, 0.0, 0.0, 0.0, 0.0, 0.0, 0.0, 1.676047152354892E9, 0.0, 2023-02-10 11:39:12.354
97.0, 15869.559749312371, 187500.0, 187500.0, 187500.0, -187500.02235174447, 187500.0, -187500.02235174447, -187500.02235174447, -0.038, 0.034, 0.994, 192.0, 0.0, 0.0, 0.0, 0.0, 0.0, 0.0, 0.0, 0.0, 0.0, 1.676047152362988E9, 0.0, 2023-02-10 11:39:12.362
98.0, 15419.596781682585, 187500.0, 187500.0, 187500.0, -187500.02235174447, 187500.0, -187500.02235174447, -187500.02235174447, -0.038, 0.034, 0.994, 192.0, 0.0, 0.0, 0.0, 0.0, 0.0, 0.0, 0.0, 0.0, 0.0, 1.676047152363009E9, 0.0, 2023-02-10 11:39:12.363
99.0, 15435.734741179318, 187500.0, 187500.0, 187500.0, -187500.02235174447, 187500.0, -187500.02235174447, -187500.02235174447, -0.038, 0.034, 0.994, 192.0, 0.0, 0.0, 0.0, 0.0, 0.0, 0.0, 0.0, 0.0, 0.0, 1.676047152369561E9, 0.0, 2023-02-10 11:39:12.369
100.0, 15669.86926434866, 187500.0, 187500.0, 187500.0, -187500.02235174447, 187500.0, -187500.02235174447, -187500.02235174447, -0.038, 0.034, 0.994, 192.0, 0.0, 0.0, 0.0, 0.0, 0.0, 0.0, 0.0, 0.0, 0.0, 1.676047152369594E9, 0.0, 2023-02-10 11:39:12.369
101.0, 15748.390942620152, 187500.0, 187500.0, 187500.0, -187500.02235174447, 187500.0, -187500.02235174447, -187500.02235174447, -0.038, 0.034, 0.994, 192.0, 0.0, 0.0, 0.0, 0.0, 0.0, 0.0, 0.0, 0.0, 0.0, 1.676047152377643E9, 0.0, 2023-02-10 11:39:12.377
102.0, 16148.174243947775, 187500.0, 187500.0, 187500.0, -187500.02235174447, 187500.0, -187500.02235174447, -187500.02235174447, -0.038, 0.034, 0.994, 192.0, 0.0, 0.0, 0.0, 0.0, 0.0, 0.0, 0.0, 0.0, 0.0, 1.676047152377668E9, 0.0, 2023-02-10 11:39:12.377
103.0, 16250.858157975455, 187500.0, 187500.0, 187500.0, -187500.02235174447, 187500.0, -187500.02235174447, -187500.02235174447, -0.038, 0.034, 0.994, 192.0, 0.0, 0.0, 0.0, 0.0, 0.0, 0.0, 0.0, 0.0, 0.0, 1.676047152385715E9, 0.0, 2023-02-10 11:39:12.385
104.0, 15768.507512629929, 187500.0, 187500.0, 187500.0, -187500.02235174447, 187500.0, -187500.02235174447, -187500.02235174447, -0.038, 0.034, 0.994, 192.0, 0.0, 0.0, 0.0, 0.0, 0.0, 0.0, 0.0, 0.0, 0.0, 1.676047152385747E9, 0.0, 2023-02-10 11:39:12.385
105.0, 15521.185460231956, 187500.0, 187500.0, 187500.0, -187500.02235174447, 187500.0, -187500.02235174447, -187500.02235174447, -0.036000000000000004, 0.038, 0.998, 192.0, 254.0, 224.0, 1.0, 48.0, 31.0, 48.0, 0.0, 0.0, 0.0, 1.676047152392784E9, 0.0, 2023-02-10 11:39:12.392
106.0, 15692.131601826144, 187500.0, 187500.0, 187500.0, -187500.02235174447, 187500.0, -187500.02235174447, -187500.02235174447, -0.036000000000000004, 0.038, 0.998, 192.0, 0.0, 0.0, 0.0, 0.0, 0.0, 0.0, 0.0, 0.0, 0.0, 1.676047152392814E9, 0.0, 2023-02-10 11:39:12.392
107.0, 15277.551445669109, 187500.0, 187500.0, 187500.0, -187500.02235174447, 187500.0, -187500.02235174447, -187500.02235174447, -0.036000000000000004, 0.038, 0.998, 192.0, 0.0, 0.0, 0.0, 0.0, 0.0, 0.0, 0.0, 0.0, 0.0, 1.676047152399334E9, 0.0, 2023-02-10 11:39:12.399
108.0, 15242.459206874277, 187500.0, 187500.0, 187500.0, -187500.02235174447, 187500.0, -187500.02235174447, -187500.02235174447, -0.036000000000000004, 0.038, 0.998, 192.0, 0.0, 0.0, 0.0, 0.0, 0.0, 0.0, 0.0, 0.0, 0.0, 1.676047152407262E9, 0.0, 2023-02-10 11:39:12.407
109.0, 15624.875202760126, 187500.0, 187500.0, 187500.0, -187500.02235174447, 187500.0, -187500.02235174447, -187500.02235174447, -0.036000000000000004, 0.038, 0.998, 192.0, 0.0, 0.0, 0.0, 0.0, 0.0, 0.0, 0.0, 0.0, 0.0, 1.676047152407284E9, 0.0, 2023-02-10 11:39:12.407
110.0, 15993.83544848388, 187500.0, 187500.0, 187500.0, -187500.02235174447, 187500.0, -187500.02235174447, -187500.02235174447, -0.036000000000000004, 0.038, 0.998, 192.0, 0.0, 0.0, 0.0, 0.0, 0.0, 0.0, 0.0, 0.0, 0.0, 1.676047152415207E9, 0.0, 2023-02-10 11:39:12.415
111.0, 15798.861181600236, 187500.0, 187500.0, 187500.0, -187500.02235174447, 187500.0, -187500.02235174447, -187500.02235174447, -0.036000000000000004, 0.038, 0.998, 192.0, 0.0, 0.0, 0.0, 0.0, 0.0, 0.0, 0.0, 0.0, 0.0, 1.676047152415232E9, 0.0, 2023-02-10 11:39:12.415
112.0, 15736.25394538092, 187500.0, 187500.0, 187500.0, -187500.02235174447, 187500.0, -187500.02235174447, -187500.02235174447, -0.036000000000000004, 0.038, 0.998, 192.0, 0.0, 0.0, 0.0, 0.0, 0.0, 0.0, 0.0, 0.0, 0.0, 1.676047152422323E9, 0.0, 2023-02-10 11:39:12.422
113.0, 15777.559969134329, 187500.0, 187500.0, 187500.0, -187500.02235174447, 187500.0, -187500.02235174447, -187500.02235174447, -0.036000000000000004, 0.038, 0.998, 192.0, 0.0, 0.0, 0.0, 0.0, 0.0, 0.0, 0.0, 0.0, 0.0, 1.676047152422345E9, 0.0, 2023-02-10 11:39:12.422
114.0, 15958.20676782212, 187500.0, 187500.0, 187500.0, -187500.02235174447, 187500.0, -187500.02235174447, -187500.02235174447, -0.036000000000000004, 0.038, 0.998, 192.0, 0.0, 0.0, 0.0, 0.0, 0.0, 0.0, 0.0, 0.0, 0.0, 1.676047152429914E9, 0.0, 2023-02-10 11:39:12.429
115.0, 15819.625952199216, 187500.0, 187500.0, 187500.0, -187500.02235174447, 187500.0, -187500.02235174447, -187500.02235174447, -0.03, 0.032, 0.998, 192.0, 255.0, 16.0, 1.0, 0.0, 31.0, 48.0, 0.0, 0.0, 0.0, 1.676047152429938E9, 0.0, 2023-02-10 11:39:12.429
116.0, 15491.234122661845, 187500.0, 187500.0, 187500.0, -187500.02235174447, 187500.0, -187500.02235174447, -187500.02235174447, -0.03, 0.032, 0.998, 192.0, 0.0, 0.0, 0.0, 0.0, 0.0, 0.0, 0.0, 0.0, 0.0, 1.67604715243778E9, 0.0, 2023-02-10 11:39:12.437
117.0, 15648.255127460377, 187500.0, 187500.0, 187500.0, -187500.02235174447, 187500.0, -187500.02235174447, -187500.02235174447, -0.03, 0.032, 0.998, 192.0, 0.0, 0.0, 0.0, 0.0, 0.0, 0.0, 0.0, 0.0, 0.0, 1.676047152437802E9, 0.0, 2023-02-10 11:39:12.437
118.0, 16191.357814235427, 187500.0, 187500.0, 187500.0, -187500.02235174447, 187500.0, -187500.02235174447, -187500.02235174447, -0.03, 0.032, 0.998, 192.0, 0.0, 0.0, 0.0, 0.0, 0.0, 0.0, 0.0, 0.0, 0.0, 1.676047152445801E9, 0.0, 2023-02-10 11:39:12.445
119.0, 15874.14185692571, 187500.0, 187500.0, 187500.0, -187500.02235174447, 187500.0, -187500.02235174447, -187500.02235174447, -0.03, 0.032, 0.998, 192.0, 0.0, 0.0, 0.0, 0.0, 0.0, 0.0, 0.0, 0.0, 0.0, 1.676047152445821E9, 0.0, 2023-02-10 11:39:12.445
120.0, 15325.339475314555, 187500.0, 187500.0, 187500.0, -187500.02235174447, 187500.0, -187500.02235174447, -187500.02235174447, -0.03, 0.032, 0.998, 192.0, 0.0, 0.0, 0.0, 0.0, 0.0, 0.0, 0.0, 0.0, 0.0, 1.676047152452397E9, 0.0, 2023-02-10 11:39:12.452
121.0, 15574.159094591034, 187500.0, 187500.0, 187500.0, -187500.02235174447, 187500.0, -187500.02235174447, -187500.02235174447, -0.03, 0.032, 0.998, 192.0, 0.0, 0.0, 0.0, 0.0, 0.0, 0.0, 0.0, 0.0, 0.0, 1.676047152452416E9, 0.0, 2023-02-10 11:39:12.452
122.0, 16132.86329899589, 187500.0, 187500.0, 187500.0, -187500.02235174447, 187500.0, -187500.02235174447, -187500.02235174447, -0.03, 0.032, 0.998, 192.0, 0.0, 0.0, 0.0, 0.0, 0.0, 0.0, 0.0, 0.0, 0.0, 1.676047152459444E9, 0.0, 2023-02-10 11:39:12.459
123.0, 15860.37318234124, 187500.0, 187500.0, 187500.0, -187500.02235174447, 187500.0, -187500.02235174447, -187500.02235174447, -0.03, 0.032, 0.998, 192.0, 0.0, 0.0, 0.0, 0.0, 0.0, 0.0, 0.0, 0.0, 0.0, 1.676047152467629E9, 0.0, 2023-02-10 11:39:12.467
124.0, 15494.63158781905, 187500.0, 187500.0, 187500.0, -187500.02235174447, 187500.0, -187500.02235174447, -187500.02235174447, -0.03, 0.032, 0.998, 192.0, 0.0, 0.0, 0.0, 0.0, 0.0, 0.0, 0.0, 0.0, 0.0, 1.67604715246766E9, 0.0, 2023-02-10 11:39:12.467
125.0, 15499.839544277138, 187500.0, 187500.0, 187500.0, -187500.02235174447, 187500.0, -187500.02235174447, -187500.02235174447, -0.03, 0.034, 1.002, 192.0, 255.0, 16.0, 1.0, 16.0, 31.0, 80.0, 0.0, 0.0, 0.0, 1.676047152474624E9, 0.0, 2023-02-10 11:39:12.474
126.0, 16074.65935643427, 187500.0, 187500.0, 187500.0, -187500.02235174447, 187500.0, -187500.02235174447, -187500.02235174447, -0.03, 0.034, 1.002, 192.0, 0.0, 0.0, 0.0, 0.0, 0.0, 0.0, 0.0, 0.0, 0.0, 1.67604715247465E9, 0.0, 2023-02-10 11:39:12.474
127.0, 16043.277507219018, 187500.0, 187500.0, 187500.0, -187500.02235174447, 187500.0, -187500.02235174447, -187500.02235174447, -0.03, 0.034, 1.002, 192.0, 0.0, 0.0, 0.0, 0.0, 0.0, 0.0, 0.0, 0.0, 0.0, 1.676047152482179E9, 0.0, 2023-02-10 11:39:12.482
128.0, 15604.065728672234, 187500.0, 187500.0, 187500.0, -187500.02235174447, 187500.0, -187500.02235174447, -187500.02235174447, -0.03, 0.034, 1.002, 192.0, 0.0, 0.0, 0.0, 0.0, 0.0, 0.0, 0.0, 0.0, 0.0, 1.676047152482203E9, 0.0, 2023-02-10 11:39:12.482
129.0, 15983.68775650117, 187500.0, 187500.0, 187500.0, -187500.02235174447, 187500.0, -187500.02235174447, -187500.02235174447, -0.03, 0.034, 1.002, 192.0, 0.0, 0.0, 0.0, 0.0, 0.0, 0.0, 0.0, 0.0, 0.0, 1.676047152490228E9, 0.0, 2023-02-10 11:39:12.490
130.0, 16244.800835228067, 187500.0, 187500.0, 187500.0, -187500.02235174447, 187500.0, -187500.02235174447, -187500.02235174447, -0.03, 0.034, 1.002, 192.0, 0.0, 0.0, 0.0, 0.0, 0.0, 0.0, 0.0, 0.0, 0.0, 1.67604715249025E9, 0.0, 2023-02-10 11:39:12.490
131.0, 15779.1245912462, 187500.0, 187500.0, 187500.0, -187500.02235174447, 187500.0, -187500.02235174447, -187500.02235174447, -0.03, 0.034, 1.002, 192.0, 0.0, 0.0, 0.0, 0.0, 0.0, 0.0, 0.0, 0.0, 0.0, 1.676047152498203E9, 0.0, 2023-02-10 11:39:12.498
132.0, 15396.932112804905, 187500.0, 187500.0, 187500.0, -187500.02235174447, 187500.0, -187500.02235174447, -187500.02235174447, -0.03, 0.034, 1.002, 192.0, 0.0, 0.0, 0.0, 0.0, 0.0, 0.0, 0.0, 0.0, 0.0, 1.676047152498228E9, 0.0, 2023-02-10 11:39:12.498
133.0, 15197.599255752475, 187500.0, 187500.0, 187500.0, -187500.02235174447, 187500.0, -187500.02235174447, -187500.02235174447, -0.03, 0.034, 1.002, 192.0, 0.0, 0.0, 0.0, 0.0, 0.0, 0.0, 0.0, 0.0, 0.0, 1.67604715250469E9, 0.0, 2023-02-10 11:39:12.504
134.0, 15769.513341130418, 187500.0, 187500.0, 187500.0, -187500.02235174447, 187500.0, -187500.02235174447, -187500.02235174447, -0.03, 0.034, 1.0, 192.0, 255.0, 16.0, 1.0, 16.0, 31.0, 64.0, 0.0, 0.0, 0.0, 1.676047152504711E9, 0.0, 2023-02-10 11:39:12.504
135.0, 15944.482796726561, 187500.0, 187500.0, 187500.0, -187500.02235174447, 187500.0, -187500.02235174447, -187500.02235174447, -0.03, 0.034, 1.0, 192.0, 0.0, 0.0, 0.0, 0.0, 0.0, 0.0, 0.0, 0.0, 0.0, 1.676047152512902E9, 0.0, 2023-02-10 11:39:12.512
136.0, 15686.253093034398, 187500.0, 187500.0, 187500.0, -187500.02235174447, 187500.0, -187500.02235174447, -187500.02235174447, -0.03, 0.034, 1.0, 192.0, 0.0, 0.0, 0.0, 0.0, 0.0, 0.0, 0.0, 0.0, 0.0, 1.67604715251293E9, 0.0, 2023-02-10 11:39:12.512
137.0, 15404.643464641986, 187500.0, 187500.0, 187500.0, -187500.02235174447, 187500.0, -187500.02235174447, -187500.02235174447, -0.03, 0.034, 1.0, 192.0, 0.0, 0.0, 0.0, 0.0, 0.0, 0.0, 0.0, 0.0, 0.0, 1.676047152519727E9, 0.0, 2023-02-10 11:39:12.519
138.0, 15890.369223400263, 187500.0, 187500.0, 187500.0, -187500.02235174447, 187500.0, -187500.02235174447, -187500.02235174447, -0.03, 0.034, 1.0, 192.0, 0.0, 0.0, 0.0, 0.0, 0.0, 0.0, 0.0, 0.0, 0.0, 1.67604715251975E9, 0.0, 2023-02-10 11:39:12.519
139.0, 16629.943743937463, 187500.0, 187500.0, 187500.0, -187500.02235174447, 187500.0, -187500.02235174447, -187500.02235174447, -0.03, 0.034, 1.0, 192.0, 0.0, 0.0, 0.0, 0.0, 0.0, 0.0, 0.0, 0.0, 0.0, 1.676047152527851E9, 0.0, 2023-02-10 11:39:12.527
140.0, 15663.163741012067, 187500.0, 187500.0, 187500.0, -187500.02235174447, 187500.0, -187500.02235174447, -187500.02235174447, -0.03, 0.034, 1.0, 192.0, 0.0, 0.0, 0.0, 0.0, 0.0, 0.0, 0.0, 0.0, 0.0, 1.676047152534259E9, 0.0, 2023-02-10 11:39:12.534
141.0, 15291.11895455348, 187500.0, 187500.0, 187500.0, -187500.02235174447, 187500.0, -187500.02235174447, -187500.02235174447, -0.03, 0.034, 1.0, 192.0, 0.0, 0.0, 0.0, 0.0, 0.0, 0.0, 0.0, 0.0, 0.0, 1.676047152534276E9, 0.0, 2023-02-10 11:39:12.534
142.0, 15840.390722798196, 187500.0, 187500.0, 187500.0, -187500.02235174447, 187500.0, -187500.02235174447, -187500.02235174447, -0.03, 0.034, 1.0, 192.0, 0.0, 0.0, 0.0, 0.0, 0.0, 0.0, 0.0, 0.0, 0.0, 1.676047152542484E9, 0.0, 2023-02-10 11:39:12.542
143.0, 16084.248254805596, 187500.0, 187500.0, 187500.0, -187500.02235174447, 187500.0, -187500.02235174447, -187500.02235174447, -0.03, 0.034, 1.0, 192.0, 0.0, 0.0, 0.0, 0.0, 0.0, 0.0, 0.0, 0.0, 0.0, 1.676047152542517E9, 0.0, 2023-02-10 11:39:12.542
144.0, 15707.755471200404, 187500.0, 187500.0, 187500.0, -187500.02235174447, 187500.0, -187500.02235174447, -187500.02235174447, -0.028, 0.032, 0.998, 192.0, 255.0, 32.0, 1.0, 0.0, 31.0, 48.0, 0.0, 0.0, 0.0, 1.676047152550382E9, 0.0, 2023-02-10 11:39:12.550
145.0, 15566.447742753953, 187500.0, 187500.0, 187500.0, -187500.02235174447, 187500.0, -187500.02235174447, -187500.02235174447, -0.028, 0.032, 0.998, 192.0, 0.0, 0.0, 0.0, 0.0, 0.0, 0.0, 0.0, 0.0, 0.0, 1.676047152550409E9, 0.0, 2023-02-10 11:39:12.550
146.0, 16061.22595801663, 187500.0, 187500.0, 187500.0, -187500.02235174447, 187500.0, -187500.02235174447, -187500.02235174447, -0.028, 0.032, 0.998, 192.0, 0.0, 0.0, 0.0, 0.0, 0.0, 0.0, 0.0, 0.0, 0.0, 1.676047152557724E9, 0.0, 2023-02-10 11:39:12.557
147.0, 16123.877897724857, 187500.0, 187500.0, 187500.0, -187500.02235174447, 187500.0, -187500.02235174447, -187500.02235174447, -0.028, 0.032, 0.998, 192.0, 0.0, 0.0, 0.0, 0.0, 0.0, 0.0, 0.0, 0.0, 0.0, 1.676047152557757E9, 0.0, 2023-02-10 11:39:12.557
148.0, 15042.388742254823, 187500.0, 187500.0, 187500.0, -187500.02235174447, 187500.0, -187500.02235174447, -187500.02235174447, -0.028, 0.032, 0.998, 192.0, 0.0, 0.0, 0.0, 0.0, 0.0, 0.0, 0.0, 0.0, 0.0, 1.676047152565094E9, 0.0, 2023-02-10 11:39:12.565
149.0, 15138.836519579474, 187500.0, 187500.0, 187500.0, -187500.02235174447, 187500.0, -187500.02235174447, -187500.02235174447, -0.028, 0.032, 0.998, 192.0, 0.0, 0.0, 0.0, 0.0, 0.0, 0.0, 0.0, 0.0, 0.0, 1.67604715256512E9, 0.0, 2023-02-10 11:39:12.565
150.0, 16045.55738515346, 187500.0, 187500.0, 187500.0, -187500.02235174447, 187500.0, -187500.02235174447, -187500.02235174447, -0.028, 0.032, 0.998, 192.0, 0.0, 0.0, 0.0, 0.0, 0.0, 0.0, 0.0, 0.0, 0.0, 1.676047152573147E9, 0.0, 2023-02-10 11:39:12.573
151.0, 16082.28130129353, 187500.0, 187500.0, 187500.0, -187500.02235174447, 187500.0, -187500.02235174447, -187500.02235174447, -0.028, 0.032, 0.998, 192.0, 0.0, 0.0, 0.0, 0.0, 0.0, 0.0, 0.0, 0.0, 0.0, 1.67604715257317E9, 0.0, 2023-02-10 11:39:12.573
152.0, 16177.276215228585, 187500.0, 187500.0, 187500.0, -187500.02235174447, 187500.0, -187500.02235174447, -187500.02235174447, -0.028, 0.032, 0.998, 192.0, 0.0, 0.0, 0.0, 0.0, 0.0, 0.0, 0.0, 0.0, 0.0, 1.676047152581218E9, 0.0, 2023-02-10 11:39:12.581
153.0, 15976.222273853098, 187500.0, 187500.0, 187500.0, -187500.02235174447, 187500.0, -187500.02235174447, -187500.02235174447, -0.028, 0.032, 0.998, 192.0, 0.0, 0.0, 0.0, 0.0, 0.0, 0.0, 0.0, 0.0, 0.0, 1.676047152581248E9, 0.0, 2023-02-10 11:39:12.581
154.0, 15569.576986977696, 187500.0, 187500.0, 187500.0, -187500.02235174447, 187500.0, -187500.02235174447, -187500.02235174447, -0.026000000000000002, 0.034, 1.0, 192.0, 255.0, 48.0, 1.0, 16.0, 31.0, 64.0, 0.0, 0.0, 0.0, 1.676047152587284E9, 0.0, 2023-02-10 11:39:12.587
155.0, 16137.490110098137, 187500.0, 187500.0, 187500.0, -187500.02235174447, 187500.0, -187500.02235174447, -187500.02235174447, -0.026000000000000002, 0.034, 1.0, 192.0, 0.0, 0.0, 0.0, 0.0, 0.0, 0.0, 0.0, 0.0, 0.0, 1.676047152594577E9, 0.0, 2023-02-10 11:39:12.594
156.0, 15735.628096536173, 187500.0, 187500.0, 187500.0, -187500.02235174447, 187500.0, -187500.02235174447, -187500.02235174447, -0.026000000000000002, 0.034, 1.0, 192.0, 0.0, 0.0, 0.0, 0.0, 0.0, 0.0, 0.0, 0.0, 0.0, 1.676047152594596E9, 0.0, 2023-02-10 11:39:12.594
157.0, 15320.93618165686, 187500.0, 187500.0, 187500.0, -187500.02235174447, 187500.0, -187500.02235174447, -187500.02235174447, -0.026000000000000002, 0.034, 1.0, 192.0, 0.0, 0.0, 0.0, 0.0, 0.0, 0.0, 0.0, 0.0, 0.0, 1.676047152602672E9, 0.0, 2023-02-10 11:39:12.602
158.0, 15821.32468477782, 187500.0, 187500.0, 187500.0, -187500.02235174447, 187500.0, -187500.02235174447, -187500.02235174447, -0.026000000000000002, 0.034, 1.0, 192.0, 0.0, 0.0, 0.0, 0.0, 0.0, 0.0, 0.0, 0.0, 0.0, 1.676047152602694E9, 0.0, 2023-02-10 11:39:12.602
159.0, 15668.505807936885, 187500.0, 187500.0, 187500.0, -187500.02235174447, 187500.0, -187500.02235174447, -187500.02235174447, -0.026000000000000002, 0.034, 1.0, 192.0, 0.0, 0.0, 0.0, 0.0, 0.0, 0.0, 0.0, 0.0, 0.0, 1.676047152609695E9, 0.0, 2023-02-10 11:39:12.609
160.0, 15566.067763098214, 187500.0, 187500.0, 187500.0, -187500.02235174447, 187500.0, -187500.02235174447, -187500.02235174447, -0.026000000000000002, 0.034, 1.0, 192.0, 0.0, 0.0, 0.0, 0.0, 0.0, 0.0, 0.0, 0.0, 0.0, 1.676047152609716E9, 0.0, 2023-02-10 11:39:12.609
161.0, 16311.207868004783, 187500.0, 187500.0, 187500.0, -187500.02235174447, 187500.0, -187500.02235174447, -187500.02235174447, -0.026000000000000002, 0.034, 1.0, 192.0, 0.0, 0.0, 0.0, 0.0, 0.0, 0.0, 0.0, 0.0, 0.0, 1.676047152617193E9, 0.0, 2023-02-10 11:39:12.617
162.0, 16078.570911713949, 187500.0, 187500.0, 187500.0, -187500.02235174447, 187500.0, -187500.02235174447, -187500.02235174447, -0.026000000000000002, 0.034, 1.0, 192.0, 0.0, 0.0, 0.0, 0.0, 0.0, 0.0, 0.0, 0.0, 0.0, 1.676047152617214E9, 0.0, 2023-02-10 11:39:12.617
163.0, 15832.142929094189, 187500.0, 187500.0, 187500.0, -187500.02235174447, 187500.0, -187500.02235174447, -187500.02235174447, -0.026000000000000002, 0.034, 1.0, 192.0, 0.0, 0.0, 0.0, 0.0, 0.0, 0.0, 0.0, 0.0, 0.0, 1.676047152625215E9, 0.0, 2023-02-10 11:39:12.625
164.0, 15837.887327419201, 187500.0, 187500.0, 187500.0, -187500.02235174447, 187500.0, -187500.02235174447, -187500.02235174447, -0.03, 0.034, 1.002, 192.0, 255.0, 16.0, 1.0, 16.0, 31.0, 80.0, 0.0, 0.0, 0.0, 1.676047152625261E9, 0.0, 2023-02-10 11:39:12.625
165.0, 15596.019100668324, 187500.0, 187500.0, 187500.0, -187500.02235174447, 187500.0, -187500.02235174447, -187500.02235174447, -0.03, 0.034, 1.002, 192.0, 0.0, 0.0, 0.0, 0.0, 0.0, 0.0, 0.0, 0.0, 0.0, 1.676047152633202E9, 0.0, 2023-02-10 11:39:12.633
166.0, 15633.055941230768, 187500.0, 187500.0, 187500.0, -187500.02235174447, 187500.0, -187500.02235174447, -187500.02235174447, -0.03, 0.034, 1.002, 192.0, 0.0, 0.0, 0.0, 0.0, 0.0, 0.0, 0.0, 0.0, 0.0, 1.676047152633224E9, 0.0, 2023-02-10 11:39:12.633
167.0, 16099.581551501937, 187500.0, 187500.0, 187500.0, -187500.02235174447, 187500.0, -187500.02235174447, -187500.02235174447, -0.03, 0.034, 1.002, 192.0, 0.0, 0.0, 0.0, 0.0, 0.0, 0.0, 0.0, 0.0, 0.0, 1.676047152640061E9, 0.0, 2023-02-10 11:39:12.640
168.0, 15905.188429974132, 187500.0, 187500.0, 187500.0, -187500.02235174447, 187500.0, -187500.02235174447, -187500.02235174447, -0.03, 0.034, 1.002, 192.0, 0.0, 0.0, 0.0, 0.0, 0.0, 0.0, 0.0, 0.0, 0.0, 1.676047152640108E9, 0.0, 2023-02-10 11:39:12.640
169.0, 15575.120219602612, 187500.0, 187500.0, 187500.0, -187500.02235174447, 187500.0, -187500.02235174447, -187500.02235174447, -0.03, 0.034, 1.002, 192.0, 0.0, 0.0, 0.0, 0.0, 0.0, 0.0, 0.0, 0.0, 0.0, 1.676047152646922E9, 0.0, 2023-02-10 11:39:12.646
170.0, 15491.122363939568, 187500.0, 187500.0, 187500.0, -187500.02235174447, 187500.0, -187500.02235174447, -187500.02235174447, -0.03, 0.034, 1.002, 192.0, 0.0, 0.0, 0.0, 0.0, 0.0, 0.0, 0.0, 0.0, 0.0, 1.676047152654934E9, 0.0, 2023-02-10 11:39:12.654
171.0, 15602.210533882444, 187500.0, 187500.0, 187500.0, -187500.02235174447, 187500.0, -187500.02235174447, -187500.02235174447, -0.03, 0.034, 1.002, 192.0, 0.0, 0.0, 0.0, 0.0, 0.0, 0.0, 0.0, 0.0, 0.0, 1.676047152654954E9, 0.0, 2023-02-10 11:39:12.654
172.0, 16086.841057162412, 187500.0, 187500.0, 187500.0, -187500.02235174447, 187500.0, -187500.02235174447, -187500.02235174447, -0.03, 0.034, 1.002, 192.0, 0.0, 0.0, 0.0, 0.0, 0.0, 0.0, 0.0, 0.0, 0.0, 1.676047152662929E9, 0.0, 2023-02-10 11:39:12.662
173.0, 16093.546580499004, 187500.0, 187500.0, 187500.0, -187500.02235174447, 187500.0, -187500.02235174447, -187500.02235174447, -0.03, 0.034, 1.002, 192.0, 0.0, 0.0, 0.0, 0.0, 0.0, 0.0, 0.0, 0.0, 0.0, 1.676047152662955E9, 0.0, 2023-02-10 11:39:12.662
174.0, 15767.188759707065, 187500.0, 187500.0, 187500.0, -187500.02235174447, 187500.0, -187500.02235174447, -187500.02235174447, -0.03, 0.036000000000000004, 0.998, 192.0, 255.0, 16.0, 1.0, 32.0, 31.0, 48.0, 0.0, 0.0, 0.0, 1.676047152669489E9, 0.0, 2023-02-10 11:39:12.669
175.0, 15944.505148471017, 187500.0, 187500.0, 187500.0, -187500.02235174447, 187500.0, -187500.02235174447, -187500.02235174447, -0.03, 0.036000000000000004, 0.998, 192.0, 0.0, 0.0, 0.0, 0.0, 0.0, 0.0, 0.0, 0.0, 0.0, 1.676047152669512E9, 0.0, 2023-02-10 11:39:12.669
176.0, 16130.114034427887, 187500.0, 187500.0, 187500.0, -187500.02235174447, 187500.0, -187500.02235174447, -187500.02235174447, -0.03, 0.036000000000000004, 0.998, 192.0, 0.0, 0.0, 0.0, 0.0, 0.0, 0.0, 0.0, 0.0, 0.0, 1.676047152677497E9, 0.0, 2023-02-10 11:39:12.677
177.0, 16327.904621112899, 187500.0, 187500.0, 187500.0, -187500.02235174447, 187500.0, -187500.02235174447, -187500.02235174447, -0.03, 0.036000000000000004, 0.998, 192.0, 0.0, 0.0, 0.0, 0.0, 0.0, 0.0, 0.0, 0.0, 0.0, 1.676047152677518E9, 0.0, 2023-02-10 11:39:12.677
178.0, 15579.568216749218, 187500.0, 187500.0, 187500.0, -187500.02235174447, 187500.0, -187500.02235174447, -187500.02235174447, -0.03, 0.036000000000000004, 0.998, 192.0, 0.0, 0.0, 0.0, 0.0, 0.0, 0.0, 0.0, 0.0, 0.0, 1.6760471526855E9, 0.0, 2023-02-10 11:39:12.685
179.0, 15329.027513149682, 187500.0, 187500.0, 187500.0, -187500.02235174447, 187500.0, -187500.02235174447, -187500.02235174447, -0.03, 0.036000000000000004, 0.998, 192.0, 0.0, 0.0, 0.0, 0.0, 0.0, 0.0, 0.0, 0.0, 0.0, 1.676047152685522E9, 0.0, 2023-02-10 11:39:12.685
180.0, 15513.74232932834, 187500.0, 187500.0, 187500.0, -187500.02235174447, 187500.0, -187500.02235174447, -187500.02235174447, -0.03, 0.036000000000000004, 0.998, 192.0, 0.0, 0.0, 0.0, 0.0, 0.0, 0.0, 0.0, 0.0, 0.0, 1.676047152692579E9, 0.0, 2023-02-10 11:39:12.692
181.0, 15437.880508647027, 187500.0, 187500.0, 187500.0, -187500.02235174447, 187500.0, -187500.02235174447, -187500.02235174447, -0.03, 0.036000000000000004, 0.998, 192.0, 0.0, 0.0, 0.0, 0.0, 0.0, 0.0, 0.0, 0.0, 0.0, 1.676047152692599E9, 0.0, 2023-02-10 11:39:12.692
182.0, 16059.661335904759, 187500.0, 187500.0, 187500.0, -187500.02235174447, 187500.0, -187500.02235174447, -187500.02235174447, -0.03, 0.036000000000000004, 0.998, 192.0, 0.0, 0.0, 0.0, 0.0, 0.0, 0.0, 0.0, 0.0, 0.0, 1.676047152700122E9, 0.0, 2023-02-10 11:39:12.700
183.0, 16075.106391323376, 187500.0, 187500.0, 187500.0, -187500.02235174447, 187500.0, -187500.02235174447, -187500.02235174447, -0.032, 0.034, 1.0, 192.0, 255.0, 0.0, 1.0, 16.0, 31.0, 64.0, 0.0, 0.0, 0.0, 1.676047152700142E9, 0.0, 2023-02-10 11:39:12.700
184.0, 15897.991168259523, 187500.0, 187500.0, 187500.0, -187500.02235174447, 187500.0, -187500.02235174447, -187500.02235174447, -0.032, 0.034, 1.0, 192.0, 0.0, 0.0, 0.0, 0.0, 0.0, 0.0, 0.0, 0.0, 0.0, 1.676047152707166E9, 0.0, 2023-02-10 11:39:12.707
185.0, 16097.52519101205, 187500.0, 187500.0, 187500.0, -187500.02235174447, 187500.0, -187500.02235174447, -187500.02235174447, -0.032, 0.034, 1.0, 192.0, 0.0, 0.0, 0.0, 0.0, 0.0, 0.0, 0.0, 0.0, 0.0, 1.676047152715163E9, 0.0, 2023-02-10 11:39:12.715
186.0, 15908.63059862025, 187500.0, 187500.0, 187500.0, -187500.02235174447, 187500.0, -187500.02235174447, -187500.02235174447, -0.032, 0.034, 1.0, 192.0, 0.0, 0.0, 0.0, 0.0, 0.0, 0.0, 0.0, 0.0, 0.0, 1.676047152715181E9, 0.0, 2023-02-10 11:39:12.715
187.0, 15557.305879271733, 187500.0, 187500.0, 187500.0, -187500.02235174447, 187500.0, -187500.02235174447, -187500.02235174447, -0.032, 0.034, 1.0, 192.0, 0.0, 0.0, 0.0, 0.0, 0.0, 0.0, 0.0, 0.0, 0.0, 1.676047152722246E9, 0.0, 2023-02-10 11:39:12.722
188.0, 15748.368590875698, 187500.0, 187500.0, 187500.0, -187500.02235174447, 187500.0, -187500.02235174447, -187500.02235174447, -0.032, 0.034, 1.0, 192.0, 0.0, 0.0, 0.0, 0.0, 0.0, 0.0, 0.0, 0.0, 0.0, 1.676047152722263E9, 0.0, 2023-02-10 11:39:12.722
189.0, 15807.399547982162, 187500.0, 187500.0, 187500.0, -187500.02235174447, 187500.0, -187500.02235174447, -187500.02235174447, -0.032, 0.034, 1.0, 192.0, 0.0, 0.0, 0.0, 0.0, 0.0, 0.0, 0.0, 0.0, 0.0, 1.676047152729702E9, 0.0, 2023-02-10 11:39:12.729
190.0, 15959.123189344788, 187500.0, 187500.0, 187500.0, -187500.02235174447, 187500.0, -187500.02235174447, -187500.02235174447, -0.032, 0.034, 1.0, 192.0, 0.0, 0.0, 0.0, 0.0, 0.0, 0.0, 0.0, 0.0, 0.0, 1.676047152729724E9, 0.0, 2023-02-10 11:39:12.729
191.0, 15782.186780236576, 187500.0, 187500.0, 187500.0, -187500.02235174447, 187500.0, -187500.02235174447, -187500.02235174447, -0.032, 0.034, 1.0, 192.0, 0.0, 0.0, 0.0, 0.0, 0.0, 0.0, 0.0, 0.0, 0.0, 1.676047152737808E9, 0.0, 2023-02-10 11:39:12.737
192.0, 15499.616026832586, 187500.0, 187500.0, 187500.0, -187500.02235174447, 187500.0, -187500.02235174447, -187500.02235174447, -0.032, 0.034, 1.0, 192.0, 0.0, 0.0, 0.0, 0.0, 0.0, 0.0, 0.0, 0.0, 0.0, 1.676047152737837E9, 0.0, 2023-02-10 11:39:12.737
193.0, 15688.48826747993, 187500.0, 187500.0, 187500.0, -187500.02235174447, 187500.0, -187500.02235174447, -187500.02235174447, -0.034, 0.034, 0.998, 192.0, 254.0, 240.0, 1.0, 16.0, 31.0, 48.0, 0.0, 0.0, 0.0, 1.676047152745967E9, 0.0, 2023-02-10 11:39:12.745
194.0, 16104.118955626363, 187500.0, 187500.0, 187500.0, -187500.02235174447, 187500.0, -187500.02235174447, -187500.02235174447, -0.034, 0.034, 0.998, 192.0, 0.0, 0.0, 0.0, 0.0, 0.0, 0.0, 0.0, 0.0, 0.0, 1.67604715274601E9, 0.0, 2023-02-10 11:39:12.746
195.0, 16233.02146590012, 187500.0, 187500.0, 187500.0, -187500.02235174447, 187500.0, -187500.02235174447, -187500.02235174447, -0.034, 0.034, 0.998, 192.0, 0.0, 0.0, 0.0, 0.0, 0.0, 0.0, 0.0, 0.0, 0.0, 1.67604715275245E9, 0.0, 2023-02-10 11:39:12.752
196.0, 15922.689845882636, 187500.0, 187500.0, 187500.0, -187500.02235174447, 187500.0, -187500.02235174447, -187500.02235174447, -0.034, 0.034, 0.998, 192.0, 0.0, 0.0, 0.0, 0.0, 0.0, 0.0, 0.0, 0.0, 0.0, 1.676047152752475E9, 0.0, 2023-02-10 11:39:12.752
197.0, 15820.520021977429, 187500.0, 187500.0, 187500.0, -187500.02235174447, 187500.0, -187500.02235174447, -187500.02235174447, -0.034, 0.034, 0.998, 192.0, 0.0, 0.0, 0.0, 0.0, 0.0, 0.0, 0.0, 0.0, 0.0, 1.676047152760538E9, 0.0, 2023-02-10 11:39:12.760
198.0, 15907.043624763923, 187500.0, 187500.0, 187500.0, -187500.02235174447, 187500.0, -187500.02235174447, -187500.02235174447, -0.034, 0.034, 0.998, 192.0, 0.0, 0.0, 0.0, 0.0, 0.0, 0.0, 0.0, 0.0, 0.0, 1.676047152760567E9, 0.0, 2023-02-10 11:39:12.760
199.0, 15645.28234544782, 187500.0, 187500.0, 187500.0, -187500.02235174447, 187500.0, -187500.02235174447, -187500.02235174447, -0.034, 0.034, 0.998, 192.0, 0.0, 0.0, 0.0, 0.0, 0.0, 0.0, 0.0, 0.0, 0.0, 1.676047152767454E9, 0.0, 2023-02-10 11:39:12.767
200.0, 15754.202396178533, 187500.0, 187500.0, 187500.0, -187500.02235174447, 187500.0, -187500.02235174447, -187500.02235174447, -0.034, 0.034, 0.998, 192.0, 0.0, 0.0, 0.0, 0.0, 0.0, 0.0, 0.0, 0.0, 0.0, 1.676047152767498E9, 0.0, 2023-02-10 11:39:12.767
201.0, 15751.095503699245, 187500.0, 187500.0, 187500.0, -187500.02235174447, 187500.0, -187500.02235174447, -187500.02235174447, -0.034, 0.034, 0.998, 192.0, 0.0, 0.0, 0.0, 0.0, 0.0, 0.0, 0.0, 0.0, 0.0, 1.676047152775579E9, 0.0, 2023-02-10 11:39:12.775
202.0, 15766.048820739845, 187500.0, 187500.0, 187500.0, -187500.02235174447, 187500.0, -187500.02235174447, -187500.02235174447, -0.034, 0.034, 0.998, 192.0, 0.0, 0.0, 0.0, 0.0, 0.0, 0.0, 0.0, 0.0, 0.0, 1.676047152782193E9, 0.0, 2023-02-10 11:39:12.782
203.0, 15989.901541459745, 187500.0, 187500.0, 187500.0, -187500.02235174447, 187500.0, -187500.02235174447, -187500.02235174447, -0.034, 0.032, 0.998, 192.0, 254.0, 240.0, 1.0, 0.0, 31.0, 48.0, 0.0, 0.0, 0.0, 1.676047152782218E9, 0.0, 2023-02-10 11:39:12.782
204.0, 16016.991855739578, 187500.0, 187500.0, 187500.0, -187500.02235174447, 187500.0, -187500.02235174447, -187500.02235174447, -0.034, 0.032, 0.998, 192.0, 0.0, 0.0, 0.0, 0.0, 0.0, 0.0, 0.0, 0.0, 0.0, 1.676047152790137E9, 0.0, 2023-02-10 11:39:12.790
205.0, 15861.75899049747, 187500.0, 187500.0, 187500.0, -187500.02235174447, 187500.0, -187500.02235174447, -187500.02235174447, -0.034, 0.032, 0.998, 192.0, 0.0, 0.0, 0.0, 0.0, 0.0, 0.0, 0.0, 0.0, 0.0, 1.676047152790159E9, 0.0, 2023-02-10 11:39:12.790
