%OpenBCI Raw EEG Data
%Number of channels = 8
%Sample Rate = 250 Hz
%Board = OpenBCI_GUI$BoardCytonSerial
Sample Index, EXG Channel 0, EXG Channel 1, EXG Channel 2, EXG Channel 3, EXG Channel 4, EXG Channel 5, EXG Channel 6, EXG Channel 7, Accel Channel 0, Accel Channel 1, Accel Channel 2, Other, Other, Other, Other, Other, Other, Other, Analog Channel 0, Analog Channel 1, Analog Channel 2, Timestamp, Other, Timestamp (Formatted)
54.0, 6190.516792597389, 187500.0, 187500.0, 187500.0, -187500.02235174447, 187500.0, -187500.02235174447, -187500.02235174447, 0.0, 0.0, 0.0, 192.0, 0.0, 0.0, 0.0, 0.0, 0.0, 0.0, 0.0, 0.0, 0.0, 1.676047399976919E9, 0.0, 2023-02-10 11:43:19.976
55.0, 6287.098680388771, 187500.0, 187500.0, 187500.0, -187500.02235174447, 187500.0, -187500.02235174447, -187500.02235174447, 0.0, 0.0, 0.0, 192.0, 0.0, 0.0, 0.0, 0.0, 0.0, 0.0, 0.0, 0.0, 0.0, 1.676047399976946E9, 0.0, 2023-02-10 11:43:19.976
56.0, 6313.160814423659, 187500.0, 187500.0, 187500.0, -187500.02235174447, 187500.0, -187500.02235174447, -187500.02235174447, 0.0, 0.0, 0.0, 192.0, 0.0, 0.0, 0.0, 0.0, 0.0, 0.0, 0.0, 0.0, 0.0, 1.676047399976956E9, 0.0, 2023-02-10 11:43:19.976
57.0, 6369.040175561926, 187500.0, 187500.0, 187500.0, -187500.02235174447, 187500.0, -187500.02235174447, -187500.02235174447, 0.0, 0.0, 0.0, 192.0, 0.0, 0.0, 0.0, 0.0, 0.0, 0.0, 0.0, 0.0, 0.0, 1.676047399976965E9, 0.0, 2023-02-10 11:43:19.976
58.0, 6467.723127332107, 187500.0, 187500.0, 187500.0, -187500.02235174447, 187500.0, -187500.02235174447, -187500.02235174447, -0.026000000000000002, 0.03, 0.998, 192.0, 255.0, 48.0, 0.0, 240.0, 31.0, 48.0, 0.0, 0.0, 0.0, 1.676047399976974E9, 0.0, 2023-02-10 11:43:19.976
0.0, 0.0, 0.0, 0.0, 0.0, 0.0, 0.0, 0.0, 0.0, -0.026000000000000002, 0.03, 0.998, 192.0, 0.0, 0.0, 0.0, 0.0, 0.0, 0.0, 0.0, 0.0, 0.0, 1.676047400074232E9, 0.0, 2023-02-10 11:43:20.074
1.0, 6600.201916718712, 187500.0, 187500.0, 187500.0, -187500.02235174447, 187500.0, -187500.02235174447, -187500.02235174447, -0.028, 0.034, 1.0, 192.0, 255.0, 32.0, 1.0, 16.0, 31.0, 64.0, 0.0, 0.0, 0.0, 1.676047400096876E9, 0.0, 2023-02-10 11:43:20.096
2.0, 6660.953958148237, 187500.0, 187500.0, 187500.0, -187500.02235174447, 187500.0, -187500.02235174447, -187500.02235174447, -0.028, 0.034, 1.0, 192.0, 0.0, 0.0, 0.0, 0.0, 0.0, 0.0, 0.0, 0.0, 0.0, 1.676047400096907E9, 0.0, 2023-02-10 11:43:20.096
3.0, 6672.353347820444, 187500.0, 187500.0, 187500.0, -187500.02235174447, 187500.0, -187500.02235174447, -187500.02235174447, -0.028, 0.034, 1.0, 192.0, 0.0, 0.0, 0.0, 0.0, 0.0, 0.0, 0.0, 0.0, 0.0, 1.676047400103911E9, 0.0, 2023-02-10 11:43:20.103
4.0, 6554.380840585332, 187500.0, 187500.0, 187500.0, -187500.02235174447, 187500.0, -187500.02235174447, -187500.02235174447, -0.028, 0.034, 1.0, 192.0, 0.0, 0.0, 0.0, 0.0, 0.0, 0.0, 0.0, 0.0, 0.0, 1.676047400103934E9, 0.0, 2023-02-10 11:43:20.103
5.0, 6585.405061889299, 187500.0, 187500.0, 187500.0, -187500.02235174447, 187500.0, -187500.02235174447, -187500.02235174447, -0.028, 0.034, 1.0, 192.0, 0.0, 0.0, 0.0, 0.0, 0.0, 0.0, 0.0, 0.0, 0.0, 1.676047400111359E9, 0.0, 2023-02-10 11:43:20.111
6.0, 6660.238702325667, 187500.0, 187500.0, 187500.0, -187500.02235174447, 187500.0, -187500.02235174447, -187500.02235174447, -0.028, 0.034, 1.0, 192.0, 0.0, 0.0, 0.0, 0.0, 0.0, 0.0, 0.0, 0.0, 0.0, 1.676047400111387E9, 0.0, 2023-02-10 11:43:20.111
7.0, 6616.876318082371, 187500.0, 187500.0, 187500.0, -187500.02235174447, 187500.0, -187500.02235174447, -187500.02235174447, -0.028, 0.034, 1.0, 192.0, 0.0, 0.0, 0.0, 0.0, 0.0, 0.0, 0.0, 0.0, 0.0, 1.676047400119398E9, 0.0, 2023-02-10 11:43:20.119
8.0, 6455.250853926045, 187500.0, 187500.0, 187500.0, -187500.02235174447, 187500.0, -187500.02235174447, -187500.02235174447, -0.028, 0.03, 1.0, 192.0, 255.0, 32.0, 0.0, 240.0, 31.0, 64.0, 0.0, 0.0, 0.0, 1.676047400119419E9, 0.0, 2023-02-10 11:43:20.119
9.0, 6504.737616150095, 187500.0, 187500.0, 187500.0, -187500.02235174447, 187500.0, -187500.02235174447, -187500.02235174447, -0.028, 0.03, 1.0, 192.0, 0.0, 0.0, 0.0, 0.0, 0.0, 0.0, 0.0, 0.0, 0.0, 1.676047400127703E9, 0.0, 2023-02-10 11:43:20.127
10.0, 6631.650821167329, 187500.0, 187500.0, 187500.0, -187500.02235174447, 187500.0, -187500.02235174447, -187500.02235174447, -0.028, 0.03, 1.0, 192.0, 0.0, 0.0, 0.0, 0.0, 0.0, 0.0, 0.0, 0.0, 0.0, 1.676047400127747E9, 0.0, 2023-02-10 11:43:20.127
11.0, 6606.59451563293, 187500.0, 187500.0, 187500.0, -187500.02235174447, 187500.0, -187500.02235174447, -187500.02235174447, -0.028, 0.03, 1.0, 192.0, 0.0, 0.0, 0.0, 0.0, 0.0, 0.0, 0.0, 0.0, 0.0, 1.676047400133941E9, 0.0, 2023-02-10 11:43:20.133
12.0, 6500.9601713371485, 187500.0, 187500.0, 187500.0, -187500.02235174447, 187500.0, -187500.02235174447, -187500.02235174447, -0.028, 0.03, 1.0, 192.0, 0.0, 0.0, 0.0, 0.0, 0.0, 0.0, 0.0, 0.0, 0.0, 1.676047400133979E9, 0.0, 2023-02-10 11:43:20.133
13.0, 6446.287804399468, 187500.0, 187500.0, 187500.0, -187500.02235174447, 187500.0, -187500.02235174447, -187500.02235174447, -0.028, 0.03, 1.0, 192.0, 0.0, 0.0, 0.0, 0.0, 0.0, 0.0, 0.0, 0.0, 0.0, 1.676047400140924E9, 0.0, 2023-02-10 11:43:20.140
14.0, 6520.160319824257, 187500.0, 187500.0, 187500.0, -187500.02235174447, 187500.0, -187500.02235174447, -187500.02235174447, -0.028, 0.03, 1.0, 192.0, 0.0, 0.0, 0.0, 0.0, 0.0, 0.0, 0.0, 0.0, 0.0, 1.676047400148952E9, 0.0, 2023-02-10 11:43:20.148
15.0, 6513.857127887861, 187500.0, 187500.0, 187500.0, -187500.02235174447, 187500.0, -187500.02235174447, -187500.02235174447, -0.028, 0.03, 1.0, 192.0, 0.0, 0.0, 0.0, 0.0, 0.0, 0.0, 0.0, 0.0, 0.0, 1.676047400148972E9, 0.0, 2023-02-10 11:43:20.148
16.0, 6513.3877412543, 187500.0, 187500.0, 187500.0, -187500.02235174447, 187500.0, -187500.02235174447, -187500.02235174447, -0.028, 0.03, 1.0, 192.0, 0.0, 0.0, 0.0, 0.0, 0.0, 0.0, 0.0, 0.0, 0.0, 1.676047400158559E9, 0.0, 2023-02-10 11:43:20.158
17.0, 6498.345017235878, 187500.0, 187500.0, 187500.0, -187500.02235174447, 187500.0, -187500.02235174447, -187500.02235174447, -0.032, 0.026000000000000002, 1.004, 192.0, 255.0, 0.0, 0.0, 208.0, 31.0, 96.0, 0.0, 0.0, 0.0, 1.676047400158581E9, 0.0, 2023-02-10 11:43:20.158
18.0, 6541.036849145514, 187500.0, 187500.0, 187500.0, -187500.02235174447, 187500.0, -187500.02235174447, -187500.02235174447, -0.032, 0.026000000000000002, 1.004, 192.0, 0.0, 0.0, 0.0, 0.0, 0.0, 0.0, 0.0, 0.0, 0.0, 1.676047400164701E9, 0.0, 2023-02-10 11:43:20.164
19.0, 6578.051337963502, 187500.0, 187500.0, 187500.0, -187500.02235174447, 187500.0, -187500.02235174447, -187500.02235174447, -0.032, 0.026000000000000002, 1.004, 192.0, 0.0, 0.0, 0.0, 0.0, 0.0, 0.0, 0.0, 0.0, 0.0, 1.676047400164729E9, 0.0, 2023-02-10 11:43:20.164
20.0, 6515.488805233098, 187500.0, 187500.0, 187500.0, -187500.02235174447, 187500.0, -187500.02235174447, -187500.02235174447, -0.032, 0.026000000000000002, 1.004, 192.0, 0.0, 0.0, 0.0, 0.0, 0.0, 0.0, 0.0, 0.0, 0.0, 1.676047400171927E9, 0.0, 2023-02-10 11:43:20.171
21.0, 6365.486248193532, 187500.0, 187500.0, 187500.0, -187500.02235174447, 187500.0, -187500.02235174447, -187500.02235174447, -0.032, 0.026000000000000002, 1.004, 192.0, 0.0, 0.0, 0.0, 0.0, 0.0, 0.0, 0.0, 0.0, 0.0, 1.676047400171969E9, 0.0, 2023-02-10 11:43:20.171
22.0, 6347.336631695823, 187500.0, 187500.0, 187500.0, -187500.02235174447, 187500.0, -187500.02235174447, -187500.02235174447, -0.032, 0.026000000000000002, 1.004, 192.0, 0.0, 0.0, 0.0, 0.0, 0.0, 0.0, 0.0, 0.0, 0.0, 1.67604740017964E9, 0.0, 2023-02-10 11:43:20.179
23.0, 6455.496723115054, 187500.0, 187500.0, 187500.0, -187500.02235174447, 187500.0, -187500.02235174447, -187500.02235174447, -0.032, 0.026000000000000002, 1.004, 192.0, 0.0, 0.0, 0.0, 0.0, 0.0, 0.0, 0.0, 0.0, 0.0, 1.676047400179668E9, 0.0, 2023-02-10 11:43:20.179
24.0, 6523.9154128927485, 187500.0, 187500.0, 187500.0, -187500.02235174447, 187500.0, -187500.02235174447, -187500.02235174447, -0.032, 0.026000000000000002, 1.004, 192.0, 0.0, 0.0, 0.0, 0.0, 0.0, 0.0, 0.0, 0.0, 0.0, 1.676047400186776E9, 0.0, 2023-02-10 11:43:20.186
25.0, 6429.121664657791, 187500.0, 187500.0, 187500.0, -187500.02235174447, 187500.0, -187500.02235174447, -187500.02235174447, -0.032, 0.026000000000000002, 1.004, 192.0, 0.0, 0.0, 0.0, 0.0, 0.0, 0.0, 0.0, 0.0, 0.0, 1.676047400186806E9, 0.0, 2023-02-10 11:43:20.186
26.0, 6389.044986849426, 187500.0, 187500.0, 187500.0, -187500.02235174447, 187500.0, -187500.02235174447, -187500.02235174447, -0.032, 0.026000000000000002, 1.004, 192.0, 0.0, 0.0, 0.0, 0.0, 0.0, 0.0, 0.0, 0.0, 0.0, 1.67604740019433E9, 0.0, 2023-02-10 11:43:20.194
27.0, 6493.2711712445225, 187500.0, 187500.0, 187500.0, -187500.02235174447, 187500.0, -187500.02235174447, -187500.02235174447, -0.024, 0.022, 1.002, 192.0, 255.0, 64.0, 0.0, 176.0, 31.0, 80.0, 0.0, 0.0, 0.0, 1.676047400194356E9, 0.0, 2023-02-10 11:43:20.194
28.0, 6483.771679851017, 187500.0, 187500.0, 187500.0, -187500.02235174447, 187500.0, -187500.02235174447, -187500.02235174447, -0.024, 0.022, 1.002, 192.0, 0.0, 0.0, 0.0, 0.0, 0.0, 0.0, 0.0, 0.0, 0.0, 1.676047400201227E9, 0.0, 2023-02-10 11:43:20.201
29.0, 6402.456033522611, 187500.0, 187500.0, 187500.0, -187500.02235174447, 187500.0, -187500.02235174447, -187500.02235174447, -0.024, 0.022, 1.002, 192.0, 0.0, 0.0, 0.0, 0.0, 0.0, 0.0, 0.0, 0.0, 0.0, 1.676047400201252E9, 0.0, 2023-02-10 11:43:20.201
30.0, 6365.374489471256, 187500.0, 187500.0, 187500.0, -187500.02235174447, 187500.0, -187500.02235174447, -187500.02235174447, -0.024, 0.022, 1.002, 192.0, 0.0, 0.0, 0.0, 0.0, 0.0, 0.0, 0.0, 0.0, 0.0, 1.676047400209394E9, 0.0, 2023-02-10 11:43:20.209
31.0, 6395.191716574635, 187500.0, 187500.0, 187500.0, -187500.02235174447, 187500.0, -187500.02235174447, -187500.02235174447, -0.024, 0.022, 1.002, 192.0, 0.0, 0.0, 0.0, 0.0, 0.0, 0.0, 0.0, 0.0, 0.0, 1.676047400217355E9, 0.0, 2023-02-10 11:43:20.217
32.0, 6322.392084883701, 187500.0, 187500.0, 187500.0, -187500.02235174447, 187500.0, -187500.02235174447, -187500.02235174447, -0.024, 0.022, 1.002, 192.0, 0.0, 0.0, 0.0, 0.0, 0.0, 0.0, 0.0, 0.0, 0.0, 1.676047400217398E9, 0.0, 2023-02-10 11:43:20.217
33.0, 6368.414326717178, 187500.0, 187500.0, 187500.0, -187500.02235174447, 187500.0, -187500.02235174447, -187500.02235174447, -0.024, 0.022, 1.002, 192.0, 0.0, 0.0, 0.0, 0.0, 0.0, 0.0, 0.0, 0.0, 0.0, 1.676047400223999E9, 0.0, 2023-02-10 11:43:20.223
34.0, 6401.785481188951, 187500.0, 187500.0, 187500.0, -187500.02235174447, 187500.0, -187500.02235174447, -187500.02235174447, -0.024, 0.022, 1.002, 192.0, 0.0, 0.0, 0.0, 0.0, 0.0, 0.0, 0.0, 0.0, 0.0, 1.676047400224031E9, 0.0, 2023-02-10 11:43:20.224
35.0, 6409.0945016258365, 187500.0, 187500.0, 187500.0, -187500.02235174447, 187500.0, -187500.02235174447, -187500.02235174447, -0.024, 0.022, 1.002, 192.0, 0.0, 0.0, 0.0, 0.0, 0.0, 0.0, 0.0, 0.0, 0.0, 1.676047400233214E9, 0.0, 2023-02-10 11:43:20.233
36.0, 6377.131507054747, 187500.0, 187500.0, 187500.0, -187500.02235174447, 187500.0, -187500.02235174447, -187500.02235174447, -0.024, 0.022, 1.002, 192.0, 0.0, 0.0, 0.0, 0.0, 0.0, 0.0, 0.0, 0.0, 0.0, 1.676047400233238E9, 0.0, 2023-02-10 11:43:20.233
37.0, 6241.299955999846, 187500.0, 187500.0, 187500.0, -187500.02235174447, 187500.0, -187500.02235174447, -187500.02235174447, -0.026000000000000002, 0.032, 1.002, 192.0, 255.0, 48.0, 1.0, 0.0, 31.0, 80.0, 0.0, 0.0, 0.0, 1.67604740024007E9, 0.0, 2023-02-10 11:43:20.240
38.0, 6199.301028168325, 187500.0, 187500.0, 187500.0, -187500.02235174447, 187500.0, -187500.02235174447, -187500.02235174447, -0.026000000000000002, 0.032, 1.002, 192.0, 0.0, 0.0, 0.0, 0.0, 0.0, 0.0, 0.0, 0.0, 0.0, 1.676047400240119E9, 0.0, 2023-02-10 11:43:20.240
39.0, 6343.156855482681, 187500.0, 187500.0, 187500.0, -187500.02235174447, 187500.0, -187500.02235174447, -187500.02235174447, -0.026000000000000002, 0.032, 1.002, 192.0, 0.0, 0.0, 0.0, 0.0, 0.0, 0.0, 0.0, 0.0, 0.0, 1.676047400246467E9, 0.0, 2023-02-10 11:43:20.246
40.0, 6408.9156876701945, 187500.0, 187500.0, 187500.0, -187500.02235174447, 187500.0, -187500.02235174447, -187500.02235174447, -0.026000000000000002, 0.032, 1.002, 192.0, 0.0, 0.0, 0.0, 0.0, 0.0, 0.0, 0.0, 0.0, 0.0, 1.676047400246491E9, 0.0, 2023-02-10 11:43:20.246
41.0, 6340.295832192402, 187500.0, 187500.0, 187500.0, -187500.02235174447, 187500.0, -187500.02235174447, -187500.02235174447, -0.026000000000000002, 0.032, 1.002, 192.0, 0.0, 0.0, 0.0, 0.0, 0.0, 0.0, 0.0, 0.0, 0.0, 1.67604740025452E9, 0.0, 2023-02-10 11:43:20.254
42.0, 6176.79282150183, 187500.0, 187500.0, 187500.0, -187500.02235174447, 187500.0, -187500.02235174447, -187500.02235174447, -0.026000000000000002, 0.032, 1.002, 192.0, 0.0, 0.0, 0.0, 0.0, 0.0, 0.0, 0.0, 0.0, 0.0, 1.676047400254544E9, 0.0, 2023-02-10 11:43:20.254
43.0, 6192.9084292541065, 187500.0, 187500.0, 187500.0, -187500.02235174447, 187500.0, -187500.02235174447, -187500.02235174447, -0.026000000000000002, 0.032, 1.002, 192.0, 0.0, 0.0, 0.0, 0.0, 0.0, 0.0, 0.0, 0.0, 0.0, 1.676047400262538E9, 0.0, 2023-02-10 11:43:20.262
44.0, 6333.120922222248, 187500.0, 187500.0, 187500.0, -187500.02235174447, 187500.0, -187500.02235174447, -187500.02235174447, -0.026000000000000002, 0.032, 1.002, 192.0, 0.0, 0.0, 0.0, 0.0, 0.0, 0.0, 0.0, 0.0, 0.0, 1.676047400262562E9, 0.0, 2023-02-10 11:43:20.262
45.0, 6297.849869471774, 187500.0, 187500.0, 187500.0, -187500.02235174447, 187500.0, -187500.02235174447, -187500.02235174447, -0.026000000000000002, 0.032, 1.002, 192.0, 0.0, 0.0, 0.0, 0.0, 0.0, 0.0, 0.0, 0.0, 0.0, 1.676047400268749E9, 0.0, 2023-02-10 11:43:20.268
46.0, 6234.974412318995, 187500.0, 187500.0, 187500.0, -187500.02235174447, 187500.0, -187500.02235174447, -187500.02235174447, -0.026000000000000002, 0.032, 1.002, 192.0, 0.0, 0.0, 0.0, 0.0, 0.0, 0.0, 0.0, 0.0, 0.0, 1.676047400276339E9, 0.0, 2023-02-10 11:43:20.276
47.0, 6276.548657005866, 187500.0, 187500.0, 187500.0, -187500.02235174447, 187500.0, -187500.02235174447, -187500.02235174447, -0.024, 0.03, 1.0, 192.0, 255.0, 64.0, 0.0, 240.0, 31.0, 64.0, 0.0, 0.0, 0.0, 1.67604740027638E9, 0.0, 2023-02-10 11:43:20.276
48.0, 6294.362997336745, 187500.0, 187500.0, 187500.0, -187500.02235174447, 187500.0, -187500.02235174447, -187500.02235174447, -0.024, 0.03, 1.0, 192.0, 0.0, 0.0, 0.0, 0.0, 0.0, 0.0, 0.0, 0.0, 0.0, 1.676047400284101E9, 0.0, 2023-02-10 11:43:20.284
49.0, 6223.262098224413, 187500.0, 187500.0, 187500.0, -187500.02235174447, 187500.0, -187500.02235174447, -187500.02235174447, -0.024, 0.03, 1.0, 192.0, 0.0, 0.0, 0.0, 0.0, 0.0, 0.0, 0.0, 0.0, 0.0, 1.676047400284122E9, 0.0, 2023-02-10 11:43:20.284
50.0, 6117.851271373185, 187500.0, 187500.0, 187500.0, -187500.02235174447, 187500.0, -187500.02235174447, -187500.02235174447, -0.024, 0.03, 1.0, 192.0, 0.0, 0.0, 0.0, 0.0, 0.0, 0.0, 0.0, 0.0, 0.0, 1.676047400292078E9, 0.0, 2023-02-10 11:43:20.292
51.0, 6164.655824262599, 187500.0, 187500.0, 187500.0, -187500.02235174447, 187500.0, -187500.02235174447, -187500.02235174447, -0.024, 0.03, 1.0, 192.0, 0.0, 0.0, 0.0, 0.0, 0.0, 0.0, 0.0, 0.0, 0.0, 1.676047400292123E9, 0.0, 2023-02-10 11:43:20.292
52.0, 6269.083174357793, 187500.0, 187500.0, 187500.0, -187500.02235174447, 187500.0, -187500.02235174447, -187500.02235174447, -0.024, 0.03, 1.0, 192.0, 0.0, 0.0, 0.0, 0.0, 0.0, 0.0, 0.0, 0.0, 0.0, 1.676047400298662E9, 0.0, 2023-02-10 11:43:20.298
53.0, 6248.273700269902, 187500.0, 187500.0, 187500.0, -187500.02235174447, 187500.0, -187500.02235174447, -187500.02235174447, -0.024, 0.03, 1.0, 192.0, 0.0, 0.0, 0.0, 0.0, 0.0, 0.0, 0.0, 0.0, 0.0, 1.676047400298681E9, 0.0, 2023-02-10 11:43:20.298
54.0, 6184.973559972473, 187500.0, 187500.0, 187500.0, -187500.02235174447, 187500.0, -187500.02235174447, -187500.02235174447, -0.024, 0.03, 1.0, 192.0, 0.0, 0.0, 0.0, 0.0, 0.0, 0.0, 0.0, 0.0, 0.0, 1.676047400307097E9, 0.0, 2023-02-10 11:43:20.307
55.0, 6170.668443521076, 187500.0, 187500.0, 187500.0, -187500.02235174447, 187500.0, -187500.02235174447, -187500.02235174447, -0.024, 0.03, 1.0, 192.0, 0.0, 0.0, 0.0, 0.0, 0.0, 0.0, 0.0, 0.0, 0.0, 1.676047400307132E9, 0.0, 2023-02-10 11:43:20.307
56.0, 6201.692664825042, 187500.0, 187500.0, 187500.0, -187500.02235174447, 187500.0, -187500.02235174447, -187500.02235174447, -0.024, 0.03, 1.0, 192.0, 0.0, 0.0, 0.0, 0.0, 0.0, 0.0, 0.0, 0.0, 0.0, 1.676047400315303E9, 0.0, 2023-02-10 11:43:20.315
57.0, 6176.390490101635, 187500.0, 187500.0, 187500.0, -187500.02235174447, 187500.0, -187500.02235174447, -187500.02235174447, -0.024, 0.038, 0.996, 192.0, 255.0, 64.0, 1.0, 48.0, 31.0, 32.0, 0.0, 0.0, 0.0, 1.676047400315331E9, 0.0, 2023-02-10 11:43:20.315
58.0, 6086.558829135755, 187500.0, 187500.0, 187500.0, -187500.02235174447, 187500.0, -187500.02235174447, -187500.02235174447, -0.024, 0.038, 0.996, 192.0, 0.0, 0.0, 0.0, 0.0, 0.0, 0.0, 0.0, 0.0, 0.0, 1.676047400321516E9, 0.0, 2023-02-10 11:43:20.321
59.0, 5998.247086792838, 187500.0, 187500.0, 187500.0, -187500.02235174447, 187500.0, -187500.02235174447, -187500.02235174447, -0.024, 0.038, 0.996, 192.0, 0.0, 0.0, 0.0, 0.0, 0.0, 0.0, 0.0, 0.0, 0.0, 1.676047400321556E9, 0.0, 2023-02-10 11:43:20.321
60.0, 6166.868646963674, 187500.0, 187500.0, 187500.0, -187500.02235174447, 187500.0, -187500.02235174447, -187500.02235174447, -0.024, 0.038, 0.996, 192.0, 0.0, 0.0, 0.0, 0.0, 0.0, 0.0, 0.0, 0.0, 0.0, 1.676047400328474E9, 0.0, 2023-02-10 11:43:20.328
61.0, 6171.383699343646, 187500.0, 187500.0, 187500.0, -187500.02235174447, 187500.0, -187500.02235174447, -187500.02235174447, -0.024, 0.038, 0.996, 192.0, 0.0, 0.0, 0.0, 0.0, 0.0, 0.0, 0.0, 0.0, 0.0, 1.676047400336398E9, 0.0, 2023-02-10 11:43:20.336
62.0, 6084.658930857055, 187500.0, 187500.0, 187500.0, -187500.02235174447, 187500.0, -187500.02235174447, -187500.02235174447, -0.024, 0.038, 0.996, 192.0, 0.0, 0.0, 0.0, 0.0, 0.0, 0.0, 0.0, 0.0, 0.0, 1.676047400336425E9, 0.0, 2023-02-10 11:43:20.336
63.0, 6057.948596232963, 187500.0, 187500.0, 187500.0, -187500.02235174447, 187500.0, -187500.02235174447, -187500.02235174447, -0.024, 0.038, 0.996, 192.0, 0.0, 0.0, 0.0, 0.0, 0.0, 0.0, 0.0, 0.0, 0.0, 1.676047400344527E9, 0.0, 2023-02-10 11:43:20.344
64.0, 6065.011747480839, 187500.0, 187500.0, 187500.0, -187500.02235174447, 187500.0, -187500.02235174447, -187500.02235174447, -0.024, 0.038, 0.996, 192.0, 0.0, 0.0, 0.0, 0.0, 0.0, 0.0, 0.0, 0.0, 0.0, 1.676047400344558E9, 0.0, 2023-02-10 11:43:20.344
65.0, 6142.505245507389, 187500.0, 187500.0, 187500.0, -187500.02235174447, 187500.0, -187500.02235174447, -187500.02235174447, -0.024, 0.038, 0.996, 192.0, 0.0, 0.0, 0.0, 0.0, 0.0, 0.0, 0.0, 0.0, 0.0, 1.676047400350941E9, 0.0, 2023-02-10 11:43:20.350
66.0, 6097.9358670635065, 187500.0, 187500.0, 187500.0, -187500.02235174447, 187500.0, -187500.02235174447, -187500.02235174447, -0.024, 0.038, 0.996, 192.0, 0.0, 0.0, 0.0, 0.0, 0.0, 0.0, 0.0, 0.0, 0.0, 1.676047400350963E9, 0.0, 2023-02-10 11:43:20.350
67.0, 6064.229436424904, 187500.0, 187500.0, 187500.0, -187500.02235174447, 187500.0, -187500.02235174447, -187500.02235174447, -0.024, 0.034, 0.996, 192.0, 255.0, 64.0, 1.0, 16.0, 31.0, 32.0, 0.0, 0.0, 0.0, 1.676047400358949E9, 0.0, 2023-02-10 11:43:20.358
68.0, 6148.137885110126, 187500.0, 187500.0, 187500.0, -187500.02235174447, 187500.0, -187500.02235174447, -187500.02235174447, -0.024, 0.034, 0.996, 192.0, 0.0, 0.0, 0.0, 0.0, 0.0, 0.0, 0.0, 0.0, 0.0, 1.67604740035897E9, 0.0, 2023-02-10 11:43:20.358
69.0, 6170.26611212088, 187500.0, 187500.0, 187500.0, -187500.02235174447, 187500.0, -187500.02235174447, -187500.02235174447, -0.024, 0.034, 0.996, 192.0, 0.0, 0.0, 0.0, 0.0, 0.0, 0.0, 0.0, 0.0, 0.0, 1.676047400366937E9, 0.0, 2023-02-10 11:43:20.366
70.0, 6082.781384322809, 187500.0, 187500.0, 187500.0, -187500.02235174447, 187500.0, -187500.02235174447, -187500.02235174447, -0.024, 0.034, 0.996, 192.0, 0.0, 0.0, 0.0, 0.0, 0.0, 0.0, 0.0, 0.0, 0.0, 1.676047400366955E9, 0.0, 2023-02-10 11:43:20.366
71.0, 5970.6203306460775, 187500.0, 187500.0, 187500.0, -187500.02235174447, 187500.0, -187500.02235174447, -187500.02235174447, -0.024, 0.034, 0.996, 192.0, 0.0, 0.0, 0.0, 0.0, 0.0, 0.0, 0.0, 0.0, 0.0, 1.676047400374365E9, 0.0, 2023-02-10 11:43:20.374
72.0, 6047.733849016888, 187500.0, 187500.0, 187500.0, -187500.02235174447, 187500.0, -187500.02235174447, -187500.02235174447, -0.024, 0.034, 0.996, 192.0, 0.0, 0.0, 0.0, 0.0, 0.0, 0.0, 0.0, 0.0, 0.0, 1.676047400374386E9, 0.0, 2023-02-10 11:43:20.374
73.0, 6072.67839582901, 187500.0, 187500.0, 187500.0, -187500.02235174447, 187500.0, -187500.02235174447, -187500.02235174447, -0.024, 0.034, 0.996, 192.0, 0.0, 0.0, 0.0, 0.0, 0.0, 0.0, 0.0, 0.0, 0.0, 1.676047400383764E9, 0.0, 2023-02-10 11:43:20.383
74.0, 6020.6211829926, 187500.0, 187500.0, 187500.0, -187500.02235174447, 187500.0, -187500.02235174447, -187500.02235174447, -0.024, 0.034, 0.996, 192.0, 0.0, 0.0, 0.0, 0.0, 0.0, 0.0, 0.0, 0.0, 0.0, 1.676047400383785E9, 0.0, 2023-02-10 11:43:20.383
75.0, 5931.102446449095, 187500.0, 187500.0, 187500.0, -187500.02235174447, 187500.0, -187500.02235174447, -187500.02235174447, -0.024, 0.034, 0.996, 192.0, 0.0, 0.0, 0.0, 0.0, 0.0, 0.0, 0.0, 0.0, 0.0, 1.676047400390231E9, 0.0, 2023-02-10 11:43:20.390
76.0, 5986.892400609541, 187500.0, 187500.0, 187500.0, -187500.02235174447, 187500.0, -187500.02235174447, -187500.02235174447, -0.024, 0.036000000000000004, 0.996, 192.0, 255.0, 64.0, 1.0, 32.0, 31.0, 32.0, 0.0, 0.0, 0.0, 1.676047400396462E9, 0.0, 2023-02-10 11:43:20.396
77.0, 6049.81256125123, 187500.0, 187500.0, 187500.0, -187500.02235174447, 187500.0, -187500.02235174447, -187500.02235174447, -0.024, 0.036000000000000004, 0.996, 192.0, 0.0, 0.0, 0.0, 0.0, 0.0, 0.0, 0.0, 0.0, 0.0, 1.676047400396497E9, 0.0, 2023-02-10 11:43:20.396
78.0, 6001.957476372419, 187500.0, 187500.0, 187500.0, -187500.02235174447, 187500.0, -187500.02235174447, -187500.02235174447, -0.024, 0.036000000000000004, 0.996, 192.0, 0.0, 0.0, 0.0, 0.0, 0.0, 0.0, 0.0, 0.0, 0.0, 1.676047400404002E9, 0.0, 2023-02-10 11:43:20.404
79.0, 5909.667123516456, 187500.0, 187500.0, 187500.0, -187500.02235174447, 187500.0, -187500.02235174447, -187500.02235174447, -0.024, 0.036000000000000004, 0.996, 192.0, 0.0, 0.0, 0.0, 0.0, 0.0, 0.0, 0.0, 0.0, 0.0, 1.67604740040403E9, 0.0, 2023-02-10 11:43:20.404
80.0, 5998.336493770658, 187500.0, 187500.0, 187500.0, -187500.02235174447, 187500.0, -187500.02235174447, -187500.02235174447, -0.024, 0.036000000000000004, 0.996, 192.0, 0.0, 0.0, 0.0, 0.0, 0.0, 0.0, 0.0, 0.0, 0.0, 1.676047400412196E9, 0.0, 2023-02-10 11:43:20.412
81.0, 6036.960308189429, 187500.0, 187500.0, 187500.0, -187500.02235174447, 187500.0, -187500.02235174447, -187500.02235174447, -0.024, 0.036000000000000004, 0.996, 192.0, 0.0, 0.0, 0.0, 0.0, 0.0, 0.0, 0.0, 0.0, 0.0, 1.676047400412244E9, 0.0, 2023-02-10 11:43:20.412
82.0, 5997.665941437, 187500.0, 187500.0, 187500.0, -187500.02235174447, 187500.0, -187500.02235174447, -187500.02235174447, -0.024, 0.036000000000000004, 0.996, 192.0, 0.0, 0.0, 0.0, 0.0, 0.0, 0.0, 0.0, 0.0, 0.0, 1.676047400420062E9, 0.0, 2023-02-10 11:43:20.420
83.0, 5870.708032930856, 187500.0, 187500.0, 187500.0, -187500.02235174447, 187500.0, -187500.02235174447, -187500.02235174447, -0.024, 0.036000000000000004, 0.996, 192.0, 0.0, 0.0, 0.0, 0.0, 0.0, 0.0, 0.0, 0.0, 0.0, 1.676047400420083E9, 0.0, 2023-02-10 11:43:20.420
84.0, 5913.802196240687, 187500.0, 187500.0, 187500.0, -187500.02235174447, 187500.0, -187500.02235174447, -187500.02235174447, -0.024, 0.036000000000000004, 0.996, 192.0, 0.0, 0.0, 0.0, 0.0, 0.0, 0.0, 0.0, 0.0, 0.0, 1.676047400426698E9, 0.0, 2023-02-10 11:43:20.426
85.0, 5951.330775181148, 187500.0, 187500.0, 187500.0, -187500.02235174447, 187500.0, -187500.02235174447, -187500.02235174447, -0.024, 0.036000000000000004, 0.996, 192.0, 0.0, 0.0, 0.0, 0.0, 0.0, 0.0, 0.0, 0.0, 0.0, 1.676047400426726E9, 0.0, 2023-02-10 11:43:20.426
86.0, 5960.897321808019, 187500.0, 187500.0, 187500.0, -187500.02235174447, 187500.0, -187500.02235174447, -187500.02235174447, -0.026000000000000002, 0.034, 0.998, 192.0, 255.0, 48.0, 1.0, 16.0, 31.0, 48.0, 0.0, 0.0, 0.0, 1.676047400434676E9, 0.0, 2023-02-10 11:43:20.434
87.0, 5902.7604344797655, 187500.0, 187500.0, 187500.0, -187500.02235174447, 187500.0, -187500.02235174447, -187500.02235174447, -0.026000000000000002, 0.034, 0.998, 192.0, 0.0, 0.0, 0.0, 0.0, 0.0, 0.0, 0.0, 0.0, 0.0, 1.676047400434697E9, 0.0, 2023-02-10 11:43:20.434
88.0, 5811.565317102113, 187500.0, 187500.0, 187500.0, -187500.02235174447, 187500.0, -187500.02235174447, -187500.02235174447, -0.026000000000000002, 0.034, 0.998, 192.0, 0.0, 0.0, 0.0, 0.0, 0.0, 0.0, 0.0, 0.0, 0.0, 1.67604740044185E9, 0.0, 2023-02-10 11:43:20.441
89.0, 5852.916044344431, 187500.0, 187500.0, 187500.0, -187500.02235174447, 187500.0, -187500.02235174447, -187500.02235174447, -0.026000000000000002, 0.034, 0.998, 192.0, 0.0, 0.0, 0.0, 0.0, 0.0, 0.0, 0.0, 0.0, 0.0, 1.676047400441871E9, 0.0, 2023-02-10 11:43:20.441
90.0, 5943.239443688327, 187500.0, 187500.0, 187500.0, -187500.02235174447, 187500.0, -187500.02235174447, -187500.02235174447, -0.026000000000000002, 0.034, 0.998, 192.0, 0.0, 0.0, 0.0, 0.0, 0.0, 0.0, 0.0, 0.0, 0.0, 1.676047400448255E9, 0.0, 2023-02-10 11:43:20.448
91.0, 5884.454355770869, 187500.0, 187500.0, 187500.0, -187500.02235174447, 187500.0, -187500.02235174447, -187500.02235174447, -0.026000000000000002, 0.034, 0.998, 192.0, 0.0, 0.0, 0.0, 0.0, 0.0, 0.0, 0.0, 0.0, 0.0, 1.676047400448276E9, 0.0, 2023-02-10 11:43:20.448
92.0, 5826.473930653802, 187500.0, 187500.0, 187500.0, -187500.02235174447, 187500.0, -187500.02235174447, -187500.02235174447, -0.026000000000000002, 0.034, 0.998, 192.0, 0.0, 0.0, 0.0, 0.0, 0.0, 0.0, 0.0, 0.0, 0.0, 1.676047400457785E9, 0.0, 2023-02-10 11:43:20.457
93.0, 5815.968610759808, 187500.0, 187500.0, 187500.0, -187500.02235174447, 187500.0, -187500.02235174447, -187500.02235174447, -0.026000000000000002, 0.034, 0.998, 192.0, 0.0, 0.0, 0.0, 0.0, 0.0, 0.0, 0.0, 0.0, 0.0, 1.676047400464225E9, 0.0, 2023-02-10 11:43:20.464
94.0, 5878.195867323383, 187500.0, 187500.0, 187500.0, -187500.02235174447, 187500.0, -187500.02235174447, -187500.02235174447, -0.026000000000000002, 0.034, 0.998, 192.0, 0.0, 0.0, 0.0, 0.0, 0.0, 0.0, 0.0, 0.0, 0.0, 1.676047400464244E9, 0.0, 2023-02-10 11:43:20.464
95.0, 5858.906311858454, 187500.0, 187500.0, 187500.0, -187500.02235174447, 187500.0, -187500.02235174447, -187500.02235174447, -0.026000000000000002, 0.034, 0.998, 192.0, 0.0, 0.0, 0.0, 0.0, 0.0, 0.0, 0.0, 0.0, 0.0, 1.676047400471282E9, 0.0, 2023-02-10 11:43:20.471
96.0, 5851.865512355032, 187500.0, 187500.0, 187500.0, -187500.02235174447, 187500.0, -187500.02235174447, -187500.02235174447, -0.026000000000000002, 0.036000000000000004, 0.996, 192.0, 255.0, 48.0, 1.0, 32.0, 31.0, 32.0, 0.0, 0.0, 0.0, 1.6760474004713E9, 0.0, 2023-02-10 11:43:20.471
97.0, 5782.820973732588, 187500.0, 187500.0, 187500.0, -187500.02235174447, 187500.0, -187500.02235174447, -187500.02235174447, -0.026000000000000002, 0.036000000000000004, 0.996, 192.0, 0.0, 0.0, 0.0, 0.0, 0.0, 0.0, 0.0, 0.0, 0.0, 1.676047400478878E9, 0.0, 2023-02-10 11:43:20.478
98.0, 5888.88000117302, 187500.0, 187500.0, 187500.0, -187500.02235174447, 187500.0, -187500.02235174447, -187500.02235174447, -0.026000000000000002, 0.036000000000000004, 0.996, 192.0, 0.0, 0.0, 0.0, 0.0, 0.0, 0.0, 0.0, 0.0, 0.0, 1.676047400478898E9, 0.0, 2023-02-10 11:43:20.478
99.0, 5893.842088442098, 187500.0, 187500.0, 187500.0, -187500.02235174447, 187500.0, -187500.02235174447, -187500.02235174447, -0.026000000000000002, 0.036000000000000004, 0.996, 192.0, 0.0, 0.0, 0.0, 0.0, 0.0, 0.0, 0.0, 0.0, 0.0, 1.67604740048714E9, 0.0, 2023-02-10 11:43:20.487
100.0, 5737.4692842327695, 187500.0, 187500.0, 187500.0, -187500.02235174447, 187500.0, -187500.02235174447, -187500.02235174447, -0.026000000000000002, 0.036000000000000004, 0.996, 192.0, 0.0, 0.0, 0.0, 0.0, 0.0, 0.0, 0.0, 0.0, 0.0, 1.676047400487171E9, 0.0, 2023-02-10 11:43:20.487
101.0, 5780.965778942797, 187500.0, 187500.0, 187500.0, -187500.02235174447, 187500.0, -187500.02235174447, -187500.02235174447, -0.026000000000000002, 0.036000000000000004, 0.996, 192.0, 0.0, 0.0, 0.0, 0.0, 0.0, 0.0, 0.0, 0.0, 0.0, 1.676047400494956E9, 0.0, 2023-02-10 11:43:20.494
102.0, 5887.06950987214, 187500.0, 187500.0, 187500.0, -187500.02235174447, 187500.0, -187500.02235174447, -187500.02235174447, -0.026000000000000002, 0.036000000000000004, 0.996, 192.0, 0.0, 0.0, 0.0, 0.0, 0.0, 0.0, 0.0, 0.0, 0.0, 1.676047400495168E9, 0.0, 2023-02-10 11:43:20.495
103.0, 5833.894709812965, 187500.0, 187500.0, 187500.0, -187500.02235174447, 187500.0, -187500.02235174447, -187500.02235174447, -0.026000000000000002, 0.036000000000000004, 0.996, 192.0, 0.0, 0.0, 0.0, 0.0, 0.0, 0.0, 0.0, 0.0, 0.0, 1.676047400501563E9, 0.0, 2023-02-10 11:43:20.501
104.0, 5720.481958446737, 187500.0, 187500.0, 187500.0, -187500.02235174447, 187500.0, -187500.02235174447, -187500.02235174447, -0.026000000000000002, 0.036000000000000004, 0.996, 192.0, 0.0, 0.0, 0.0, 0.0, 0.0, 0.0, 0.0, 0.0, 0.0, 1.676047400501588E9, 0.0, 2023-02-10 11:43:20.501
105.0, 5727.723923650256, 187500.0, 187500.0, 187500.0, -187500.02235174447, 187500.0, -187500.02235174447, -187500.02235174447, -0.026000000000000002, 0.036000000000000004, 0.996, 192.0, 0.0, 0.0, 0.0, 0.0, 0.0, 0.0, 0.0, 0.0, 0.0, 1.676047400509649E9, 0.0, 2023-02-10 11:43:20.509
106.0, 5769.4546305483145, 187500.0, 187500.0, 187500.0, -187500.02235174447, 187500.0, -187500.02235174447, -187500.02235174447, -0.024, 0.032, 0.996, 192.0, 255.0, 64.0, 1.0, 0.0, 31.0, 32.0, 0.0, 0.0, 0.0, 1.676047400509677E9, 0.0, 2023-02-10 11:43:20.509
107.0, 5733.84830163101, 187500.0, 187500.0, 187500.0, -187500.02235174447, 187500.0, -187500.02235174447, -187500.02235174447, -0.024, 0.032, 0.996, 192.0, 0.0, 0.0, 0.0, 0.0, 0.0, 0.0, 0.0, 0.0, 0.0, 1.676047400516553E9, 0.0, 2023-02-10 11:43:20.516
108.0, 5744.085400591541, 187500.0, 187500.0, 187500.0, -187500.02235174447, 187500.0, -187500.02235174447, -187500.02235174447, -0.024, 0.032, 0.996, 192.0, 0.0, 0.0, 0.0, 0.0, 0.0, 0.0, 0.0, 0.0, 0.0, 1.676047400524576E9, 0.0, 2023-02-10 11:43:20.524
109.0, 5739.547996467113, 187500.0, 187500.0, 187500.0, -187500.02235174447, 187500.0, -187500.02235174447, -187500.02235174447, -0.024, 0.032, 0.996, 192.0, 0.0, 0.0, 0.0, 0.0, 0.0, 0.0, 0.0, 0.0, 0.0, 1.6760474005246E9, 0.0, 2023-02-10 11:43:20.524
110.0, 5708.836699585521, 187500.0, 187500.0, 187500.0, -187500.02235174447, 187500.0, -187500.02235174447, -187500.02235174447, -0.024, 0.032, 0.996, 192.0, 0.0, 0.0, 0.0, 0.0, 0.0, 0.0, 0.0, 0.0, 0.0, 1.676047400531832E9, 0.0, 2023-02-10 11:43:20.531
111.0, 5779.110584153007, 187500.0, 187500.0, 187500.0, -187500.02235174447, 187500.0, -187500.02235174447, -187500.02235174447, -0.024, 0.032, 0.996, 192.0, 0.0, 0.0, 0.0, 0.0, 0.0, 0.0, 0.0, 0.0, 0.0, 1.676047400531852E9, 0.0, 2023-02-10 11:43:20.531
112.0, 5739.324479022561, 187500.0, 187500.0, 187500.0, -187500.02235174447, 187500.0, -187500.02235174447, -187500.02235174447, -0.024, 0.032, 0.996, 192.0, 0.0, 0.0, 0.0, 0.0, 0.0, 0.0, 0.0, 0.0, 0.0, 1.676047400539223E9, 0.0, 2023-02-10 11:43:20.539
113.0, 5642.6084807644465, 187500.0, 187500.0, 187500.0, -187500.02235174447, 187500.0, -187500.02235174447, -187500.02235174447, -0.024, 0.032, 0.996, 192.0, 0.0, 0.0, 0.0, 0.0, 0.0, 0.0, 0.0, 0.0, 0.0, 1.676047400539252E9, 0.0, 2023-02-10 11:43:20.539
114.0, 5628.795102691067, 187500.0, 187500.0, 187500.0, -187500.02235174447, 187500.0, -187500.02235174447, -187500.02235174447, -0.024, 0.032, 0.996, 192.0, 0.0, 0.0, 0.0, 0.0, 0.0, 0.0, 0.0, 0.0, 0.0, 1.676047400548653E9, 0.0, 2023-02-10 11:43:20.548
115.0, 5717.263307245173, 187500.0, 187500.0, 187500.0, -187500.02235174447, 187500.0, -187500.02235174447, -187500.02235174447, -0.024, 0.032, 0.996, 192.0, 0.0, 0.0, 0.0, 0.0, 0.0, 0.0, 0.0, 0.0, 0.0, 1.676047400548679E9, 0.0, 2023-02-10 11:43:20.548
116.0, 5626.604631734447, 187500.0, 187500.0, 187500.0, -187500.02235174447, 187500.0, -187500.02235174447, -187500.02235174447, -0.024, 0.03, 0.996, 192.0, 255.0, 64.0, 0.0, 240.0, 31.0, 32.0, 0.0, 0.0, 0.0, 1.676047400555688E9, 0.0, 2023-02-10 11:43:20.555
117.0, 5598.195564531751, 187500.0, 187500.0, 187500.0, -187500.02235174447, 187500.0, -187500.02235174447, -187500.02235174447, -0.024, 0.03, 0.996, 192.0, 0.0, 0.0, 0.0, 0.0, 0.0, 0.0, 0.0, 0.0, 0.0, 1.676047400555799E9, 0.0, 2023-02-10 11:43:20.555
118.0, 5702.466452415759, 187500.0, 187500.0, 187500.0, -187500.02235174447, 187500.0, -187500.02235174447, -187500.02235174447, -0.024, 0.03, 0.996, 192.0, 0.0, 0.0, 0.0, 0.0, 0.0, 0.0, 0.0, 0.0, 0.0, 1.676047400561914E9, 0.0, 2023-02-10 11:43:20.561
119.0, 5709.1719757523515, 187500.0, 187500.0, 187500.0, -187500.02235174447, 187500.0, -187500.02235174447, -187500.02235174447, -0.024, 0.03, 0.996, 192.0, 0.0, 0.0, 0.0, 0.0, 0.0, 0.0, 0.0, 0.0, 0.0, 1.676047400561932E9, 0.0, 2023-02-10 11:43:20.561
120.0, 5666.055460698064, 187500.0, 187500.0, 187500.0, -187500.02235174447, 187500.0, -187500.02235174447, -187500.02235174447, -0.024, 0.03, 0.996, 192.0, 0.0, 0.0, 0.0, 0.0, 0.0, 0.0, 0.0, 0.0, 0.0, 1.676047400569703E9, 0.0, 2023-02-10 11:43:20.569
121.0, 5564.399726915327, 187500.0, 187500.0, 187500.0, -187500.02235174447, 187500.0, -187500.02235174447, -187500.02235174447, -0.024, 0.03, 0.996, 192.0, 0.0, 0.0, 0.0, 0.0, 0.0, 0.0, 0.0, 0.0, 0.0, 1.67604740056972E9, 0.0, 2023-02-10 11:43:20.569
122.0, 5564.936168782255, 187500.0, 187500.0, 187500.0, -187500.02235174447, 187500.0, -187500.02235174447, -187500.02235174447, -0.024, 0.03, 0.996, 192.0, 0.0, 0.0, 0.0, 0.0, 0.0, 0.0, 0.0, 0.0, 0.0, 1.676047400576888E9, 0.0, 2023-02-10 11:43:20.576
123.0, 5666.569550820536, 187500.0, 187500.0, 187500.0, -187500.02235174447, 187500.0, -187500.02235174447, -187500.02235174447, -0.024, 0.03, 0.996, 192.0, 0.0, 0.0, 0.0, 0.0, 0.0, 0.0, 0.0, 0.0, 0.0, 1.676047400583455E9, 0.0, 2023-02-10 11:43:20.583
124.0, 5653.985518692198, 187500.0, 187500.0, 187500.0, -187500.02235174447, 187500.0, -187500.02235174447, -187500.02235174447, -0.024, 0.03, 0.996, 192.0, 0.0, 0.0, 0.0, 0.0, 0.0, 0.0, 0.0, 0.0, 0.0, 1.67604740058348E9, 0.0, 2023-02-10 11:43:20.583
125.0, 5552.9109302653, 187500.0, 187500.0, 187500.0, -187500.02235174447, 187500.0, -187500.02235174447, -187500.02235174447, -0.03, 0.028, 0.998, 192.0, 255.0, 16.0, 0.0, 224.0, 31.0, 48.0, 0.0, 0.0, 0.0, 1.676047400591438E9, 0.0, 2023-02-10 11:43:20.591
126.0, 5517.058732158987, 187500.0, 187500.0, 187500.0, -187500.02235174447, 187500.0, -187500.02235174447, -187500.02235174447, -0.03, 0.028, 0.998, 192.0, 0.0, 0.0, 0.0, 0.0, 0.0, 0.0, 0.0, 0.0, 0.0, 1.676047400591465E9, 0.0, 2023-02-10 11:43:20.591
127.0, 5651.25860586865, 187500.0, 187500.0, 187500.0, -187500.02235174447, 187500.0, -187500.02235174447, -187500.02235174447, -0.03, 0.028, 0.998, 192.0, 0.0, 0.0, 0.0, 0.0, 0.0, 0.0, 0.0, 0.0, 0.0, 1.676047400599394E9, 0.0, 2023-02-10 11:43:20.599
128.0, 5646.408277321849, 187500.0, 187500.0, 187500.0, -187500.02235174447, 187500.0, -187500.02235174447, -187500.02235174447, -0.03, 0.028, 0.998, 192.0, 0.0, 0.0, 0.0, 0.0, 0.0, 0.0, 0.0, 0.0, 0.0, 1.676047400599415E9, 0.0, 2023-02-10 11:43:20.599
129.0, 5474.635121182814, 187500.0, 187500.0, 187500.0, -187500.02235174447, 187500.0, -187500.02235174447, -187500.02235174447, -0.03, 0.028, 0.998, 192.0, 0.0, 0.0, 0.0, 0.0, 0.0, 0.0, 0.0, 0.0, 0.0, 1.676047400606861E9, 0.0, 2023-02-10 11:43:20.606
130.0, 5450.070554026432, 187500.0, 187500.0, 187500.0, -187500.02235174447, 187500.0, -187500.02235174447, -187500.02235174447, -0.03, 0.028, 0.998, 192.0, 0.0, 0.0, 0.0, 0.0, 0.0, 0.0, 0.0, 0.0, 0.0, 1.676047400606921E9, 0.0, 2023-02-10 11:43:20.606
131.0, 5613.2606402946285, 187500.0, 187500.0, 187500.0, -187500.02235174447, 187500.0, -187500.02235174447, -187500.02235174447, -0.03, 0.028, 0.998, 192.0, 0.0, 0.0, 0.0, 0.0, 0.0, 0.0, 0.0, 0.0, 0.0, 1.676047400614202E9, 0.0, 2023-02-10 11:43:20.614
132.0, 5599.53666919907, 187500.0, 187500.0, 187500.0, -187500.02235174447, 187500.0, -187500.02235174447, -187500.02235174447, -0.03, 0.028, 0.998, 192.0, 0.0, 0.0, 0.0, 0.0, 0.0, 0.0, 0.0, 0.0, 0.0, 1.676047400614425E9, 0.0, 2023-02-10 11:43:20.614
133.0, 5445.644908624281, 187500.0, 187500.0, 187500.0, -187500.02235174447, 187500.0, -187500.02235174447, -187500.02235174447, -0.03, 0.028, 0.998, 192.0, 0.0, 0.0, 0.0, 0.0, 0.0, 0.0, 0.0, 0.0, 0.0, 1.676047400622086E9, 0.0, 2023-02-10 11:43:20.622
134.0, 5371.079489121376, 187500.0, 187500.0, 187500.0, -187500.02235174447, 187500.0, -187500.02235174447, -187500.02235174447, -0.03, 0.028, 0.998, 192.0, 0.0, 0.0, 0.0, 0.0, 0.0, 0.0, 0.0, 0.0, 0.0, 1.676047400622111E9, 0.0, 2023-02-10 11:43:20.622
135.0, 5589.903067338832, 187500.0, 187500.0, 187500.0, -187500.02235174447, 187500.0, -187500.02235174447, -187500.02235174447, -0.026000000000000002, 0.028, 0.996, 192.0, 255.0, 48.0, 0.0, 224.0, 31.0, 32.0, 0.0, 0.0, 0.0, 1.676047400631462E9, 0.0, 2023-02-10 11:43:20.631
136.0, 5640.038030152086, 187500.0, 187500.0, 187500.0, -187500.02235174447, 187500.0, -187500.02235174447, -187500.02235174447, -0.026000000000000002, 0.028, 0.996, 192.0, 0.0, 0.0, 0.0, 0.0, 0.0, 0.0, 0.0, 0.0, 0.0, 1.676047400631485E9, 0.0, 2023-02-10 11:43:20.631
137.0, 5525.775912496557, 187500.0, 187500.0, 187500.0, -187500.02235174447, 187500.0, -187500.02235174447, -187500.02235174447, -0.026000000000000002, 0.028, 0.996, 192.0, 0.0, 0.0, 0.0, 0.0, 0.0, 0.0, 0.0, 0.0, 0.0, 1.676047400637726E9, 0.0, 2023-02-10 11:43:20.637
138.0, 5460.665280898247, 187500.0, 187500.0, 187500.0, -187500.02235174447, 187500.0, -187500.02235174447, -187500.02235174447, -0.026000000000000002, 0.028, 0.996, 192.0, 0.0, 0.0, 0.0, 0.0, 0.0, 0.0, 0.0, 0.0, 0.0, 1.676047400643846E9, 0.0, 2023-02-10 11:43:20.643
139.0, 5481.675920686236, 187500.0, 187500.0, 187500.0, -187500.02235174447, 187500.0, -187500.02235174447, -187500.02235174447, -0.026000000000000002, 0.028, 0.996, 192.0, 0.0, 0.0, 0.0, 0.0, 0.0, 0.0, 0.0, 0.0, 0.0, 1.676047400643865E9, 0.0, 2023-02-10 11:43:20.643
140.0, 5522.266688617074, 187500.0, 187500.0, 187500.0, -187500.02235174447, 187500.0, -187500.02235174447, -187500.02235174447, -0.026000000000000002, 0.028, 0.996, 192.0, 0.0, 0.0, 0.0, 0.0, 0.0, 0.0, 0.0, 0.0, 0.0, 1.676047400651712E9, 0.0, 2023-02-10 11:43:20.651
141.0, 5530.782703254546, 187500.0, 187500.0, 187500.0, -187500.02235174447, 187500.0, -187500.02235174447, -187500.02235174447, -0.026000000000000002, 0.028, 0.996, 192.0, 0.0, 0.0, 0.0, 0.0, 0.0, 0.0, 0.0, 0.0, 0.0, 1.676047400651733E9, 0.0, 2023-02-10 11:43:20.651
142.0, 5483.709929431669, 187500.0, 187500.0, 187500.0, -187500.02235174447, 187500.0, -187500.02235174447, -187500.02235174447, -0.026000000000000002, 0.028, 0.996, 192.0, 0.0, 0.0, 0.0, 0.0, 0.0, 0.0, 0.0, 0.0, 0.0, 1.676047400659673E9, 0.0, 2023-02-10 11:43:20.659
143.0, 5457.960719819155, 187500.0, 187500.0, 187500.0, -187500.02235174447, 187500.0, -187500.02235174447, -187500.02235174447, -0.026000000000000002, 0.028, 0.996, 192.0, 0.0, 0.0, 0.0, 0.0, 0.0, 0.0, 0.0, 0.0, 0.0, 1.676047400659692E9, 0.0, 2023-02-10 11:43:20.659
144.0, 5490.102528345887, 187500.0, 187500.0, 187500.0, -187500.02235174447, 187500.0, -187500.02235174447, -187500.02235174447, -0.026000000000000002, 0.028, 0.996, 192.0, 0.0, 0.0, 0.0, 0.0, 0.0, 0.0, 0.0, 0.0, 0.0, 1.676047400666406E9, 0.0, 2023-02-10 11:43:20.666
145.0, 5428.478768882605, 187500.0, 187500.0, 187500.0, -187500.02235174447, 187500.0, -187500.02235174447, -187500.02235174447, -0.028, 0.026000000000000002, 0.996, 192.0, 255.0, 32.0, 0.0, 208.0, 31.0, 32.0, 0.0, 0.0, 0.0, 1.676047400666435E9, 0.0, 2023-02-10 11:43:20.666
146.0, 5358.24958780403, 187500.0, 187500.0, 187500.0, -187500.02235174447, 187500.0, -187500.02235174447, -187500.02235174447, -0.028, 0.026000000000000002, 0.996, 192.0, 0.0, 0.0, 0.0, 0.0, 0.0, 0.0, 0.0, 0.0, 0.0, 1.676047400674394E9, 0.0, 2023-02-10 11:43:20.674
147.0, 5361.624701216781, 187500.0, 187500.0, 187500.0, -187500.02235174447, 187500.0, -187500.02235174447, -187500.02235174447, -0.028, 0.026000000000000002, 0.996, 192.0, 0.0, 0.0, 0.0, 0.0, 0.0, 0.0, 0.0, 0.0, 0.0, 1.676047400674517E9, 0.0, 2023-02-10 11:43:20.674
148.0, 5497.188031338219, 187500.0, 187500.0, 187500.0, -187500.02235174447, 187500.0, -187500.02235174447, -187500.02235174447, -0.028, 0.026000000000000002, 0.996, 192.0, 0.0, 0.0, 0.0, 0.0, 0.0, 0.0, 0.0, 0.0, 0.0, 1.676047400682392E9, 0.0, 2023-02-10 11:43:20.682
149.0, 5468.622501924337, 187500.0, 187500.0, 187500.0, -187500.02235174447, 187500.0, -187500.02235174447, -187500.02235174447, -0.028, 0.026000000000000002, 0.996, 192.0, 0.0, 0.0, 0.0, 0.0, 0.0, 0.0, 0.0, 0.0, 0.0, 1.676047400682423E9, 0.0, 2023-02-10 11:43:20.682
150.0, 5405.0541406934435, 187500.0, 187500.0, 187500.0, -187500.02235174447, 187500.0, -187500.02235174447, -187500.02235174447, -0.028, 0.026000000000000002, 0.996, 192.0, 0.0, 0.0, 0.0, 0.0, 0.0, 0.0, 0.0, 0.0, 0.0, 1.676047400689456E9, 0.0, 2023-02-10 11:43:20.689
151.0, 5404.271829637508, 187500.0, 187500.0, 187500.0, -187500.02235174447, 187500.0, -187500.02235174447, -187500.02235174447, -0.028, 0.026000000000000002, 0.996, 192.0, 0.0, 0.0, 0.0, 0.0, 0.0, 0.0, 0.0, 0.0, 0.0, 1.676047400689478E9, 0.0, 2023-02-10 11:43:20.689
152.0, 5432.390324162284, 187500.0, 187500.0, 187500.0, -187500.02235174447, 187500.0, -187500.02235174447, -187500.02235174447, -0.028, 0.026000000000000002, 0.996, 192.0, 0.0, 0.0, 0.0, 0.0, 0.0, 0.0, 0.0, 0.0, 0.0, 1.676047400695966E9, 0.0, 2023-02-10 11:43:20.695
153.0, 5441.889815555789, 187500.0, 187500.0, 187500.0, -187500.02235174447, 187500.0, -187500.02235174447, -187500.02235174447, -0.028, 0.026000000000000002, 0.996, 192.0, 0.0, 0.0, 0.0, 0.0, 0.0, 0.0, 0.0, 0.0, 0.0, 1.676047400695986E9, 0.0, 2023-02-10 11:43:20.695
154.0, 5355.947358125134, 187500.0, 187500.0, 187500.0, -187500.02235174447, 187500.0, -187500.02235174447, -187500.02235174447, -0.028, 0.026000000000000002, 0.996, 192.0, 0.0, 0.0, 0.0, 0.0, 0.0, 0.0, 0.0, 0.0, 0.0, 1.676047400704032E9, 0.0, 2023-02-10 11:43:20.704
155.0, 5311.1991657256085, 187500.0, 187500.0, 187500.0, -187500.02235174447, 187500.0, -187500.02235174447, -187500.02235174447, -0.028, 0.028, 0.998, 192.0, 255.0, 32.0, 0.0, 224.0, 31.0, 48.0, 0.0, 0.0, 0.0, 1.676047400713451E9, 0.0, 2023-02-10 11:43:20.713
156.0, 5405.411768604728, 187500.0, 187500.0, 187500.0, -187500.02235174447, 187500.0, -187500.02235174447, -187500.02235174447, -0.028, 0.028, 0.998, 192.0, 0.0, 0.0, 0.0, 0.0, 0.0, 0.0, 0.0, 0.0, 0.0, 1.676047400713474E9, 0.0, 2023-02-10 11:43:20.713
157.0, 5372.040614132955, 187500.0, 187500.0, 187500.0, -187500.02235174447, 187500.0, -187500.02235174447, -187500.02235174447, -0.028, 0.028, 0.998, 192.0, 0.0, 0.0, 0.0, 0.0, 0.0, 0.0, 0.0, 0.0, 0.0, 1.676047400720575E9, 0.0, 2023-02-10 11:43:20.720
158.0, 5361.468239005594, 187500.0, 187500.0, 187500.0, -187500.02235174447, 187500.0, -187500.02235174447, -187500.02235174447, -0.028, 0.028, 0.998, 192.0, 0.0, 0.0, 0.0, 0.0, 0.0, 0.0, 0.0, 0.0, 0.0, 1.676047400720596E9, 0.0, 2023-02-10 11:43:20.720
159.0, 5325.146654265721, 187500.0, 187500.0, 187500.0, -187500.02235174447, 187500.0, -187500.02235174447, -187500.02235174447, -0.028, 0.028, 0.998, 192.0, 0.0, 0.0, 0.0, 0.0, 0.0, 0.0, 0.0, 0.0, 0.0, 1.676047400726913E9, 0.0, 2023-02-10 11:43:20.726
160.0, 5346.850198131824, 187500.0, 187500.0, 187500.0, -187500.02235174447, 187500.0, -187500.02235174447, -187500.02235174447, -0.028, 0.028, 0.998, 192.0, 0.0, 0.0, 0.0, 0.0, 0.0, 0.0, 0.0, 0.0, 0.0, 1.676047400726946E9, 0.0, 2023-02-10 11:43:20.726
161.0, 5382.367120071307, 187500.0, 187500.0, 187500.0, -187500.02235174447, 187500.0, -187500.02235174447, -187500.02235174447, -0.028, 0.028, 0.998, 192.0, 0.0, 0.0, 0.0, 0.0, 0.0, 0.0, 0.0, 0.0, 0.0, 1.67604740073462E9, 0.0, 2023-02-10 11:43:20.734
162.0, 5355.388564513751, 187500.0, 187500.0, 187500.0, -187500.02235174447, 187500.0, -187500.02235174447, -187500.02235174447, -0.028, 0.028, 0.998, 192.0, 0.0, 0.0, 0.0, 0.0, 0.0, 0.0, 0.0, 0.0, 0.0, 1.676047400734729E9, 0.0, 2023-02-10 11:43:20.734
163.0, 5259.8348569673135, 187500.0, 187500.0, 187500.0, -187500.02235174447, 187500.0, -187500.02235174447, -187500.02235174447, -0.028, 0.028, 0.998, 192.0, 0.0, 0.0, 0.0, 0.0, 0.0, 0.0, 0.0, 0.0, 0.0, 1.676047400742627E9, 0.0, 2023-02-10 11:43:20.742
164.0, 5303.197241210609, 187500.0, 187500.0, 187500.0, -187500.02235174447, 187500.0, -187500.02235174447, -187500.02235174447, -0.028, 0.028, 0.998, 192.0, 0.0, 0.0, 0.0, 0.0, 0.0, 0.0, 0.0, 0.0, 0.0, 1.67604740074265E9, 0.0, 2023-02-10 11:43:20.742
165.0, 5324.923136821168, 187500.0, 187500.0, 187500.0, -187500.02235174447, 187500.0, -187500.02235174447, -187500.02235174447, -0.03, 0.03, 0.996, 192.0, 255.0, 16.0, 0.0, 240.0, 31.0, 32.0, 0.0, 0.0, 0.0, 1.67604740074918E9, 0.0, 2023-02-10 11:43:20.749
166.0, 5285.584066579827, 187500.0, 187500.0, 187500.0, -187500.02235174447, 187500.0, -187500.02235174447, -187500.02235174447, -0.03, 0.03, 0.996, 192.0, 0.0, 0.0, 0.0, 0.0, 0.0, 0.0, 0.0, 0.0, 0.0, 1.676047400749198E9, 0.0, 2023-02-10 11:43:20.749
167.0, 5238.198368334576, 187500.0, 187500.0, 187500.0, -187500.02235174447, 187500.0, -187500.02235174447, -187500.02235174447, -0.03, 0.03, 0.996, 192.0, 0.0, 0.0, 0.0, 0.0, 0.0, 0.0, 0.0, 0.0, 0.0, 1.676047400757262E9, 0.0, 2023-02-10 11:43:20.757
168.0, 5270.317825116852, 187500.0, 187500.0, 187500.0, -187500.02235174447, 187500.0, -187500.02235174447, -187500.02235174447, -0.03, 0.03, 0.996, 192.0, 0.0, 0.0, 0.0, 0.0, 0.0, 0.0, 0.0, 0.0, 0.0, 1.676047400757288E9, 0.0, 2023-02-10 11:43:20.757
169.0, 5319.62577338526, 187500.0, 187500.0, 187500.0, -187500.02235174447, 187500.0, -187500.02235174447, -187500.02235174447, -0.03, 0.03, 0.996, 192.0, 0.0, 0.0, 0.0, 0.0, 0.0, 0.0, 0.0, 0.0, 0.0, 1.676047400764476E9, 0.0, 2023-02-10 11:43:20.764
170.0, 5320.966878052578, 187500.0, 187500.0, 187500.0, -187500.02235174447, 187500.0, -187500.02235174447, -187500.02235174447, -0.03, 0.03, 0.996, 192.0, 0.0, 0.0, 0.0, 0.0, 0.0, 0.0, 0.0, 0.0, 0.0, 1.67604740077152E9, 0.0, 2023-02-10 11:43:20.771
171.0, 5194.612466646728, 187500.0, 187500.0, 187500.0, -187500.02235174447, 187500.0, -187500.02235174447, -187500.02235174447, -0.03, 0.03, 0.996, 192.0, 0.0, 0.0, 0.0, 0.0, 0.0, 0.0, 0.0, 0.0, 0.0, 1.676047400771548E9, 0.0, 2023-02-10 11:43:20.771
172.0, 5185.917638053613, 187500.0, 187500.0, 187500.0, -187500.02235174447, 187500.0, -187500.02235174447, -187500.02235174447, -0.03, 0.03, 0.996, 192.0, 0.0, 0.0, 0.0, 0.0, 0.0, 0.0, 0.0, 0.0, 0.0, 1.676047400778965E9, 0.0, 2023-02-10 11:43:20.778
173.0, 5272.530647817927, 187500.0, 187500.0, 187500.0, -187500.02235174447, 187500.0, -187500.02235174447, -187500.02235174447, -0.03, 0.03, 0.996, 192.0, 0.0, 0.0, 0.0, 0.0, 0.0, 0.0, 0.0, 0.0, 0.0, 1.676047400778993E9, 0.0, 2023-02-10 11:43:20.778
174.0, 5315.937735550134, 187500.0, 187500.0, 187500.0, -187500.02235174447, 187500.0, -187500.02235174447, -187500.02235174447, -0.03, 0.03, 0.996, 192.0, 0.0, 0.0, 0.0, 0.0, 0.0, 0.0, 0.0, 0.0, 0.0, 1.676047400787404E9, 0.0, 2023-02-10 11:43:20.787
175.0, 5187.482260165484, 187500.0, 187500.0, 187500.0, -187500.02235174447, 187500.0, -187500.02235174447, -187500.02235174447, -0.026000000000000002, 0.03, 0.992, 192.0, 255.0, 48.0, 0.0, 240.0, 31.0, 0.0, 0.0, 0.0, 0.0, 1.676047400787425E9, 0.0, 2023-02-10 11:43:20.787
176.0, 5222.999182104967, 187500.0, 187500.0, 187500.0, -187500.02235174447, 187500.0, -187500.02235174447, -187500.02235174447, -0.026000000000000002, 0.03, 0.992, 192.0, 0.0, 0.0, 0.0, 0.0, 0.0, 0.0, 0.0, 0.0, 0.0, 1.676047400794978E9, 0.0, 2023-02-10 11:43:20.794
177.0, 5308.584011624338, 187500.0, 187500.0, 187500.0, -187500.02235174447, 187500.0, -187500.02235174447, -187500.02235174447, -0.026000000000000002, 0.03, 0.992, 192.0, 0.0, 0.0, 0.0, 0.0, 0.0, 0.0, 0.0, 0.0, 0.0, 1.676047400795087E9, 0.0, 2023-02-10 11:43:20.795
178.0, 5292.624866083249, 187500.0, 187500.0, 187500.0, -187500.02235174447, 187500.0, -187500.02235174447, -187500.02235174447, -0.026000000000000002, 0.03, 0.992, 192.0, 0.0, 0.0, 0.0, 0.0, 0.0, 0.0, 0.0, 0.0, 0.0, 1.676047400801551E9, 0.0, 2023-02-10 11:43:20.801
179.0, 5142.219977643487, 187500.0, 187500.0, 187500.0, -187500.02235174447, 187500.0, -187500.02235174447, -187500.02235174447, -0.026000000000000002, 0.03, 0.992, 192.0, 0.0, 0.0, 0.0, 0.0, 0.0, 0.0, 0.0, 0.0, 0.0, 1.67604740080157E9, 0.0, 2023-02-10 11:43:20.801
180.0, 5140.409486342608, 187500.0, 187500.0, 187500.0, -187500.02235174447, 187500.0, -187500.02235174447, -187500.02235174447, -0.026000000000000002, 0.03, 0.992, 192.0, 0.0, 0.0, 0.0, 0.0, 0.0, 0.0, 0.0, 0.0, 0.0, 1.67604740080959E9, 0.0, 2023-02-10 11:43:20.809
181.0, 5256.102115643277, 187500.0, 187500.0, 187500.0, -187500.02235174447, 187500.0, -187500.02235174447, -187500.02235174447, -0.026000000000000002, 0.03, 0.992, 192.0, 0.0, 0.0, 0.0, 0.0, 0.0, 0.0, 0.0, 0.0, 0.0, 1.676047400809613E9, 0.0, 2023-02-10 11:43:20.809
182.0, 5275.503429830484, 187500.0, 187500.0, 187500.0, -187500.02235174447, 187500.0, -187500.02235174447, -187500.02235174447, -0.026000000000000002, 0.03, 0.992, 192.0, 0.0, 0.0, 0.0, 0.0, 0.0, 0.0, 0.0, 0.0, 0.0, 1.676047400817407E9, 0.0, 2023-02-10 11:43:20.817
183.0, 5190.767966600414, 187500.0, 187500.0, 187500.0, -187500.02235174447, 187500.0, -187500.02235174447, -187500.02235174447, -0.026000000000000002, 0.03, 0.992, 192.0, 0.0, 0.0, 0.0, 0.0, 0.0, 0.0, 0.0, 0.0, 0.0, 1.676047400817429E9, 0.0, 2023-02-10 11:43:20.817
184.0, 5091.81679389677, 187500.0, 187500.0, 187500.0, -187500.02235174447, 187500.0, -187500.02235174447, -187500.02235174447, -0.028, 0.028, 0.998, 192.0, 255.0, 32.0, 0.0, 224.0, 31.0, 48.0, 0.0, 0.0, 0.0, 1.676047400824568E9, 0.0, 2023-02-10 11:43:20.824
185.0, 5115.353180808209, 187500.0, 187500.0, 187500.0, -187500.02235174447, 187500.0, -187500.02235174447, -187500.02235174447, -0.028, 0.028, 0.998, 192.0, 0.0, 0.0, 0.0, 0.0, 0.0, 0.0, 0.0, 0.0, 0.0, 1.676047400831053E9, 0.0, 2023-02-10 11:43:20.831
186.0, 5116.20254709751, 187500.0, 187500.0, 187500.0, -187500.02235174447, 187500.0, -187500.02235174447, -187500.02235174447, -0.028, 0.028, 0.998, 192.0, 0.0, 0.0, 0.0, 0.0, 0.0, 0.0, 0.0, 0.0, 0.0, 1.676047400831072E9, 0.0, 2023-02-10 11:43:20.831
187.0, 5151.719469036993, 187500.0, 187500.0, 187500.0, -187500.02235174447, 187500.0, -187500.02235174447, -187500.02235174447, -0.028, 0.028, 0.998, 192.0, 0.0, 0.0, 0.0, 0.0, 0.0, 0.0, 0.0, 0.0, 0.0, 1.676047400839051E9, 0.0, 2023-02-10 11:43:20.839
188.0, 5142.77877125487, 187500.0, 187500.0, 187500.0, -187500.02235174447, 187500.0, -187500.02235174447, -187500.02235174447, -0.028, 0.028, 0.998, 192.0, 0.0, 0.0, 0.0, 0.0, 0.0, 0.0, 0.0, 0.0, 0.0, 1.676047400839075E9, 0.0, 2023-02-10 11:43:20.839
189.0, 5158.983785984968, 187500.0, 187500.0, 187500.0, -187500.02235174447, 187500.0, -187500.02235174447, -187500.02235174447, -0.028, 0.028, 0.998, 192.0, 0.0, 0.0, 0.0, 0.0, 0.0, 0.0, 0.0, 0.0, 0.0, 1.676047400847141E9, 0.0, 2023-02-10 11:43:20.847
190.0, 5210.392798232174, 187500.0, 187500.0, 187500.0, -187500.02235174447, 187500.0, -187500.02235174447, -187500.02235174447, -0.028, 0.028, 0.998, 192.0, 0.0, 0.0, 0.0, 0.0, 0.0, 0.0, 0.0, 0.0, 0.0, 1.67604740084716E9, 0.0, 2023-02-10 11:43:20.847
191.0, 5132.720486249982, 187500.0, 187500.0, 187500.0, -187500.02235174447, 187500.0, -187500.02235174447, -187500.02235174447, -0.028, 0.028, 0.998, 192.0, 0.0, 0.0, 0.0, 0.0, 0.0, 0.0, 0.0, 0.0, 0.0, 1.676047400854425E9, 0.0, 2023-02-10 11:43:20.854
192.0, 5035.266880424843, 187500.0, 187500.0, 187500.0, -187500.02235174447, 187500.0, -187500.02235174447, -187500.02235174447, -0.028, 0.028, 0.998, 192.0, 0.0, 0.0, 0.0, 0.0, 0.0, 0.0, 0.0, 0.0, 0.0, 1.67604740085465E9, 0.0, 2023-02-10 11:43:20.854
193.0, 5031.265918167343, 187500.0, 187500.0, 187500.0, -187500.02235174447, 187500.0, -187500.02235174447, -187500.02235174447, -0.028, 0.028, 0.998, 192.0, 0.0, 0.0, 0.0, 0.0, 0.0, 0.0, 0.0, 0.0, 0.0, 1.676047400861788E9, 0.0, 2023-02-10 11:43:20.861
194.0, 5102.635038213139, 187500.0, 187500.0, 187500.0, -187500.02235174447, 187500.0, -187500.02235174447, -187500.02235174447, -0.028, 0.03, 1.002, 192.0, 255.0, 32.0, 0.0, 240.0, 31.0, 80.0, 0.0, 0.0, 0.0, 1.67604740086183E9, 0.0, 2023-02-10 11:43:20.861
195.0, 5188.443385177063, 187500.0, 187500.0, 187500.0, -187500.02235174447, 187500.0, -187500.02235174447, -187500.02235174447, -0.028, 0.03, 1.002, 192.0, 0.0, 0.0, 0.0, 0.0, 0.0, 0.0, 0.0, 0.0, 0.0, 1.676047400871202E9, 0.0, 2023-02-10 11:43:20.871
196.0, 5105.607820225695, 187500.0, 187500.0, 187500.0, -187500.02235174447, 187500.0, -187500.02235174447, -187500.02235174447, -0.028, 0.03, 1.002, 192.0, 0.0, 0.0, 0.0, 0.0, 0.0, 0.0, 0.0, 0.0, 0.0, 1.676047400871232E9, 0.0, 2023-02-10 11:43:20.871
197.0, 5061.999566793391, 187500.0, 187500.0, 187500.0, -187500.02235174447, 187500.0, -187500.02235174447, -187500.02235174447, -0.028, 0.03, 1.002, 192.0, 0.0, 0.0, 0.0, 0.0, 0.0, 0.0, 0.0, 0.0, 0.0, 1.676047400877417E9, 0.0, 2023-02-10 11:43:20.877
198.0, 5140.767114253893, 187500.0, 187500.0, 187500.0, -187500.02235174447, 187500.0, -187500.02235174447, -187500.02235174447, -0.028, 0.03, 1.002, 192.0, 0.0, 0.0, 0.0, 0.0, 0.0, 0.0, 0.0, 0.0, 0.0, 1.676047400877438E9, 0.0, 2023-02-10 11:43:20.877
199.0, 5138.01784968589, 187500.0, 187500.0, 187500.0, -187500.02235174447, 187500.0, -187500.02235174447, -187500.02235174447, -0.028, 0.03, 1.002, 192.0, 0.0, 0.0, 0.0, 0.0, 0.0, 0.0, 0.0, 0.0, 0.0, 1.676047400883613E9, 0.0, 2023-02-10 11:43:20.883
200.0, 5000.3311038411985, 187500.0, 187500.0, 187500.0, -187500.02235174447, 187500.0, -187500.02235174447, -187500.02235174447, -0.028, 0.03, 1.002, 192.0, 0.0, 0.0, 0.0, 0.0, 0.0, 0.0, 0.0, 0.0, 0.0, 1.676047400891526E9, 0.0, 2023-02-10 11:43:20.891
201.0, 5014.65857203705, 187500.0, 187500.0, 187500.0, -187500.02235174447, 187500.0, -187500.02235174447, -187500.02235174447, -0.028, 0.03, 1.002, 192.0, 0.0, 0.0, 0.0, 0.0, 0.0, 0.0, 0.0, 0.0, 0.0, 1.676047400891552E9, 0.0, 2023-02-10 11:43:20.891
202.0, 5155.675727805582, 187500.0, 187500.0, 187500.0, -187500.02235174447, 187500.0, -187500.02235174447, -187500.02235174447, -0.028, 0.03, 1.002, 192.0, 0.0, 0.0, 0.0, 0.0, 0.0, 0.0, 0.0, 0.0, 0.0, 1.676047400899387E9, 0.0, 2023-02-10 11:43:20.899
203.0, 5104.1549568361, 187500.0, 187500.0, 187500.0, -187500.02235174447, 187500.0, -187500.02235174447, -187500.02235174447, -0.028, 0.03, 1.002, 192.0, 0.0, 0.0, 0.0, 0.0, 0.0, 0.0, 0.0, 0.0, 0.0, 1.676047400899409E9, 0.0, 2023-02-10 11:43:20.899
204.0, 4995.681940994495, 187500.0, 187500.0, 187500.0, -187500.02235174447, 187500.0, -187500.02235174447, -187500.02235174447, -0.024, 0.032, 1.0, 192.0, 255.0, 64.0, 1.0, 0.0, 31.0, 64.0, 0.0, 0.0, 0.0, 1.676047400906611E9, 0.0, 2023-02-10 11:43:20.906
205.0, 5070.247360497398, 187500.0, 187500.0, 187500.0, -187500.02235174447, 187500.0, -187500.02235174447, -187500.02235174447, -0.024, 0.032, 1.0, 192.0, 0.0, 0.0, 0.0, 0.0, 0.0, 0.0, 0.0, 0.0, 0.0, 1.676047400906638E9, 0.0, 2023-02-10 11:43:20.906
206.0, 5100.131642834144, 187500.0, 187500.0, 187500.0, -187500.02235174447, 187500.0, -187500.02235174447, -187500.02235174447, -0.024, 0.032, 1.0, 192.0, 0.0, 0.0, 0.0, 0.0, 0.0, 0.0, 0.0, 0.0, 0.0, 1.676047400914028E9, 0.0, 2023-02-10 11:43:20.914
207.0, 5054.310566700765, 187500.0, 187500.0, 187500.0, -187500.02235174447, 187500.0, -187500.02235174447, -187500.02235174447, -0.024, 0.032, 1.0, 192.0, 0.0, 0.0, 0.0, 0.0, 0.0, 0.0, 0.0, 0.0, 0.0, 1.676047400914159E9, 0.0, 2023-02-10 11:43:20.914
208.0, 4928.067914017191, 187500.0, 187500.0, 187500.0, -187500.02235174447, 187500.0, -187500.02235174447, -187500.02235174447, -0.024, 0.032, 1.0, 192.0, 0.0, 0.0, 0.0, 0.0, 0.0, 0.0, 0.0, 0.0, 0.0, 1.676047400922049E9, 0.0, 2023-02-10 11:43:20.922
209.0, 4968.122240081101, 187500.0, 187500.0, 187500.0, -187500.02235174447, 187500.0, -187500.02235174447, -187500.02235174447, -0.024, 0.032, 1.0, 192.0, 0.0, 0.0, 0.0, 0.0, 0.0, 0.0, 0.0, 0.0, 0.0, 1.676047400922092E9, 0.0, 2023-02-10 11:43:20.922
210.0, 5127.512529791896, 187500.0, 187500.0, 187500.0, -187500.02235174447, 187500.0, -187500.02235174447, -187500.02235174447, -0.024, 0.032, 1.0, 192.0, 0.0, 0.0, 0.0, 0.0, 0.0, 0.0, 0.0, 0.0, 0.0, 1.676047400930068E9, 0.0, 2023-02-10 11:43:20.930
211.0, 5118.907108176602, 187500.0, 187500.0, 187500.0, -187500.02235174447, 187500.0, -187500.02235174447, -187500.02235174447, -0.024, 0.032, 1.0, 192.0, 0.0, 0.0, 0.0, 0.0, 0.0, 0.0, 0.0, 0.0, 0.0, 1.676047400930085E9, 0.0, 2023-02-10 11:43:20.930
212.0, 5042.486493883907, 187500.0, 187500.0, 187500.0, -187500.02235174447, 187500.0, -187500.02235174447, -187500.02235174447, -0.024, 0.032, 1.0, 192.0, 0.0, 0.0, 0.0, 0.0, 0.0, 0.0, 0.0, 0.0, 0.0, 1.676047400936634E9, 0.0, 2023-02-10 11:43:20.936
213.0, 4941.2777949902775, 187500.0, 187500.0, 187500.0, -187500.02235174447, 187500.0, -187500.02235174447, -187500.02235174447, -0.024, 0.032, 1.0, 192.0, 0.0, 0.0, 0.0, 0.0, 0.0, 0.0, 0.0, 0.0, 0.0, 1.676047400936656E9, 0.0, 2023-02-10 11:43:20.936
214.0, 4967.69755693645, 187500.0, 187500.0, 187500.0, -187500.02235174447, 187500.0, -187500.02235174447, -187500.02235174447, -0.028, 0.03, 1.0, 192.0, 255.0, 32.0, 0.0, 240.0, 31.0, 64.0, 0.0, 0.0, 0.0, 1.676047400943768E9, 0.0, 2023-02-10 11:43:20.943
215.0, 5041.704182827972, 187500.0, 187500.0, 187500.0, -187500.02235174447, 187500.0, -187500.02235174447, -187500.02235174447, -0.028, 0.03, 1.0, 192.0, 0.0, 0.0, 0.0, 0.0, 0.0, 0.0, 0.0, 0.0, 0.0, 1.676047400943797E9, 0.0, 2023-02-10 11:43:20.943
216.0, 5035.132769958112, 187500.0, 187500.0, 187500.0, -187500.02235174447, 187500.0, -187500.02235174447, -187500.02235174447, -0.028, 0.03, 1.0, 192.0, 0.0, 0.0, 0.0, 0.0, 0.0, 0.0, 0.0, 0.0, 0.0, 1.67604740095187E9, 0.0, 2023-02-10 11:43:20.951
217.0, 4951.336079995165, 187500.0, 187500.0, 187500.0, -187500.02235174447, 187500.0, -187500.02235174447, -187500.02235174447, -0.028, 0.03, 1.0, 192.0, 0.0, 0.0, 0.0, 0.0, 0.0, 0.0, 0.0, 0.0, 0.0, 1.676047400959764E9, 0.0, 2023-02-10 11:43:20.959
218.0, 5011.75284525786, 187500.0, 187500.0, 187500.0, -187500.02235174447, 187500.0, -187500.02235174447, -187500.02235174447, -0.028, 0.03, 1.0, 192.0, 0.0, 0.0, 0.0, 0.0, 0.0, 0.0, 0.0, 0.0, 0.0, 1.676047400959789E9, 0.0, 2023-02-10 11:43:20.959
219.0, 5072.951921576491, 187500.0, 187500.0, 187500.0, -187500.02235174447, 187500.0, -187500.02235174447, -187500.02235174447, -0.028, 0.03, 1.0, 192.0, 0.0, 0.0, 0.0, 0.0, 0.0, 0.0, 0.0, 0.0, 0.0, 1.676047400966426E9, 0.0, 2023-02-10 11:43:20.966
220.0, 5008.556545800751, 187500.0, 187500.0, 187500.0, -187500.02235174447, 187500.0, -187500.02235174447, -187500.02235174447, -0.028, 0.03, 1.0, 192.0, 0.0, 0.0, 0.0, 0.0, 0.0, 0.0, 0.0, 0.0, 0.0, 1.676047400966447E9, 0.0, 2023-02-10 11:43:20.966
221.0, 4934.013478042302, 187500.0, 187500.0, 187500.0, -187500.02235174447, 187500.0, -187500.02235174447, -187500.02235174447, -0.028, 0.03, 1.0, 192.0, 0.0, 0.0, 0.0, 0.0, 0.0, 0.0, 0.0, 0.0, 0.0, 1.676047400974401E9, 0.0, 2023-02-10 11:43:20.974
222.0, 4961.46142023342, 187500.0, 187500.0, 187500.0, -187500.02235174447, 187500.0, -187500.02235174447, -187500.02235174447, -0.028, 0.03, 1.0, 192.0, 0.0, 0.0, 0.0, 0.0, 0.0, 0.0, 0.0, 0.0, 0.0, 1.676047400974521E9, 0.0, 2023-02-10 11:43:20.974
223.0, 5008.0201039338235, 187500.0, 187500.0, 187500.0, -187500.02235174447, 187500.0, -187500.02235174447, -187500.02235174447, -0.028, 0.03, 1.0, 192.0, 0.0, 0.0, 0.0, 0.0, 0.0, 0.0, 0.0, 0.0, 0.0, 1.676047400982411E9, 0.0, 2023-02-10 11:43:20.982
224.0, 4958.354527754132, 187500.0, 187500.0, 187500.0, -187500.02235174447, 187500.0, -187500.02235174447, -187500.02235174447, -0.028, 0.032, 1.004, 192.0, 255.0, 32.0, 1.0, 0.0, 31.0, 96.0, 0.0, 0.0, 0.0, 1.676047400982434E9, 0.0, 2023-02-10 11:43:20.982
225.0, 4894.607352567596, 187500.0, 187500.0, 187500.0, -187500.02235174447, 187500.0, -187500.02235174447, -187500.02235174447, -0.028, 0.032, 1.004, 192.0, 0.0, 0.0, 0.0, 0.0, 0.0, 0.0, 0.0, 0.0, 0.0, 1.676047400989556E9, 0.0, 2023-02-10 11:43:20.989
226.0, 4830.033162836214, 187500.0, 187500.0, 187500.0, -187500.02235174447, 187500.0, -187500.02235174447, -187500.02235174447, -0.028, 0.032, 1.004, 192.0, 0.0, 0.0, 0.0, 0.0, 0.0, 0.0, 0.0, 0.0, 0.0, 1.676047400989578E9, 0.0, 2023-02-10 11:43:20.989
227.0, 4939.042620544747, 187500.0, 187500.0, 187500.0, -187500.02235174447, 187500.0, -187500.02235174447, -187500.02235174447, -0.028, 0.032, 1.004, 192.0, 0.0, 0.0, 0.0, 0.0, 0.0, 0.0, 0.0, 0.0, 0.0, 1.676047400996824E9, 0.0, 2023-02-10 11:43:20.996
228.0, 5069.554456419284, 187500.0, 187500.0, 187500.0, -187500.02235174447, 187500.0, -187500.02235174447, -187500.02235174447, -0.028, 0.032, 1.004, 192.0, 0.0, 0.0, 0.0, 0.0, 0.0, 0.0, 0.0, 0.0, 0.0, 1.676047400996841E9, 0.0, 2023-02-10 11:43:20.996
229.0, 4966.8705423916035, 187500.0, 187500.0, 187500.0, -187500.02235174447, 187500.0, -187500.02235174447, -187500.02235174447, -0.028, 0.032, 1.004, 192.0, 0.0, 0.0, 0.0, 0.0, 0.0, 0.0, 0.0, 0.0, 0.0, 1.676047401004945E9, 0.0, 2023-02-10 11:43:21.004
230.0, 4920.580079624663, 187500.0, 187500.0, 187500.0, -187500.02235174447, 187500.0, -187500.02235174447, -187500.02235174447, -0.028, 0.032, 1.004, 192.0, 0.0, 0.0, 0.0, 0.0, 0.0, 0.0, 0.0, 0.0, 0.0, 1.676047401004959E9, 0.0, 2023-02-10 11:43:21.004
231.0, 4963.450725489942, 187500.0, 187500.0, 187500.0, -187500.02235174447, 187500.0, -187500.02235174447, -187500.02235174447, -0.028, 0.032, 1.004, 192.0, 0.0, 0.0, 0.0, 0.0, 0.0, 0.0, 0.0, 0.0, 0.0, 1.676047401012035E9, 0.0, 2023-02-10 11:43:21.012
232.0, 4927.062085516702, 187500.0, 187500.0, 187500.0, -187500.02235174447, 187500.0, -187500.02235174447, -187500.02235174447, -0.028, 0.032, 1.004, 192.0, 0.0, 0.0, 0.0, 0.0, 0.0, 0.0, 0.0, 0.0, 0.0, 1.676047401020039E9, 0.0, 2023-02-10 11:43:21.020
233.0, 4916.5120621337965, 187500.0, 187500.0, 187500.0, -187500.02235174447, 187500.0, -187500.02235174447, -187500.02235174447, -0.024, 0.03, 1.008, 192.0, 255.0, 64.0, 0.0, 240.0, 31.0, 128.0, 0.0, 0.0, 0.0, 1.67604740102007E9, 0.0, 2023-02-10 11:43:21.020
234.0, 4911.885251031548, 187500.0, 187500.0, 187500.0, -187500.02235174447, 187500.0, -187500.02235174447, -187500.02235174447, -0.024, 0.03, 1.008, 192.0, 0.0, 0.0, 0.0, 0.0, 0.0, 0.0, 0.0, 0.0, 0.0, 1.676047401026709E9, 0.0, 2023-02-10 11:43:21.026
235.0, 4948.40800147152, 187500.0, 187500.0, 187500.0, -187500.02235174447, 187500.0, -187500.02235174447, -187500.02235174447, -0.024, 0.03, 1.008, 192.0, 0.0, 0.0, 0.0, 0.0, 0.0, 0.0, 0.0, 0.0, 0.0, 1.676047401026733E9, 0.0, 2023-02-10 11:43:21.026
236.0, 4941.903643835026, 187500.0, 187500.0, 187500.0, -187500.02235174447, 187500.0, -187500.02235174447, -187500.02235174447, -0.024, 0.03, 1.008, 192.0, 0.0, 0.0, 0.0, 0.0, 0.0, 0.0, 0.0, 0.0, 0.0, 1.676047401034546E9, 0.0, 2023-02-10 11:43:21.034
237.0, 4839.063267596158, 187500.0, 187500.0, 187500.0, -187500.02235174447, 187500.0, -187500.02235174447, -187500.02235174447, -0.024, 0.03, 1.008, 192.0, 0.0, 0.0, 0.0, 0.0, 0.0, 0.0, 0.0, 0.0, 0.0, 1.676047401034651E9, 0.0, 2023-02-10 11:43:21.034
238.0, 4823.685267410907, 187500.0, 187500.0, 187500.0, -187500.02235174447, 187500.0, -187500.02235174447, -187500.02235174447, -0.024, 0.03, 1.008, 192.0, 0.0, 0.0, 0.0, 0.0, 0.0, 0.0, 0.0, 0.0, 0.0, 1.676047401042068E9, 0.0, 2023-02-10 11:43:21.042
239.0, 4875.429555824942, 187500.0, 187500.0, 187500.0, -187500.02235174447, 187500.0, -187500.02235174447, -187500.02235174447, -0.024, 0.03, 1.008, 192.0, 0.0, 0.0, 0.0, 0.0, 0.0, 0.0, 0.0, 0.0, 0.0, 1.676047401042117E9, 0.0, 2023-02-10 11:43:21.042
240.0, 4915.103902233112, 187500.0, 187500.0, 187500.0, -187500.02235174447, 187500.0, -187500.02235174447, -187500.02235174447, -0.024, 0.03, 1.008, 192.0, 0.0, 0.0, 0.0, 0.0, 0.0, 0.0, 0.0, 0.0, 0.0, 1.676047401049412E9, 0.0, 2023-02-10 11:43:21.049
241.0, 4860.34212831761, 187500.0, 187500.0, 187500.0, -187500.02235174447, 187500.0, -187500.02235174447, -187500.02235174447, -0.024, 0.03, 1.008, 192.0, 0.0, 0.0, 0.0, 0.0, 0.0, 0.0, 0.0, 0.0, 0.0, 1.676047401049439E9, 0.0, 2023-02-10 11:43:21.049
242.0, 4785.5531913701525, 187500.0, 187500.0, 187500.0, -187500.02235174447, 187500.0, -187500.02235174447, -187500.02235174447, -0.024, 0.03, 1.008, 192.0, 0.0, 0.0, 0.0, 0.0, 0.0, 0.0, 0.0, 0.0, 0.0, 1.676047401057277E9, 0.0, 2023-02-10 11:43:21.057
243.0, 4777.595970344063, 187500.0, 187500.0, 187500.0, -187500.02235174447, 187500.0, -187500.02235174447, -187500.02235174447, -0.026000000000000002, 0.028, 1.004, 192.0, 255.0, 48.0, 0.0, 224.0, 31.0, 96.0, 0.0, 0.0, 0.0, 1.676047401057307E9, 0.0, 2023-02-10 11:43:21.057
244.0, 4807.457900936353, 187500.0, 187500.0, 187500.0, -187500.02235174447, 187500.0, -187500.02235174447, -187500.02235174447, -0.026000000000000002, 0.028, 1.004, 192.0, 0.0, 0.0, 0.0, 0.0, 0.0, 0.0, 0.0, 0.0, 0.0, 1.676047401065397E9, 0.0, 2023-02-10 11:43:21.065
245.0, 4866.399451064998, 187500.0, 187500.0, 187500.0, -187500.02235174447, 187500.0, -187500.02235174447, -187500.02235174447, -0.026000000000000002, 0.028, 1.004, 192.0, 0.0, 0.0, 0.0, 0.0, 0.0, 0.0, 0.0, 0.0, 0.0, 1.67604740106542E9, 0.0, 2023-02-10 11:43:21.065
246.0, 4781.909857023938, 187500.0, 187500.0, 187500.0, -187500.02235174447, 187500.0, -187500.02235174447, -187500.02235174447, -0.026000000000000002, 0.028, 1.004, 192.0, 0.0, 0.0, 0.0, 0.0, 0.0, 0.0, 0.0, 0.0, 0.0, 1.67604740107135E9, 0.0, 2023-02-10 11:43:21.071
247.0, 4769.862266762527, 187500.0, 187500.0, 187500.0, -187500.02235174447, 187500.0, -187500.02235174447, -187500.02235174447, -0.026000000000000002, 0.028, 1.004, 192.0, 0.0, 0.0, 0.0, 0.0, 0.0, 0.0, 0.0, 0.0, 0.0, 1.676047401078804E9, 0.0, 2023-02-10 11:43:21.078
248.0, 4886.113689674579, 187500.0, 187500.0, 187500.0, -187500.02235174447, 187500.0, -187500.02235174447, -187500.02235174447, -0.026000000000000002, 0.028, 1.004, 192.0, 0.0, 0.0, 0.0, 0.0, 0.0, 0.0, 0.0, 0.0, 0.0, 1.676047401078832E9, 0.0, 2023-02-10 11:43:21.078
249.0, 4917.495538889831, 187500.0, 187500.0, 187500.0, -187500.02235174447, 187500.0, -187500.02235174447, -187500.02235174447, -0.026000000000000002, 0.028, 1.004, 192.0, 0.0, 0.0, 0.0, 0.0, 0.0, 0.0, 0.0, 0.0, 0.0, 1.676047401087433E9, 0.0, 2023-02-10 11:43:21.087
250.0, 4792.4822321512975, 187500.0, 187500.0, 187500.0, -187500.02235174447, 187500.0, -187500.02235174447, -187500.02235174447, -0.026000000000000002, 0.028, 1.004, 192.0, 0.0, 0.0, 0.0, 0.0, 0.0, 0.0, 0.0, 0.0, 0.0, 1.676047401087507E9, 0.0, 2023-02-10 11:43:21.087
251.0, 4738.189844869357, 187500.0, 187500.0, 187500.0, -187500.02235174447, 187500.0, -187500.02235174447, -187500.02235174447, -0.026000000000000002, 0.028, 1.004, 192.0, 0.0, 0.0, 0.0, 0.0, 0.0, 0.0, 0.0, 0.0, 0.0, 1.676047401095001E9, 0.0, 2023-02-10 11:43:21.095
252.0, 4767.4706301058095, 187500.0, 187500.0, 187500.0, -187500.02235174447, 187500.0, -187500.02235174447, -187500.02235174447, -0.026000000000000002, 0.028, 1.004, 192.0, 0.0, 0.0, 0.0, 0.0, 0.0, 0.0, 0.0, 0.0, 0.0, 1.676047401095115E9, 0.0, 2023-02-10 11:43:21.095
253.0, 4783.608589602541, 187500.0, 187500.0, 187500.0, -187500.02235174447, 187500.0, -187500.02235174447, -187500.02235174447, -0.022, 0.032, 1.0, 192.0, 255.0, 80.0, 1.0, 0.0, 31.0, 64.0, 0.0, 0.0, 0.0, 1.676047401101639E9, 0.0, 2023-02-10 11:43:21.101
254.0, 4730.098513376536, 187500.0, 187500.0, 187500.0, -187500.02235174447, 187500.0, -187500.02235174447, -187500.02235174447, -0.022, 0.032, 1.0, 192.0, 0.0, 0.0, 0.0, 0.0, 0.0, 0.0, 0.0, 0.0, 0.0, 1.676047401101662E9, 0.0, 2023-02-10 11:43:21.101
255.0, 4700.281286273156, 187500.0, 187500.0, 187500.0, -187500.02235174447, 187500.0, -187500.02235174447, -187500.02235174447, -0.022, 0.032, 1.0, 192.0, 0.0, 0.0, 0.0, 0.0, 0.0, 0.0, 0.0, 0.0, 0.0, 1.676047401110066E9, 0.0, 2023-02-10 11:43:21.110
0.0, 4795.857345564049, 187500.0, 187500.0, 187500.0, -187500.02235174447, 187500.0, -187500.02235174447, -187500.02235174447, -0.022, 0.032, 1.0, 192.0, 0.0, 0.0, 0.0, 0.0, 0.0, 0.0, 0.0, 0.0, 0.0, 1.676047401110127E9, 0.0, 2023-02-10 11:43:21.110
1.0, 4879.050538426703, 187500.0, 187500.0, 187500.0, -187500.02235174447, 187500.0, -187500.02235174447, -187500.02235174447, -0.022, 0.032, 1.0, 192.0, 0.0, 0.0, 0.0, 0.0, 0.0, 0.0, 0.0, 0.0, 0.0, 1.676047401117981E9, 0.0, 2023-02-10 11:43:21.117
2.0, 4781.3287116680995, 187500.0, 187500.0, 187500.0, -187500.02235174447, 187500.0, -187500.02235174447, -187500.02235174447, -0.022, 0.032, 1.0, 192.0, 0.0, 0.0, 0.0, 0.0, 0.0, 0.0, 0.0, 0.0, 0.0, 1.676047401118003E9, 0.0, 2023-02-10 11:43:21.118
3.0, 4664.183218977835, 187500.0, 187500.0, 187500.0, -187500.02235174447, 187500.0, -187500.02235174447, -187500.02235174447, -0.022, 0.032, 1.0, 192.0, 0.0, 0.0, 0.0, 0.0, 0.0, 0.0, 0.0, 0.0, 0.0, 1.676047401126231E9, 0.0, 2023-02-10 11:43:21.126
4.0, 4648.939329259316, 187500.0, 187500.0, 187500.0, -187500.02235174447, 187500.0, -187500.02235174447, -187500.02235174447, -0.022, 0.032, 1.0, 192.0, 0.0, 0.0, 0.0, 0.0, 0.0, 0.0, 0.0, 0.0, 0.0, 1.676047401126259E9, 0.0, 2023-02-10 11:43:21.126
5.0, 4735.686449490363, 187500.0, 187500.0, 187500.0, -187500.02235174447, 187500.0, -187500.02235174447, -187500.02235174447, -0.022, 0.032, 1.0, 192.0, 0.0, 0.0, 0.0, 0.0, 0.0, 0.0, 0.0, 0.0, 0.0, 1.676047401132295E9, 0.0, 2023-02-10 11:43:21.132
6.0, 4711.546565478631, 187500.0, 187500.0, 187500.0, -187500.02235174447, 187500.0, -187500.02235174447, -187500.02235174447, -0.022, 0.032, 1.0, 192.0, 0.0, 0.0, 0.0, 0.0, 0.0, 0.0, 0.0, 0.0, 0.0, 1.676047401139131E9, 0.0, 2023-02-10 11:43:21.139
7.0, 4758.574635812597, 187500.0, 187500.0, 187500.0, -187500.02235174447, 187500.0, -187500.02235174447, -187500.02235174447, -0.026000000000000002, 0.03, 0.998, 192.0, 255.0, 48.0, 0.0, 240.0, 31.0, 48.0, 0.0, 0.0, 0.0, 1.676047401139168E9, 0.0, 2023-02-10 11:43:21.139
8.0, 4733.518330278198, 187500.0, 187500.0, 187500.0, -187500.02235174447, 187500.0, -187500.02235174447, -187500.02235174447, -0.026000000000000002, 0.03, 0.998, 192.0, 0.0, 0.0, 0.0, 0.0, 0.0, 0.0, 0.0, 0.0, 0.0, 1.676047401147112E9, 0.0, 2023-02-10 11:43:21.147
9.0, 4754.104286921535, 187500.0, 187500.0, 187500.0, -187500.02235174447, 187500.0, -187500.02235174447, -187500.02235174447, -0.026000000000000002, 0.03, 0.998, 192.0, 0.0, 0.0, 0.0, 0.0, 0.0, 0.0, 0.0, 0.0, 0.0, 1.676047401147132E9, 0.0, 2023-02-10 11:43:21.147
10.0, 4707.031513098659, 187500.0, 187500.0, 187500.0, -187500.02235174447, 187500.0, -187500.02235174447, -187500.02235174447, -0.026000000000000002, 0.03, 0.998, 192.0, 0.0, 0.0, 0.0, 0.0, 0.0, 0.0, 0.0, 0.0, 0.0, 1.676047401154096E9, 0.0, 2023-02-10 11:43:21.154
11.0, 4624.888852225406, 187500.0, 187500.0, 187500.0, -187500.02235174447, 187500.0, -187500.02235174447, -187500.02235174447, -0.026000000000000002, 0.03, 0.998, 192.0, 0.0, 0.0, 0.0, 0.0, 0.0, 0.0, 0.0, 0.0, 0.0, 1.676047401154113E9, 0.0, 2023-02-10 11:43:21.154
12.0, 4672.051033026103, 187500.0, 187500.0, 187500.0, -187500.02235174447, 187500.0, -187500.02235174447, -187500.02235174447, -0.026000000000000002, 0.03, 0.998, 192.0, 0.0, 0.0, 0.0, 0.0, 0.0, 0.0, 0.0, 0.0, 0.0, 1.676047401161735E9, 0.0, 2023-02-10 11:43:21.161
13.0, 4748.6281095299855, 187500.0, 187500.0, 187500.0, -187500.02235174447, 187500.0, -187500.02235174447, -187500.02235174447, -0.026000000000000002, 0.03, 0.998, 192.0, 0.0, 0.0, 0.0, 0.0, 0.0, 0.0, 0.0, 0.0, 0.0, 1.676047401161754E9, 0.0, 2023-02-10 11:43:21.161
14.0, 4765.4142696159215, 187500.0, 187500.0, 187500.0, -187500.02235174447, 187500.0, -187500.02235174447, -187500.02235174447, -0.026000000000000002, 0.03, 0.998, 192.0, 0.0, 0.0, 0.0, 0.0, 0.0, 0.0, 0.0, 0.0, 0.0, 1.676047401169676E9, 0.0, 2023-02-10 11:43:21.169
15.0, 4656.941253774316, 187500.0, 187500.0, 187500.0, -187500.02235174447, 187500.0, -187500.02235174447, -187500.02235174447, -0.026000000000000002, 0.03, 0.998, 192.0, 0.0, 0.0, 0.0, 0.0, 0.0, 0.0, 0.0, 0.0, 0.0, 1.676047401169693E9, 0.0, 2023-02-10 11:43:21.169
16.0, 4609.600259017976, 187500.0, 187500.0, 187500.0, -187500.02235174447, 187500.0, -187500.02235174447, -187500.02235174447, -0.026000000000000002, 0.03, 0.998, 192.0, 0.0, 0.0, 0.0, 0.0, 0.0, 0.0, 0.0, 0.0, 0.0, 1.676047401177696E9, 0.0, 2023-02-10 11:43:21.177
17.0, 4610.606087518464, 187500.0, 187500.0, 187500.0, -187500.02235174447, 187500.0, -187500.02235174447, -187500.02235174447, -0.022, 0.034, 1.004, 192.0, 255.0, 80.0, 1.0, 16.0, 31.0, 96.0, 0.0, 0.0, 0.0, 1.676047401177719E9, 0.0, 2023-02-10 11:43:21.177
18.0, 4657.142419474414, 187500.0, 187500.0, 187500.0, -187500.02235174447, 187500.0, -187500.02235174447, -187500.02235174447, -0.022, 0.034, 1.004, 192.0, 0.0, 0.0, 0.0, 0.0, 0.0, 0.0, 0.0, 0.0, 0.0, 1.67604740118444E9, 0.0, 2023-02-10 11:43:21.184
19.0, 4617.691590510797, 187500.0, 187500.0, 187500.0, -187500.02235174447, 187500.0, -187500.02235174447, -187500.02235174447, -0.022, 0.034, 1.004, 192.0, 0.0, 0.0, 0.0, 0.0, 0.0, 0.0, 0.0, 0.0, 0.0, 1.676047401184469E9, 0.0, 2023-02-10 11:43:21.184
20.0, 4670.799335336606, 187500.0, 187500.0, 187500.0, -187500.02235174447, 187500.0, -187500.02235174447, -187500.02235174447, -0.022, 0.034, 1.004, 192.0, 0.0, 0.0, 0.0, 0.0, 0.0, 0.0, 0.0, 0.0, 0.0, 1.676047401192809E9, 0.0, 2023-02-10 11:43:21.192
21.0, 4704.192841552835, 187500.0, 187500.0, 187500.0, -187500.02235174447, 187500.0, -187500.02235174447, -187500.02235174447, -0.022, 0.034, 1.004, 192.0, 0.0, 0.0, 0.0, 0.0, 0.0, 0.0, 0.0, 0.0, 0.0, 1.676047401192831E9, 0.0, 2023-02-10 11:43:21.192
22.0, 4701.3765217514665, 187500.0, 187500.0, 187500.0, -187500.02235174447, 187500.0, -187500.02235174447, -187500.02235174447, -0.022, 0.034, 1.004, 192.0, 0.0, 0.0, 0.0, 0.0, 0.0, 0.0, 0.0, 0.0, 0.0, 1.676047401199333E9, 0.0, 2023-02-10 11:43:21.199
23.0, 4643.820779779051, 187500.0, 187500.0, 187500.0, -187500.02235174447, 187500.0, -187500.02235174447, -187500.02235174447, -0.022, 0.034, 1.004, 192.0, 0.0, 0.0, 0.0, 0.0, 0.0, 0.0, 0.0, 0.0, 0.0, 1.676047401206633E9, 0.0, 2023-02-10 11:43:21.206
24.0, 4598.893773423883, 187500.0, 187500.0, 187500.0, -187500.02235174447, 187500.0, -187500.02235174447, -187500.02235174447, -0.022, 0.034, 1.004, 192.0, 0.0, 0.0, 0.0, 0.0, 0.0, 0.0, 0.0, 0.0, 0.0, 1.676047401206676E9, 0.0, 2023-02-10 11:43:21.206
25.0, 4632.734314529218, 187500.0, 187500.0, 187500.0, -187500.02235174447, 187500.0, -187500.02235174447, -187500.02235174447, -0.022, 0.034, 1.004, 192.0, 0.0, 0.0, 0.0, 0.0, 0.0, 0.0, 0.0, 0.0, 0.0, 1.676047401214132E9, 0.0, 2023-02-10 11:43:21.214
26.0, 4658.72939333074, 187500.0, 187500.0, 187500.0, -187500.02235174447, 187500.0, -187500.02235174447, -187500.02235174447, -0.022, 0.034, 1.004, 192.0, 0.0, 0.0, 0.0, 0.0, 0.0, 0.0, 0.0, 0.0, 0.0, 1.676047401214156E9, 0.0, 2023-02-10 11:43:21.214
27.0, 4567.400165486356, 187500.0, 187500.0, 187500.0, -187500.02235174447, 187500.0, -187500.02235174447, -187500.02235174447, -0.026000000000000002, 0.034, 1.002, 192.0, 255.0, 48.0, 1.0, 16.0, 31.0, 80.0, 0.0, 0.0, 0.0, 1.676047401222079E9, 0.0, 2023-02-10 11:43:21.222
28.0, 4506.514013590099, 187500.0, 187500.0, 187500.0, -187500.02235174447, 187500.0, -187500.02235174447, -187500.02235174447, -0.026000000000000002, 0.034, 1.002, 192.0, 0.0, 0.0, 0.0, 0.0, 0.0, 0.0, 0.0, 0.0, 0.0, 1.676047401222102E9, 0.0, 2023-02-10 11:43:21.222
29.0, 4549.339955966468, 187500.0, 187500.0, 187500.0, -187500.02235174447, 187500.0, -187500.02235174447, -187500.02235174447, -0.026000000000000002, 0.034, 1.002, 192.0, 0.0, 0.0, 0.0, 0.0, 0.0, 0.0, 0.0, 0.0, 0.0, 1.67604740123018E9, 0.0, 2023-02-10 11:43:21.230
30.0, 4635.796503519596, 187500.0, 187500.0, 187500.0, -187500.02235174447, 187500.0, -187500.02235174447, -187500.02235174447, -0.026000000000000002, 0.034, 1.002, 192.0, 0.0, 0.0, 0.0, 0.0, 0.0, 0.0, 0.0, 0.0, 0.0, 1.676047401230208E9, 0.0, 2023-02-10 11:43:21.230
31.0, 4609.890831695894, 187500.0, 187500.0, 187500.0, -187500.02235174447, 187500.0, -187500.02235174447, -187500.02235174447, -0.026000000000000002, 0.034, 1.002, 192.0, 0.0, 0.0, 0.0, 0.0, 0.0, 0.0, 0.0, 0.0, 0.0, 1.676047401236618E9, 0.0, 2023-02-10 11:43:21.236
32.0, 4534.476045903689, 187500.0, 187500.0, 187500.0, -187500.02235174447, 187500.0, -187500.02235174447, -187500.02235174447, -0.026000000000000002, 0.034, 1.002, 192.0, 0.0, 0.0, 0.0, 0.0, 0.0, 0.0, 0.0, 0.0, 0.0, 1.676047401236639E9, 0.0, 2023-02-10 11:43:21.236
33.0, 4539.3710779394005, 187500.0, 187500.0, 187500.0, -187500.02235174447, 187500.0, -187500.02235174447, -187500.02235174447, -0.026000000000000002, 0.034, 1.002, 192.0, 0.0, 0.0, 0.0, 0.0, 0.0, 0.0, 0.0, 0.0, 0.0, 1.67604740124463E9, 0.0, 2023-02-10 11:43:21.244
34.0, 4581.638226704386, 187500.0, 187500.0, 187500.0, -187500.02235174447, 187500.0, -187500.02235174447, -187500.02235174447, -0.026000000000000002, 0.034, 1.002, 192.0, 0.0, 0.0, 0.0, 0.0, 0.0, 0.0, 0.0, 0.0, 0.0, 1.676047401244646E9, 0.0, 2023-02-10 11:43:21.244
35.0, 4551.731592623186, 187500.0, 187500.0, 187500.0, -187500.02235174447, 187500.0, -187500.02235174447, -187500.02235174447, -0.026000000000000002, 0.034, 1.002, 192.0, 0.0, 0.0, 0.0, 0.0, 0.0, 0.0, 0.0, 0.0, 0.0, 1.676047401252532E9, 0.0, 2023-02-10 11:43:21.252
36.0, 4413.530756656022, 187500.0, 187500.0, 187500.0, -187500.02235174447, 187500.0, -187500.02235174447, -187500.02235174447, -0.026000000000000002, 0.034, 1.002, 192.0, 255.0, 48.0, 1.0, 16.0, 31.0, 80.0, 0.0, 0.0, 0.0, 1.676047401252549E9, 0.0, 2023-02-10 11:43:21.252
37.0, 4436.843626122907, 187500.0, 187500.0, 187500.0, -187500.02235174447, 187500.0, -187500.02235174447, -187500.02235174447, -0.026000000000000002, 0.034, 1.002, 192.0, 0.0, 0.0, 0.0, 0.0, 0.0, 0.0, 0.0, 0.0, 0.0, 1.67604740125958E9, 0.0, 2023-02-10 11:43:21.259
38.0, 4676.141402261424, 187500.0, 187500.0, 187500.0, -187500.02235174447, 187500.0, -187500.02235174447, -187500.02235174447, -0.026000000000000002, 0.034, 1.002, 192.0, 0.0, 0.0, 0.0, 0.0, 0.0, 0.0, 0.0, 0.0, 0.0, 1.676047401266255E9, 0.0, 2023-02-10 11:43:21.266
39.0, 4599.094939123981, 187500.0, 187500.0, 187500.0, -187500.02235174447, 187500.0, -187500.02235174447, -187500.02235174447, -0.026000000000000002, 0.034, 1.002, 192.0, 0.0, 0.0, 0.0, 0.0, 0.0, 0.0, 0.0, 0.0, 0.0, 1.676047401266279E9, 0.0, 2023-02-10 11:43:21.266
40.0, 4482.821164467474, 187500.0, 187500.0, 187500.0, -187500.02235174447, 187500.0, -187500.02235174447, -187500.02235174447, -0.026000000000000002, 0.034, 1.002, 192.0, 0.0, 0.0, 0.0, 0.0, 0.0, 0.0, 0.0, 0.0, 0.0, 1.676047401275274E9, 0.0, 2023-02-10 11:43:21.275
41.0, 4446.052544838493, 187500.0, 187500.0, 187500.0, -187500.02235174447, 187500.0, -187500.02235174447, -187500.02235174447, -0.026000000000000002, 0.034, 1.002, 192.0, 0.0, 0.0, 0.0, 0.0, 0.0, 0.0, 0.0, 0.0, 0.0, 1.67604740127534E9, 0.0, 2023-02-10 11:43:21.275
42.0, 4528.239909200658, 187500.0, 187500.0, 187500.0, -187500.02235174447, 187500.0, -187500.02235174447, -187500.02235174447, -0.026000000000000002, 0.034, 1.002, 192.0, 0.0, 0.0, 0.0, 0.0, 0.0, 0.0, 0.0, 0.0, 0.0, 1.676047401282529E9, 0.0, 2023-02-10 11:43:21.282
43.0, 4600.279581580113, 187500.0, 187500.0, 187500.0, -187500.02235174447, 187500.0, -187500.02235174447, -187500.02235174447, -0.026000000000000002, 0.034, 1.002, 192.0, 0.0, 0.0, 0.0, 0.0, 0.0, 0.0, 0.0, 0.0, 0.0, 1.676047401282563E9, 0.0, 2023-02-10 11:43:21.282
44.0, 4483.6034755234095, 187500.0, 187500.0, 187500.0, -187500.02235174447, 187500.0, -187500.02235174447, -187500.02235174447, -0.026000000000000002, 0.034, 1.002, 192.0, 0.0, 0.0, 0.0, 0.0, 0.0, 0.0, 0.0, 0.0, 0.0, 1.6760474012895E9, 0.0, 2023-02-10 11:43:21.289
45.0, 4484.274027857069, 187500.0, 187500.0, 187500.0, -187500.02235174447, 187500.0, -187500.02235174447, -187500.02235174447, -0.026000000000000002, 0.034, 1.002, 192.0, 0.0, 0.0, 0.0, 0.0, 0.0, 0.0, 0.0, 0.0, 0.0, 1.676047401289533E9, 0.0, 2023-02-10 11:43:21.289
46.0, 4524.954202765728, 187500.0, 187500.0, 187500.0, -187500.02235174447, 187500.0, -187500.02235174447, -187500.02235174447, -0.028, 0.034, 0.998, 192.0, 255.0, 32.0, 1.0, 16.0, 31.0, 48.0, 0.0, 0.0, 0.0, 1.676047401296918E9, 0.0, 2023-02-10 11:43:21.296
47.0, 4522.94254576475, 187500.0, 187500.0, 187500.0, -187500.02235174447, 187500.0, -187500.02235174447, -187500.02235174447, -0.028, 0.034, 0.998, 192.0, 0.0, 0.0, 0.0, 0.0, 0.0, 0.0, 0.0, 0.0, 0.0, 1.676047401296941E9, 0.0, 2023-02-10 11:43:21.296
48.0, 4420.906832326274, 187500.0, 187500.0, 187500.0, -187500.02235174447, 187500.0, -187500.02235174447, -187500.02235174447, -0.028, 0.034, 0.998, 192.0, 0.0, 0.0, 0.0, 0.0, 0.0, 0.0, 0.0, 0.0, 0.0, 1.676047401305032E9, 0.0, 2023-02-10 11:43:21.305
49.0, 4415.140082256804, 187500.0, 187500.0, 187500.0, -187500.02235174447, 187500.0, -187500.02235174447, -187500.02235174447, -0.028, 0.034, 0.998, 192.0, 0.0, 0.0, 0.0, 0.0, 0.0, 0.0, 0.0, 0.0, 0.0, 1.676047401305059E9, 0.0, 2023-02-10 11:43:21.305
50.0, 4492.566525049988, 187500.0, 187500.0, 187500.0, -187500.02235174447, 187500.0, -187500.02235174447, -187500.02235174447, -0.028, 0.034, 0.998, 192.0, 0.0, 0.0, 0.0, 0.0, 0.0, 0.0, 0.0, 0.0, 0.0, 1.676047401312965E9, 0.0, 2023-02-10 11:43:21.312
51.0, 4506.290496145546, 187500.0, 187500.0, 187500.0, -187500.02235174447, 187500.0, -187500.02235174447, -187500.02235174447, -0.028, 0.034, 0.998, 192.0, 0.0, 0.0, 0.0, 0.0, 0.0, 0.0, 0.0, 0.0, 0.0, 1.676047401312989E9, 0.0, 2023-02-10 11:43:21.312
52.0, 4352.801066970953, 187500.0, 187500.0, 187500.0, -187500.02235174447, 187500.0, -187500.02235174447, -187500.02235174447, -0.028, 0.034, 0.998, 192.0, 0.0, 0.0, 0.0, 0.0, 0.0, 0.0, 0.0, 0.0, 0.0, 1.676047401319017E9, 0.0, 2023-02-10 11:43:21.319
53.0, 4311.562098450911, 187500.0, 187500.0, 187500.0, -187500.02235174447, 187500.0, -187500.02235174447, -187500.02235174447, -0.028, 0.034, 0.998, 192.0, 0.0, 0.0, 0.0, 0.0, 0.0, 0.0, 0.0, 0.0, 0.0, 1.676047401326515E9, 0.0, 2023-02-10 11:43:21.326
54.0, 4488.587914536943, 187500.0, 187500.0, 187500.0, -187500.02235174447, 187500.0, -187500.02235174447, -187500.02235174447, -0.028, 0.034, 0.998, 192.0, 0.0, 0.0, 0.0, 0.0, 0.0, 0.0, 0.0, 0.0, 0.0, 1.676047401326536E9, 0.0, 2023-02-10 11:43:21.326
55.0, 4504.480004844667, 187500.0, 187500.0, 187500.0, -187500.02235174447, 187500.0, -187500.02235174447, -187500.02235174447, -0.028, 0.034, 0.998, 192.0, 0.0, 0.0, 0.0, 0.0, 0.0, 0.0, 0.0, 0.0, 0.0, 1.676047401334581E9, 0.0, 2023-02-10 11:43:21.334
56.0, 4456.177885076748, 187500.0, 187500.0, 187500.0, -187500.02235174447, 187500.0, -187500.02235174447, -187500.02235174447, -0.032, 0.028, 0.998, 192.0, 255.0, 0.0, 0.0, 224.0, 31.0, 48.0, 0.0, 0.0, 0.0, 1.676047401334597E9, 0.0, 2023-02-10 11:43:21.334
57.0, 4366.390927599779, 187500.0, 187500.0, 187500.0, -187500.02235174447, 187500.0, -187500.02235174447, -187500.02235174447, -0.032, 0.028, 0.998, 192.0, 0.0, 0.0, 0.0, 0.0, 0.0, 0.0, 0.0, 0.0, 0.0, 1.676047401341742E9, 0.0, 2023-02-10 11:43:21.341
58.0, 4362.479372320101, 187500.0, 187500.0, 187500.0, -187500.02235174447, 187500.0, -187500.02235174447, -187500.02235174447, -0.032, 0.028, 0.998, 192.0, 0.0, 0.0, 0.0, 0.0, 0.0, 0.0, 0.0, 0.0, 0.0, 1.676047401341766E9, 0.0, 2023-02-10 11:43:21.341
59.0, 4360.400660085757, 187500.0, 187500.0, 187500.0, -187500.02235174447, 187500.0, -187500.02235174447, -187500.02235174447, -0.032, 0.028, 0.998, 192.0, 0.0, 0.0, 0.0, 0.0, 0.0, 0.0, 0.0, 0.0, 0.0, 1.676047401349167E9, 0.0, 2023-02-10 11:43:21.349
60.0, 4371.8447532468745, 187500.0, 187500.0, 187500.0, -187500.02235174447, 187500.0, -187500.02235174447, -187500.02235174447, -0.032, 0.028, 0.998, 192.0, 0.0, 0.0, 0.0, 0.0, 0.0, 0.0, 0.0, 0.0, 0.0, 1.676047401349195E9, 0.0, 2023-02-10 11:43:21.349
61.0, 4391.246067434081, 187500.0, 187500.0, 187500.0, -187500.02235174447, 187500.0, -187500.02235174447, -187500.02235174447, -0.032, 0.028, 0.998, 192.0, 0.0, 0.0, 0.0, 0.0, 0.0, 0.0, 0.0, 0.0, 0.0, 1.676047401357413E9, 0.0, 2023-02-10 11:43:21.357
62.0, 4436.016611578061, 187500.0, 187500.0, 187500.0, -187500.02235174447, 187500.0, -187500.02235174447, -187500.02235174447, -0.032, 0.028, 0.998, 192.0, 0.0, 0.0, 0.0, 0.0, 0.0, 0.0, 0.0, 0.0, 0.0, 1.676047401357454E9, 0.0, 2023-02-10 11:43:21.357
63.0, 4438.2294342791365, 187500.0, 187500.0, 187500.0, -187500.02235174447, 187500.0, -187500.02235174447, -187500.02235174447, -0.032, 0.028, 0.998, 192.0, 0.0, 0.0, 0.0, 0.0, 0.0, 0.0, 0.0, 0.0, 0.0, 1.676047401365266E9, 0.0, 2023-02-10 11:43:21.365
64.0, 4422.762027116064, 187500.0, 187500.0, 187500.0, -187500.02235174447, 187500.0, -187500.02235174447, -187500.02235174447, -0.032, 0.028, 0.998, 192.0, 0.0, 0.0, 0.0, 0.0, 0.0, 0.0, 0.0, 0.0, 0.0, 1.676047401365292E9, 0.0, 2023-02-10 11:43:21.365
65.0, 4310.75743565052, 187500.0, 187500.0, 187500.0, -187500.02235174447, 187500.0, -187500.02235174447, -187500.02235174447, -0.032, 0.028, 0.998, 192.0, 0.0, 0.0, 0.0, 0.0, 0.0, 0.0, 0.0, 0.0, 0.0, 1.676047401372253E9, 0.0, 2023-02-10 11:43:21.372
66.0, 4319.005229354529, 187500.0, 187500.0, 187500.0, -187500.02235174447, 187500.0, -187500.02235174447, -187500.02235174447, -0.032, 0.03, 0.998, 192.0, 255.0, 0.0, 0.0, 240.0, 31.0, 48.0, 0.0, 0.0, 0.0, 1.67604740137228E9, 0.0, 2023-02-10 11:43:21.372
67.0, 4396.476375636623, 187500.0, 187500.0, 187500.0, -187500.02235174447, 187500.0, -187500.02235174447, -187500.02235174447, -0.032, 0.03, 0.998, 192.0, 0.0, 0.0, 0.0, 0.0, 0.0, 0.0, 0.0, 0.0, 0.0, 1.676047401379004E9, 0.0, 2023-02-10 11:43:21.379
68.0, 4434.384934232823, 187500.0, 187500.0, 187500.0, -187500.02235174447, 187500.0, -187500.02235174447, -187500.02235174447, -0.032, 0.03, 0.998, 192.0, 0.0, 0.0, 0.0, 0.0, 0.0, 0.0, 0.0, 0.0, 0.0, 1.676047401386872E9, 0.0, 2023-02-10 11:43:21.386
69.0, 4339.85940693133, 187500.0, 187500.0, 187500.0, -187500.02235174447, 187500.0, -187500.02235174447, -187500.02235174447, -0.032, 0.03, 0.998, 192.0, 0.0, 0.0, 0.0, 0.0, 0.0, 0.0, 0.0, 0.0, 0.0, 1.676047401386893E9, 0.0, 2023-02-10 11:43:21.386
70.0, 4235.387353347225, 187500.0, 187500.0, 187500.0, -187500.02235174447, 187500.0, -187500.02235174447, -187500.02235174447, -0.032, 0.03, 0.998, 192.0, 0.0, 0.0, 0.0, 0.0, 0.0, 0.0, 0.0, 0.0, 0.0, 1.676047401394966E9, 0.0, 2023-02-10 11:43:21.394
71.0, 4240.975289461051, 187500.0, 187500.0, 187500.0, -187500.02235174447, 187500.0, -187500.02235174447, -187500.02235174447, -0.032, 0.03, 0.998, 192.0, 0.0, 0.0, 0.0, 0.0, 0.0, 0.0, 0.0, 0.0, 0.0, 1.676047401394996E9, 0.0, 2023-02-10 11:43:21.394
72.0, 4338.138322608272, 187500.0, 187500.0, 187500.0, -187500.02235174447, 187500.0, -187500.02235174447, -187500.02235174447, -0.032, 0.03, 0.998, 192.0, 0.0, 0.0, 0.0, 0.0, 0.0, 0.0, 0.0, 0.0, 0.0, 1.676047401401431E9, 0.0, 2023-02-10 11:43:21.401
73.0, 4346.2520058455475, 187500.0, 187500.0, 187500.0, -187500.02235174447, 187500.0, -187500.02235174447, -187500.02235174447, -0.032, 0.03, 0.998, 192.0, 0.0, 0.0, 0.0, 0.0, 0.0, 0.0, 0.0, 0.0, 0.0, 1.676047401401456E9, 0.0, 2023-02-10 11:43:21.401
74.0, 4284.5611911489, 187500.0, 187500.0, 187500.0, -187500.02235174447, 187500.0, -187500.02235174447, -187500.02235174447, -0.032, 0.03, 0.998, 192.0, 0.0, 0.0, 0.0, 0.0, 0.0, 0.0, 0.0, 0.0, 0.0, 1.676047401409552E9, 0.0, 2023-02-10 11:43:21.409
75.0, 4374.616369559332, 187500.0, 187500.0, 187500.0, -187500.02235174447, 187500.0, -187500.02235174447, -187500.02235174447, -0.032, 0.03, 0.998, 192.0, 0.0, 0.0, 0.0, 0.0, 0.0, 0.0, 0.0, 0.0, 0.0, 1.676047401409574E9, 0.0, 2023-02-10 11:43:21.409
76.0, 4388.832079032908, 187500.0, 187500.0, 187500.0, -187500.02235174447, 187500.0, -187500.02235174447, -187500.02235174447, -0.03, 0.032, 1.006, 192.0, 255.0, 16.0, 1.0, 0.0, 31.0, 112.0, 0.0, 0.0, 0.0, 1.676047401417566E9, 0.0, 2023-02-10 11:43:21.417
77.0, 4265.472801384068, 187500.0, 187500.0, 187500.0, -187500.02235174447, 187500.0, -187500.02235174447, -187500.02235174447, -0.03, 0.032, 1.006, 192.0, 0.0, 0.0, 0.0, 0.0, 0.0, 0.0, 0.0, 0.0, 0.0, 1.676047401417591E9, 0.0, 2023-02-10 11:43:21.417
78.0, 4239.768295260465, 187500.0, 187500.0, 187500.0, -187500.02235174447, 187500.0, -187500.02235174447, -187500.02235174447, -0.03, 0.032, 1.006, 192.0, 0.0, 0.0, 0.0, 0.0, 0.0, 0.0, 0.0, 0.0, 0.0, 1.676047401424779E9, 0.0, 2023-02-10 11:43:21.424
79.0, 4292.831336597364, 187500.0, 187500.0, 187500.0, -187500.02235174447, 187500.0, -187500.02235174447, -187500.02235174447, -0.03, 0.032, 1.006, 192.0, 0.0, 0.0, 0.0, 0.0, 0.0, 0.0, 0.0, 0.0, 0.0, 1.676047401424815E9, 0.0, 2023-02-10 11:43:21.424
80.0, 4357.047898417461, 187500.0, 187500.0, 187500.0, -187500.02235174447, 187500.0, -187500.02235174447, -187500.02235174447, -0.03, 0.032, 1.006, 192.0, 0.0, 0.0, 0.0, 0.0, 0.0, 0.0, 0.0, 0.0, 0.0, 1.676047401432633E9, 0.0, 2023-02-10 11:43:21.432
81.0, 4303.180194280171, 187500.0, 187500.0, 187500.0, -187500.02235174447, 187500.0, -187500.02235174447, -187500.02235174447, -0.03, 0.032, 1.006, 192.0, 0.0, 0.0, 0.0, 0.0, 0.0, 0.0, 0.0, 0.0, 0.0, 1.676047401432656E9, 0.0, 2023-02-10 11:43:21.432
82.0, 4216.45542579358, 187500.0, 187500.0, 187500.0, -187500.02235174447, 187500.0, -187500.02235174447, -187500.02235174447, -0.03, 0.032, 1.006, 192.0, 0.0, 0.0, 0.0, 0.0, 0.0, 0.0, 0.0, 0.0, 0.0, 1.676047401439305E9, 0.0, 2023-02-10 11:43:21.439
83.0, 4220.299925839892, 187500.0, 187500.0, 187500.0, -187500.02235174447, 187500.0, -187500.02235174447, -187500.02235174447, -0.03, 0.032, 1.006, 192.0, 0.0, 0.0, 0.0, 0.0, 0.0, 0.0, 0.0, 0.0, 0.0, 1.676047401439336E9, 0.0, 2023-02-10 11:43:21.439
84.0, 4221.775140973943, 187500.0, 187500.0, 187500.0, -187500.02235174447, 187500.0, -187500.02235174447, -187500.02235174447, -0.03, 0.032, 1.006, 192.0, 0.0, 0.0, 0.0, 0.0, 0.0, 0.0, 0.0, 0.0, 0.0, 1.67604740144728E9, 0.0, 2023-02-10 11:43:21.447
85.0, 4221.372809573747, 187500.0, 187500.0, 187500.0, -187500.02235174447, 187500.0, -187500.02235174447, -187500.02235174447, -0.022, 0.034, 0.998, 192.0, 255.0, 80.0, 1.0, 16.0, 31.0, 48.0, 0.0, 0.0, 0.0, 1.676047401454449E9, 0.0, 2023-02-10 11:43:21.454
86.0, 4230.537024800423, 187500.0, 187500.0, 187500.0, -187500.02235174447, 187500.0, -187500.02235174447, -187500.02235174447, -0.022, 0.034, 0.998, 192.0, 0.0, 0.0, 0.0, 0.0, 0.0, 0.0, 0.0, 0.0, 0.0, 1.676047401454475E9, 0.0, 2023-02-10 11:43:21.454
87.0, 4282.683644614654, 187500.0, 187500.0, 187500.0, -187500.02235174447, 187500.0, -187500.02235174447, -187500.02235174447, -0.022, 0.034, 0.998, 192.0, 0.0, 0.0, 0.0, 0.0, 0.0, 0.0, 0.0, 0.0, 0.0, 1.676047401461748E9, 0.0, 2023-02-10 11:43:21.461
88.0, 4296.1840982656595, 187500.0, 187500.0, 187500.0, -187500.02235174447, 187500.0, -187500.02235174447, -187500.02235174447, -0.022, 0.034, 0.998, 192.0, 0.0, 0.0, 0.0, 0.0, 0.0, 0.0, 0.0, 0.0, 0.0, 1.67604740146177E9, 0.0, 2023-02-10 11:43:21.461
89.0, 4300.699150645632, 187500.0, 187500.0, 187500.0, -187500.02235174447, 187500.0, -187500.02235174447, -187500.02235174447, -0.022, 0.034, 0.998, 192.0, 0.0, 0.0, 0.0, 0.0, 0.0, 0.0, 0.0, 0.0, 0.0, 1.676047401469779E9, 0.0, 2023-02-10 11:43:21.469
90.0, 4172.221323516527, 187500.0, 187500.0, 187500.0, -187500.02235174447, 187500.0, -187500.02235174447, -187500.02235174447, -0.022, 0.034, 0.998, 192.0, 0.0, 0.0, 0.0, 0.0, 0.0, 0.0, 0.0, 0.0, 0.0, 1.676047401469799E9, 0.0, 2023-02-10 11:43:21.469
91.0, 4124.477997359991, 187500.0, 187500.0, 187500.0, -187500.02235174447, 187500.0, -187500.02235174447, -187500.02235174447, -0.022, 0.034, 0.998, 192.0, 0.0, 0.0, 0.0, 0.0, 0.0, 0.0, 0.0, 0.0, 0.0, 1.676047401477801E9, 0.0, 2023-02-10 11:43:21.477
92.0, 4209.302867567882, 187500.0, 187500.0, 187500.0, -187500.02235174447, 187500.0, -187500.02235174447, -187500.02235174447, -0.022, 0.034, 0.998, 192.0, 0.0, 0.0, 0.0, 0.0, 0.0, 0.0, 0.0, 0.0, 0.0, 1.676047401477824E9, 0.0, 2023-02-10 11:43:21.477
93.0, 4343.011002899529, 187500.0, 187500.0, 187500.0, -187500.02235174447, 187500.0, -187500.02235174447, -187500.02235174447, -0.022, 0.034, 0.998, 192.0, 0.0, 0.0, 0.0, 0.0, 0.0, 0.0, 0.0, 0.0, 0.0, 1.676047401484344E9, 0.0, 2023-02-10 11:43:21.484
94.0, 4228.391257332713, 187500.0, 187500.0, 187500.0, -187500.02235174447, 187500.0, -187500.02235174447, -187500.02235174447, -0.022, 0.034, 0.998, 192.0, 0.0, 0.0, 0.0, 0.0, 0.0, 0.0, 0.0, 0.0, 0.0, 1.676047401484365E9, 0.0, 2023-02-10 11:43:21.484
95.0, 4152.462381418036, 187500.0, 187500.0, 187500.0, -187500.02235174447, 187500.0, -187500.02235174447, -187500.02235174447, -0.026000000000000002, 0.032, 0.998, 192.0, 255.0, 48.0, 1.0, 0.0, 31.0, 48.0, 0.0, 0.0, 0.0, 1.676047401492415E9, 0.0, 2023-02-10 11:43:21.492
96.0, 4141.733544079488, 187500.0, 187500.0, 187500.0, -187500.02235174447, 187500.0, -187500.02235174447, -187500.02235174447, -0.026000000000000002, 0.032, 0.998, 192.0, 0.0, 0.0, 0.0, 0.0, 0.0, 0.0, 0.0, 0.0, 0.0, 1.676047401492436E9, 0.0, 2023-02-10 11:43:21.492
97.0, 4232.571033545856, 187500.0, 187500.0, 187500.0, -187500.02235174447, 187500.0, -187500.02235174447, -187500.02235174447, -0.026000000000000002, 0.032, 0.998, 192.0, 0.0, 0.0, 0.0, 0.0, 0.0, 0.0, 0.0, 0.0, 0.0, 1.67604740150034E9, 0.0, 2023-02-10 11:43:21.500
98.0, 4200.563335485856, 187500.0, 187500.0, 187500.0, -187500.02235174447, 187500.0, -187500.02235174447, -187500.02235174447, -0.026000000000000002, 0.032, 0.998, 192.0, 0.0, 0.0, 0.0, 0.0, 0.0, 0.0, 0.0, 0.0, 0.0, 1.676047401500358E9, 0.0, 2023-02-10 11:43:21.500
99.0, 4243.456333095591, 187500.0, 187500.0, 187500.0, -187500.02235174447, 187500.0, -187500.02235174447, -187500.02235174447, -0.026000000000000002, 0.032, 0.998, 192.0, 0.0, 0.0, 0.0, 0.0, 0.0, 0.0, 0.0, 0.0, 0.0, 1.67604740150651E9, 0.0, 2023-02-10 11:43:21.506
100.0, 4267.8867897852415, 187500.0, 187500.0, 187500.0, -187500.02235174447, 187500.0, -187500.02235174447, -187500.02235174447, -0.026000000000000002, 0.032, 0.998, 192.0, 0.0, 0.0, 0.0, 0.0, 0.0, 0.0, 0.0, 0.0, 0.0, 1.67604740151534E9, 0.0, 2023-02-10 11:43:21.515
101.0, 4275.329920688859, 187500.0, 187500.0, 187500.0, -187500.02235174447, 187500.0, -187500.02235174447, -187500.02235174447, -0.026000000000000002, 0.032, 0.998, 192.0, 0.0, 0.0, 0.0, 0.0, 0.0, 0.0, 0.0, 0.0, 0.0, 1.676047401515363E9, 0.0, 2023-02-10 11:43:21.515
102.0, 4162.408907700647, 187500.0, 187500.0, 187500.0, -187500.02235174447, 187500.0, -187500.02235174447, -187500.02235174447, -0.026000000000000002, 0.032, 0.998, 192.0, 0.0, 0.0, 0.0, 0.0, 0.0, 0.0, 0.0, 0.0, 0.0, 1.676047401522414E9, 0.0, 2023-02-10 11:43:21.522
103.0, 4081.294427072338, 187500.0, 187500.0, 187500.0, -187500.02235174447, 187500.0, -187500.02235174447, -187500.02235174447, -0.026000000000000002, 0.032, 0.998, 192.0, 0.0, 0.0, 0.0, 0.0, 0.0, 0.0, 0.0, 0.0, 0.0, 1.67604740152248E9, 0.0, 2023-02-10 11:43:21.522
104.0, 4141.331212679293, 187500.0, 187500.0, 187500.0, -187500.02235174447, 187500.0, -187500.02235174447, -187500.02235174447, -0.026000000000000002, 0.032, 0.998, 192.0, 0.0, 0.0, 0.0, 0.0, 0.0, 0.0, 0.0, 0.0, 0.0, 1.676047401531759E9, 0.0, 2023-02-10 11:43:21.531
105.0, 4183.978341100018, 187500.0, 187500.0, 187500.0, -187500.02235174447, 187500.0, -187500.02235174447, -187500.02235174447, -0.024, 0.03, 1.0, 192.0, 255.0, 64.0, 0.0, 240.0, 31.0, 64.0, 0.0, 0.0, 0.0, 1.67604740153182E9, 0.0, 2023-02-10 11:43:21.531
106.0, 4174.7917741288875, 187500.0, 187500.0, 187500.0, -187500.02235174447, 187500.0, -187500.02235174447, -187500.02235174447, -0.024, 0.03, 1.0, 192.0, 0.0, 0.0, 0.0, 0.0, 0.0, 0.0, 0.0, 0.0, 0.0, 1.676047401537691E9, 0.0, 2023-02-10 11:43:21.537
107.0, 4107.401264596137, 187500.0, 187500.0, 187500.0, -187500.02235174447, 187500.0, -187500.02235174447, -187500.02235174447, -0.024, 0.03, 1.0, 192.0, 0.0, 0.0, 0.0, 0.0, 0.0, 0.0, 0.0, 0.0, 0.0, 1.676047401537712E9, 0.0, 2023-02-10 11:43:21.537
108.0, 4141.286509190382, 187500.0, 187500.0, 187500.0, -187500.02235174447, 187500.0, -187500.02235174447, -187500.02235174447, -0.024, 0.03, 1.0, 192.0, 0.0, 0.0, 0.0, 0.0, 0.0, 0.0, 0.0, 0.0, 0.0, 1.676047401544763E9, 0.0, 2023-02-10 11:43:21.544
109.0, 4243.992774962518, 187500.0, 187500.0, 187500.0, -187500.02235174447, 187500.0, -187500.02235174447, -187500.02235174447, -0.024, 0.03, 1.0, 192.0, 0.0, 0.0, 0.0, 0.0, 0.0, 0.0, 0.0, 0.0, 0.0, 1.676047401544789E9, 0.0, 2023-02-10 11:43:21.544
110.0, 4168.287416492393, 187500.0, 187500.0, 187500.0, -187500.02235174447, 187500.0, -187500.02235174447, -187500.02235174447, -0.024, 0.03, 1.0, 192.0, 0.0, 0.0, 0.0, 0.0, 0.0, 0.0, 0.0, 0.0, 0.0, 1.676047401552716E9, 0.0, 2023-02-10 11:43:21.552
111.0, 4075.393566536137, 187500.0, 187500.0, 187500.0, -187500.02235174447, 187500.0, -187500.02235174447, -187500.02235174447, -0.024, 0.03, 1.0, 192.0, 0.0, 0.0, 0.0, 0.0, 0.0, 0.0, 0.0, 0.0, 0.0, 1.67604740155274E9, 0.0, 2023-02-10 11:43:21.552
112.0, 4090.6598079991113, 187500.0, 187500.0, 187500.0, -187500.02235174447, 187500.0, -187500.02235174447, -187500.02235174447, -0.024, 0.03, 1.0, 192.0, 0.0, 0.0, 0.0, 0.0, 0.0, 0.0, 0.0, 0.0, 0.0, 1.676047401559731E9, 0.0, 2023-02-10 11:43:21.559
113.0, 4126.154378194139, 187500.0, 187500.0, 187500.0, -187500.02235174447, 187500.0, -187500.02235174447, -187500.02235174447, -0.024, 0.03, 1.0, 192.0, 0.0, 0.0, 0.0, 0.0, 0.0, 0.0, 0.0, 0.0, 0.0, 1.676047401559757E9, 0.0, 2023-02-10 11:43:21.559
114.0, 4098.348808091737, 187500.0, 187500.0, 187500.0, -187500.02235174447, 187500.0, -187500.02235174447, -187500.02235174447, -0.024, 0.03, 1.0, 192.0, 0.0, 0.0, 0.0, 0.0, 0.0, 0.0, 0.0, 0.0, 0.0, 1.676047401566226E9, 0.0, 2023-02-10 11:43:21.566
115.0, 4004.5608883572686, 187500.0, 187500.0, 187500.0, -187500.02235174447, 187500.0, -187500.02235174447, -187500.02235174447, -0.024, 0.032, 0.998, 192.0, 255.0, 64.0, 1.0, 0.0, 31.0, 48.0, 0.0, 0.0, 0.0, 1.67604740157432E9, 0.0, 2023-02-10 11:43:21.574
116.0, 4089.162241120606, 187500.0, 187500.0, 187500.0, -187500.02235174447, 187500.0, -187500.02235174447, -187500.02235174447, -0.024, 0.032, 0.998, 192.0, 0.0, 0.0, 0.0, 0.0, 0.0, 0.0, 0.0, 0.0, 0.0, 1.676047401574343E9, 0.0, 2023-02-10 11:43:21.574
117.0, 4181.87727712122, 187500.0, 187500.0, 187500.0, -187500.02235174447, 187500.0, -187500.02235174447, -187500.02235174447, -0.024, 0.032, 0.998, 192.0, 0.0, 0.0, 0.0, 0.0, 0.0, 0.0, 0.0, 0.0, 0.0, 1.676047401582347E9, 0.0, 2023-02-10 11:43:21.582
118.0, 4194.327198782826, 187500.0, 187500.0, 187500.0, -187500.02235174447, 187500.0, -187500.02235174447, -187500.02235174447, -0.024, 0.032, 0.998, 192.0, 0.0, 0.0, 0.0, 0.0, 0.0, 0.0, 0.0, 0.0, 0.0, 1.676047401582368E9, 0.0, 2023-02-10 11:43:21.582
119.0, 4093.7443487339438, 187500.0, 187500.0, 187500.0, -187500.02235174447, 187500.0, -187500.02235174447, -187500.02235174447, -0.024, 0.032, 0.998, 192.0, 0.0, 0.0, 0.0, 0.0, 0.0, 0.0, 0.0, 0.0, 0.0, 1.67604740159094E9, 0.0, 2023-02-10 11:43:21.590
120.0, 4046.5374644443355, 187500.0, 187500.0, 187500.0, -187500.02235174447, 187500.0, -187500.02235174447, -187500.02235174447, -0.024, 0.032, 0.998, 192.0, 0.0, 0.0, 0.0, 0.0, 0.0, 0.0, 0.0, 0.0, 0.0, 1.676047401591014E9, 0.0, 2023-02-10 11:43:21.591
121.0, 4107.71418901851, 187500.0, 187500.0, 187500.0, -187500.02235174447, 187500.0, -187500.02235174447, -187500.02235174447, -0.024, 0.032, 0.998, 192.0, 0.0, 0.0, 0.0, 0.0, 0.0, 0.0, 0.0, 0.0, 0.0, 1.676047401597006E9, 0.0, 2023-02-10 11:43:21.597
122.0, 4082.479069528469, 187500.0, 187500.0, 187500.0, -187500.02235174447, 187500.0, -187500.02235174447, -187500.02235174447, -0.024, 0.032, 0.998, 192.0, 0.0, 0.0, 0.0, 0.0, 0.0, 0.0, 0.0, 0.0, 0.0, 1.676047401597038E9, 0.0, 2023-02-10 11:43:21.597
123.0, 3987.6182660601457, 187500.0, 187500.0, 187500.0, -187500.02235174447, 187500.0, -187500.02235174447, -187500.02235174447, -0.024, 0.032, 0.998, 192.0, 0.0, 0.0, 0.0, 0.0, 0.0, 0.0, 0.0, 0.0, 0.0, 1.676047401605452E9, 0.0, 2023-02-10 11:43:21.605
124.0, 4040.3907347191257, 187500.0, 187500.0, 187500.0, -187500.02235174447, 187500.0, -187500.02235174447, -187500.02235174447, -0.024, 0.032, 0.998, 192.0, 0.0, 0.0, 0.0, 0.0, 0.0, 0.0, 0.0, 0.0, 0.0, 1.676047401605485E9, 0.0, 2023-02-10 11:43:21.605
125.0, 4072.733708945955, 187500.0, 187500.0, 187500.0, -187500.02235174447, 187500.0, -187500.02235174447, -187500.02235174447, -0.026000000000000002, 0.03, 1.002, 192.0, 255.0, 48.0, 0.0, 240.0, 31.0, 80.0, 0.0, 0.0, 0.0, 1.676047401612929E9, 0.0, 2023-02-10 11:43:21.612
126.0, 4102.215659882505, 187500.0, 187500.0, 187500.0, -187500.02235174447, 187500.0, -187500.02235174447, -187500.02235174447, -0.026000000000000002, 0.03, 1.002, 192.0, 0.0, 0.0, 0.0, 0.0, 0.0, 0.0, 0.0, 0.0, 0.0, 1.676047401612952E9, 0.0, 2023-02-10 11:43:21.612
127.0, 4034.8475020942096, 187500.0, 187500.0, 187500.0, -187500.02235174447, 187500.0, -187500.02235174447, -187500.02235174447, -0.026000000000000002, 0.03, 1.002, 192.0, 0.0, 0.0, 0.0, 0.0, 0.0, 0.0, 0.0, 0.0, 0.0, 1.676047401619529E9, 0.0, 2023-02-10 11:43:21.619
128.0, 4013.836862306221, 187500.0, 187500.0, 187500.0, -187500.02235174447, 187500.0, -187500.02235174447, -187500.02235174447, -0.026000000000000002, 0.03, 1.002, 192.0, 0.0, 0.0, 0.0, 0.0, 0.0, 0.0, 0.0, 0.0, 0.0, 1.67604740161955E9, 0.0, 2023-02-10 11:43:21.619
129.0, 4072.0184531233854, 187500.0, 187500.0, 187500.0, -187500.02235174447, 187500.0, -187500.02235174447, -187500.02235174447, -0.026000000000000002, 0.03, 1.002, 192.0, 0.0, 0.0, 0.0, 0.0, 0.0, 0.0, 0.0, 0.0, 0.0, 1.676047401626562E9, 0.0, 2023-02-10 11:43:21.626
130.0, 4075.9076566586086, 187500.0, 187500.0, 187500.0, -187500.02235174447, 187500.0, -187500.02235174447, -187500.02235174447, -0.026000000000000002, 0.03, 1.002, 192.0, 0.0, 0.0, 0.0, 0.0, 0.0, 0.0, 0.0, 0.0, 0.0, 1.676047401634814E9, 0.0, 2023-02-10 11:43:21.634
131.0, 4052.281862769349, 187500.0, 187500.0, 187500.0, -187500.02235174447, 187500.0, -187500.02235174447, -187500.02235174447, -0.026000000000000002, 0.03, 1.002, 192.0, 0.0, 0.0, 0.0, 0.0, 0.0, 0.0, 0.0, 0.0, 0.0, 1.676047401634839E9, 0.0, 2023-02-10 11:43:21.634
132.0, 3988.154707927073, 187500.0, 187500.0, 187500.0, -187500.02235174447, 187500.0, -187500.02235174447, -187500.02235174447, -0.026000000000000002, 0.03, 1.002, 192.0, 0.0, 0.0, 0.0, 0.0, 0.0, 0.0, 0.0, 0.0, 0.0, 1.676047401642621E9, 0.0, 2023-02-10 11:43:21.642
133.0, 4029.125455513651, 187500.0, 187500.0, 187500.0, -187500.02235174447, 187500.0, -187500.02235174447, -187500.02235174447, -0.026000000000000002, 0.03, 1.002, 192.0, 0.0, 0.0, 0.0, 0.0, 0.0, 0.0, 0.0, 0.0, 0.0, 1.676047401642727E9, 0.0, 2023-02-10 11:43:21.642
134.0, 4080.4897642719466, 187500.0, 187500.0, 187500.0, -187500.02235174447, 187500.0, -187500.02235174447, -187500.02235174447, -0.026000000000000002, 0.03, 1.002, 192.0, 0.0, 0.0, 0.0, 0.0, 0.0, 0.0, 0.0, 0.0, 0.0, 1.676047401649036E9, 0.0, 2023-02-10 11:43:21.649
135.0, 4041.4636184529804, 187500.0, 187500.0, 187500.0, -187500.02235174447, 187500.0, -187500.02235174447, -187500.02235174447, -0.026000000000000002, 0.028, 1.0, 192.0, 255.0, 48.0, 0.0, 224.0, 31.0, 64.0, 0.0, 0.0, 0.0, 1.676047401649053E9, 0.0, 2023-02-10 11:43:21.649
136.0, 3978.699920022478, 187500.0, 187500.0, 187500.0, -187500.02235174447, 187500.0, -187500.02235174447, -187500.02235174447, -0.026000000000000002, 0.028, 1.0, 192.0, 0.0, 0.0, 0.0, 0.0, 0.0, 0.0, 0.0, 0.0, 0.0, 1.676047401657161E9, 0.0, 2023-02-10 11:43:21.657
137.0, 3960.170323869029, 187500.0, 187500.0, 187500.0, -187500.02235174447, 187500.0, -187500.02235174447, -187500.02235174447, -0.026000000000000002, 0.028, 1.0, 192.0, 0.0, 0.0, 0.0, 0.0, 0.0, 0.0, 0.0, 0.0, 0.0, 1.676047401657179E9, 0.0, 2023-02-10 11:43:21.657
138.0, 3911.711741889923, 187500.0, 187500.0, 187500.0, -187500.02235174447, 187500.0, -187500.02235174447, -187500.02235174447, -0.026000000000000002, 0.028, 1.0, 192.0, 0.0, 0.0, 0.0, 0.0, 0.0, 0.0, 0.0, 0.0, 0.0, 1.676047401665216E9, 0.0, 2023-02-10 11:43:21.665
139.0, 3943.7641434388333, 187500.0, 187500.0, 187500.0, -187500.02235174447, 187500.0, -187500.02235174447, -187500.02235174447, -0.026000000000000002, 0.028, 1.0, 192.0, 0.0, 0.0, 0.0, 0.0, 0.0, 0.0, 0.0, 0.0, 0.0, 1.676047401665238E9, 0.0, 2023-02-10 11:43:21.665
140.0, 4022.330525199238, 187500.0, 187500.0, 187500.0, -187500.02235174447, 187500.0, -187500.02235174447, -187500.02235174447, -0.026000000000000002, 0.028, 1.0, 192.0, 0.0, 0.0, 0.0, 0.0, 0.0, 0.0, 0.0, 0.0, 0.0, 1.676047401673336E9, 0.0, 2023-02-10 11:43:21.673
141.0, 3958.9186261795317, 187500.0, 187500.0, 187500.0, -187500.02235174447, 187500.0, -187500.02235174447, -187500.02235174447, -0.026000000000000002, 0.028, 1.0, 192.0, 0.0, 0.0, 0.0, 0.0, 0.0, 0.0, 0.0, 0.0, 0.0, 1.676047401673366E9, 0.0, 2023-02-10 11:43:21.673
142.0, 4008.874775037143, 187500.0, 187500.0, 187500.0, -187500.02235174447, 187500.0, -187500.02235174447, -187500.02235174447, -0.026000000000000002, 0.028, 1.0, 192.0, 0.0, 0.0, 0.0, 0.0, 0.0, 0.0, 0.0, 0.0, 0.0, 1.676047401679941E9, 0.0, 2023-02-10 11:43:21.679
143.0, 3976.5988560436795, 187500.0, 187500.0, 187500.0, -187500.02235174447, 187500.0, -187500.02235174447, -187500.02235174447, -0.026000000000000002, 0.028, 1.0, 192.0, 0.0, 0.0, 0.0, 0.0, 0.0, 0.0, 0.0, 0.0, 0.0, 1.676047401679969E9, 0.0, 2023-02-10 11:43:21.679
144.0, 3926.9556316084427, 187500.0, 187500.0, 187500.0, -187500.02235174447, 187500.0, -187500.02235174447, -187500.02235174447, -0.026000000000000002, 0.024, 0.998, 192.0, 255.0, 48.0, 0.0, 192.0, 31.0, 48.0, 0.0, 0.0, 0.0, 1.67604740168693E9, 0.0, 2023-02-10 11:43:21.686
145.0, 3922.261765272828, 187500.0, 187500.0, 187500.0, -187500.02235174447, 187500.0, -187500.02235174447, -187500.02235174447, -0.026000000000000002, 0.024, 0.998, 192.0, 0.0, 0.0, 0.0, 0.0, 0.0, 0.0, 0.0, 0.0, 0.0, 1.676047401686951E9, 0.0, 2023-02-10 11:43:21.686
146.0, 3972.486135063903, 187500.0, 187500.0, 187500.0, -187500.02235174447, 187500.0, -187500.02235174447, -187500.02235174447, -0.026000000000000002, 0.024, 0.998, 192.0, 0.0, 0.0, 0.0, 0.0, 0.0, 0.0, 0.0, 0.0, 0.0, 1.676047401694893E9, 0.0, 2023-02-10 11:43:21.694
147.0, 3984.913704981054, 187500.0, 187500.0, 187500.0, -187500.02235174447, 187500.0, -187500.02235174447, -187500.02235174447, -0.026000000000000002, 0.024, 0.998, 192.0, 0.0, 0.0, 0.0, 0.0, 0.0, 0.0, 0.0, 0.0, 0.0, 1.6760474017015E9, 0.0, 2023-02-10 11:43:21.701
148.0, 3949.620300486124, 187500.0, 187500.0, 187500.0, -187500.02235174447, 187500.0, -187500.02235174447, -187500.02235174447, -0.026000000000000002, 0.024, 0.998, 192.0, 0.0, 0.0, 0.0, 0.0, 0.0, 0.0, 0.0, 0.0, 0.0, 1.676047401701637E9, 0.0, 2023-02-10 11:43:21.701
149.0, 3877.334758917661, 187500.0, 187500.0, 187500.0, -187500.02235174447, 187500.0, -187500.02235174447, -187500.02235174447, -0.026000000000000002, 0.024, 0.998, 192.0, 0.0, 0.0, 0.0, 0.0, 0.0, 0.0, 0.0, 0.0, 0.0, 1.676047401709731E9, 0.0, 2023-02-10 11:43:21.709
150.0, 3931.2695182883167, 187500.0, 187500.0, 187500.0, -187500.02235174447, 187500.0, -187500.02235174447, -187500.02235174447, -0.026000000000000002, 0.024, 0.998, 192.0, 0.0, 0.0, 0.0, 0.0, 0.0, 0.0, 0.0, 0.0, 0.0, 1.676047401709765E9, 0.0, 2023-02-10 11:43:21.709
151.0, 3984.556077069769, 187500.0, 187500.0, 187500.0, -187500.02235174447, 187500.0, -187500.02235174447, -187500.02235174447, -0.026000000000000002, 0.024, 0.998, 192.0, 0.0, 0.0, 0.0, 0.0, 0.0, 0.0, 0.0, 0.0, 0.0, 1.676047401717686E9, 0.0, 2023-02-10 11:43:21.717
152.0, 3890.00819802382, 187500.0, 187500.0, 187500.0, -187500.02235174447, 187500.0, -187500.02235174447, -187500.02235174447, -0.026000000000000002, 0.024, 0.998, 192.0, 0.0, 0.0, 0.0, 0.0, 0.0, 0.0, 0.0, 0.0, 0.0, 1.67604740171776E9, 0.0, 2023-02-10 11:43:21.717
153.0, 3833.771208974267, 187500.0, 187500.0, 187500.0, -187500.02235174447, 187500.0, -187500.02235174447, -187500.02235174447, -0.026000000000000002, 0.024, 0.998, 192.0, 0.0, 0.0, 0.0, 0.0, 0.0, 0.0, 0.0, 0.0, 0.0, 1.676047401724568E9, 0.0, 2023-02-10 11:43:21.724
154.0, 3894.031512025775, 187500.0, 187500.0, 187500.0, -187500.02235174447, 187500.0, -187500.02235174447, -187500.02235174447, -0.028, 0.024, 1.002, 192.0, 255.0, 32.0, 0.0, 192.0, 31.0, 80.0, 0.0, 0.0, 0.0, 1.676047401724593E9, 0.0, 2023-02-10 11:43:21.724
155.0, 3931.738904921878, 187500.0, 187500.0, 187500.0, -187500.02235174447, 187500.0, -187500.02235174447, -187500.02235174447, -0.028, 0.024, 1.002, 192.0, 0.0, 0.0, 0.0, 0.0, 0.0, 0.0, 0.0, 0.0, 0.0, 1.676047401732133E9, 0.0, 2023-02-10 11:43:21.732
156.0, 3943.205349827451, 187500.0, 187500.0, 187500.0, -187500.02235174447, 187500.0, -187500.02235174447, -187500.02235174447, -0.028, 0.024, 1.002, 192.0, 0.0, 0.0, 0.0, 0.0, 0.0, 0.0, 0.0, 0.0, 0.0, 1.676047401732158E9, 0.0, 2023-02-10 11:43:21.732
157.0, 3831.111351384086, 187500.0, 187500.0, 187500.0, -187500.02235174447, 187500.0, -187500.02235174447, -187500.02235174447, -0.028, 0.024, 1.002, 192.0, 0.0, 0.0, 0.0, 0.0, 0.0, 0.0, 0.0, 0.0, 0.0, 1.676047401740182E9, 0.0, 2023-02-10 11:43:21.740
158.0, 3827.8703484380662, 187500.0, 187500.0, 187500.0, -187500.02235174447, 187500.0, -187500.02235174447, -187500.02235174447, -0.028, 0.024, 1.002, 192.0, 0.0, 0.0, 0.0, 0.0, 0.0, 0.0, 0.0, 0.0, 0.0, 1.67604740174021E9, 0.0, 2023-02-10 11:43:21.740
159.0, 3914.4163029690153, 187500.0, 187500.0, 187500.0, -187500.02235174447, 187500.0, -187500.02235174447, -187500.02235174447, -0.028, 0.024, 1.002, 192.0, 0.0, 0.0, 0.0, 0.0, 0.0, 0.0, 0.0, 0.0, 0.0, 1.676047401748112E9, 0.0, 2023-02-10 11:43:21.748
160.0, 3883.1015089871303, 187500.0, 187500.0, 187500.0, -187500.02235174447, 187500.0, -187500.02235174447, -187500.02235174447, -0.028, 0.024, 1.002, 192.0, 0.0, 0.0, 0.0, 0.0, 0.0, 0.0, 0.0, 0.0, 0.0, 1.676047401748135E9, 0.0, 2023-02-10 11:43:21.748
161.0, 3835.984031675343, 187500.0, 187500.0, 187500.0, -187500.02235174447, 187500.0, -187500.02235174447, -187500.02235174447, -0.028, 0.024, 1.002, 192.0, 0.0, 0.0, 0.0, 0.0, 0.0, 0.0, 0.0, 0.0, 0.0, 1.676047401754089E9, 0.0, 2023-02-10 11:43:21.754
162.0, 3880.709872330412, 187500.0, 187500.0, 187500.0, -187500.02235174447, 187500.0, -187500.02235174447, -187500.02235174447, -0.028, 0.024, 1.002, 192.0, 0.0, 0.0, 0.0, 0.0, 0.0, 0.0, 0.0, 0.0, 0.0, 1.676047401761877E9, 0.0, 2023-02-10 11:43:21.761
163.0, 3931.1801113104957, 187500.0, 187500.0, 187500.0, -187500.02235174447, 187500.0, -187500.02235174447, -187500.02235174447, -0.028, 0.024, 1.002, 192.0, 0.0, 0.0, 0.0, 0.0, 0.0, 0.0, 0.0, 0.0, 0.0, 1.676047401762244E9, 0.0, 2023-02-10 11:43:21.762
164.0, 3893.383311436571, 187500.0, 187500.0, 187500.0, -187500.02235174447, 187500.0, -187500.02235174447, -187500.02235174447, -0.024, 0.03, 0.994, 192.0, 255.0, 64.0, 0.0, 240.0, 31.0, 16.0, 0.0, 0.0, 0.0, 1.676047401769774E9, 0.0, 2023-02-10 11:43:21.769
165.0, 3792.040502076209, 187500.0, 187500.0, 187500.0, -187500.02235174447, 187500.0, -187500.02235174447, -187500.02235174447, -0.024, 0.03, 0.994, 192.0, 0.0, 0.0, 0.0, 0.0, 0.0, 0.0, 0.0, 0.0, 0.0, 1.676047401769797E9, 0.0, 2023-02-10 11:43:21.769
166.0, 3822.32711581315, 187500.0, 187500.0, 187500.0, -187500.02235174447, 187500.0, -187500.02235174447, -187500.02235174447, -0.024, 0.03, 0.994, 192.0, 0.0, 0.0, 0.0, 0.0, 0.0, 0.0, 0.0, 0.0, 0.0, 1.676047401779318E9, 0.0, 2023-02-10 11:43:21.779
167.0, 3850.8032382492115, 187500.0, 187500.0, 187500.0, -187500.02235174447, 187500.0, -187500.02235174447, -187500.02235174447, -0.024, 0.03, 0.994, 192.0, 0.0, 0.0, 0.0, 0.0, 0.0, 0.0, 0.0, 0.0, 0.0, 1.676047401779342E9, 0.0, 2023-02-10 11:43:21.779
168.0, 3845.751744002312, 187500.0, 187500.0, 187500.0, -187500.02235174447, 187500.0, -187500.02235174447, -187500.02235174447, -0.024, 0.03, 0.994, 192.0, 0.0, 0.0, 0.0, 0.0, 0.0, 0.0, 0.0, 0.0, 0.0, 1.676047401785225E9, 0.0, 2023-02-10 11:43:21.785
169.0, 3796.1755748004407, 187500.0, 187500.0, 187500.0, -187500.02235174447, 187500.0, -187500.02235174447, -187500.02235174447, -0.024, 0.03, 0.994, 192.0, 0.0, 0.0, 0.0, 0.0, 0.0, 0.0, 0.0, 0.0, 0.0, 1.676047401785241E9, 0.0, 2023-02-10 11:43:21.785
170.0, 3727.1310361779974, 187500.0, 187500.0, 187500.0, -187500.02235174447, 187500.0, -187500.02235174447, -187500.02235174447, -0.024, 0.03, 0.994, 192.0, 0.0, 0.0, 0.0, 0.0, 0.0, 0.0, 0.0, 0.0, 0.0, 1.676047401792411E9, 0.0, 2023-02-10 11:43:21.792
171.0, 3803.2834295372286, 187500.0, 187500.0, 187500.0, -187500.02235174447, 187500.0, -187500.02235174447, -187500.02235174447, -0.024, 0.03, 0.994, 192.0, 0.0, 0.0, 0.0, 0.0, 0.0, 0.0, 0.0, 0.0, 0.0, 1.67604740179243E9, 0.0, 2023-02-10 11:43:21.792
172.0, 3794.99093234431, 187500.0, 187500.0, 187500.0, -187500.02235174447, 187500.0, -187500.02235174447, -187500.02235174447, -0.024, 0.03, 0.994, 192.0, 0.0, 0.0, 0.0, 0.0, 0.0, 0.0, 0.0, 0.0, 0.0, 1.676047401800314E9, 0.0, 2023-02-10 11:43:21.800
173.0, 3771.6780628774245, 187500.0, 187500.0, 187500.0, -187500.02235174447, 187500.0, -187500.02235174447, -187500.02235174447, -0.024, 0.03, 0.994, 192.0, 0.0, 0.0, 0.0, 0.0, 0.0, 0.0, 0.0, 0.0, 0.0, 1.676047401800332E9, 0.0, 2023-02-10 11:43:21.800
174.0, 3720.492568074771, 187500.0, 187500.0, 187500.0, -187500.02235174447, 187500.0, -187500.02235174447, -187500.02235174447, -0.024, 0.032, 0.996, 192.0, 255.0, 64.0, 1.0, 0.0, 31.0, 32.0, 0.0, 0.0, 0.0, 1.676047401806969E9, 0.0, 2023-02-10 11:43:21.806
175.0, 3826.0598571371866, 187500.0, 187500.0, 187500.0, -187500.02235174447, 187500.0, -187500.02235174447, -187500.02235174447, -0.024, 0.032, 0.996, 192.0, 0.0, 0.0, 0.0, 0.0, 0.0, 0.0, 0.0, 0.0, 0.0, 1.676047401806988E9, 0.0, 2023-02-10 11:43:21.806
176.0, 3902.2569539853284, 187500.0, 187500.0, 187500.0, -187500.02235174447, 187500.0, -187500.02235174447, -187500.02235174447, -0.024, 0.032, 0.996, 192.0, 0.0, 0.0, 0.0, 0.0, 0.0, 0.0, 0.0, 0.0, 0.0, 1.676047401814189E9, 0.0, 2023-02-10 11:43:21.814
177.0, 3820.717790212368, 187500.0, 187500.0, 187500.0, -187500.02235174447, 187500.0, -187500.02235174447, -187500.02235174447, -0.024, 0.032, 0.996, 192.0, 0.0, 0.0, 0.0, 0.0, 0.0, 0.0, 0.0, 0.0, 0.0, 1.676047401822163E9, 0.0, 2023-02-10 11:43:21.822
178.0, 3736.9434519938773, 187500.0, 187500.0, 187500.0, -187500.02235174447, 187500.0, -187500.02235174447, -187500.02235174447, -0.024, 0.032, 0.996, 192.0, 0.0, 0.0, 0.0, 0.0, 0.0, 0.0, 0.0, 0.0, 0.0, 1.676047401822284E9, 0.0, 2023-02-10 11:43:21.822
179.0, 3718.7491320072572, 187500.0, 187500.0, 187500.0, -187500.02235174447, 187500.0, -187500.02235174447, -187500.02235174447, -0.024, 0.032, 0.996, 192.0, 0.0, 0.0, 0.0, 0.0, 0.0, 0.0, 0.0, 0.0, 0.0, 1.676047401830172E9, 0.0, 2023-02-10 11:43:21.830
180.0, 3743.8724927750222, 187500.0, 187500.0, 187500.0, -187500.02235174447, 187500.0, -187500.02235174447, -187500.02235174447, -0.024, 0.032, 0.996, 192.0, 0.0, 0.0, 0.0, 0.0, 0.0, 0.0, 0.0, 0.0, 0.0, 1.676047401830195E9, 0.0, 2023-02-10 11:43:21.830
181.0, 3791.2134875313627, 187500.0, 187500.0, 187500.0, -187500.02235174447, 187500.0, -187500.02235174447, -187500.02235174447, -0.024, 0.032, 0.996, 192.0, 0.0, 0.0, 0.0, 0.0, 0.0, 0.0, 0.0, 0.0, 0.0, 1.676047401836731E9, 0.0, 2023-02-10 11:43:21.836
182.0, 3721.766617508724, 187500.0, 187500.0, 187500.0, -187500.02235174447, 187500.0, -187500.02235174447, -187500.02235174447, -0.024, 0.032, 0.996, 192.0, 0.0, 0.0, 0.0, 0.0, 0.0, 0.0, 0.0, 0.0, 0.0, 1.67604740183675E9, 0.0, 2023-02-10 11:43:21.836
183.0, 3668.3235965160843, 187500.0, 187500.0, 187500.0, -187500.02235174447, 187500.0, -187500.02235174447, -187500.02235174447, -0.024, 0.032, 0.996, 192.0, 0.0, 0.0, 0.0, 0.0, 0.0, 0.0, 0.0, 0.0, 0.0, 1.676047401844772E9, 0.0, 2023-02-10 11:43:21.844
184.0, 3776.3495774685834, 187500.0, 187500.0, 187500.0, -187500.02235174447, 187500.0, -187500.02235174447, -187500.02235174447, -0.024, 0.03, 1.004, 192.0, 255.0, 64.0, 0.0, 240.0, 31.0, 96.0, 0.0, 0.0, 0.0, 1.676047401844793E9, 0.0, 2023-02-10 11:43:21.844
185.0, 3754.4448679023826, 187500.0, 187500.0, 187500.0, -187500.02235174447, 187500.0, -187500.02235174447, -187500.02235174447, -0.024, 0.03, 1.004, 192.0, 0.0, 0.0, 0.0, 0.0, 0.0, 0.0, 0.0, 0.0, 0.0, 1.676047401852701E9, 0.0, 2023-02-10 11:43:21.852
186.0, 3669.1729628053863, 187500.0, 187500.0, 187500.0, -187500.02235174447, 187500.0, -187500.02235174447, -187500.02235174447, -0.024, 0.03, 1.004, 192.0, 0.0, 0.0, 0.0, 0.0, 0.0, 0.0, 0.0, 0.0, 0.0, 1.676047401852725E9, 0.0, 2023-02-10 11:43:21.852
187.0, 3636.5617676450934, 187500.0, 187500.0, 187500.0, -187500.02235174447, 187500.0, -187500.02235174447, -187500.02235174447, -0.024, 0.03, 1.004, 192.0, 0.0, 0.0, 0.0, 0.0, 0.0, 0.0, 0.0, 0.0, 0.0, 1.676047401859853E9, 0.0, 2023-02-10 11:43:21.859
188.0, 3734.5071118482488, 187500.0, 187500.0, 187500.0, -187500.02235174447, 187500.0, -187500.02235174447, -187500.02235174447, -0.024, 0.03, 1.004, 192.0, 0.0, 0.0, 0.0, 0.0, 0.0, 0.0, 0.0, 0.0, 0.0, 1.676047401859877E9, 0.0, 2023-02-10 11:43:21.859
189.0, 3770.8734000770332, 187500.0, 187500.0, 187500.0, -187500.02235174447, 187500.0, -187500.02235174447, -187500.02235174447, -0.024, 0.03, 1.004, 192.0, 0.0, 0.0, 0.0, 0.0, 0.0, 0.0, 0.0, 0.0, 0.0, 1.676047401867402E9, 0.0, 2023-02-10 11:43:21.867
190.0, 3757.4176499149385, 187500.0, 187500.0, 187500.0, -187500.02235174447, 187500.0, -187500.02235174447, -187500.02235174447, -0.024, 0.03, 1.004, 192.0, 0.0, 0.0, 0.0, 0.0, 0.0, 0.0, 0.0, 0.0, 0.0, 1.676047401867423E9, 0.0, 2023-02-10 11:43:21.867
191.0, 3702.3876550659725, 187500.0, 187500.0, 187500.0, -187500.02235174447, 187500.0, -187500.02235174447, -187500.02235174447, -0.024, 0.03, 1.004, 192.0, 0.0, 0.0, 0.0, 0.0, 0.0, 0.0, 0.0, 0.0, 0.0, 1.676047401874341E9, 0.0, 2023-02-10 11:43:21.874
192.0, 3701.49358528776, 187500.0, 187500.0, 187500.0, -187500.02235174447, 187500.0, -187500.02235174447, -187500.02235174447, -0.024, 0.03, 1.004, 192.0, 0.0, 0.0, 0.0, 0.0, 0.0, 0.0, 0.0, 0.0, 0.0, 1.676047401882269E9, 0.0, 2023-02-10 11:43:21.882
193.0, 3771.36513845505, 187500.0, 187500.0, 187500.0, -187500.02235174447, 187500.0, -187500.02235174447, -187500.02235174447, -0.028, 0.028, 1.002, 192.0, 255.0, 32.0, 0.0, 224.0, 31.0, 80.0, 0.0, 0.0, 0.0, 1.676047401882352E9, 0.0, 2023-02-10 11:43:21.882
194.0, 3681.667587955903, 187500.0, 187500.0, 187500.0, -187500.02235174447, 187500.0, -187500.02235174447, -187500.02235174447, -0.028, 0.028, 1.002, 192.0, 0.0, 0.0, 0.0, 0.0, 0.0, 0.0, 0.0, 0.0, 0.0, 1.676047401889495E9, 0.0, 2023-02-10 11:43:21.889
195.0, 3595.859240991979, 187500.0, 187500.0, 187500.0, -187500.02235174447, 187500.0, -187500.02235174447, -187500.02235174447, -0.028, 0.028, 1.002, 192.0, 0.0, 0.0, 0.0, 0.0, 0.0, 0.0, 0.0, 0.0, 0.0, 1.67604740188953E9, 0.0, 2023-02-10 11:43:21.889
196.0, 3648.0282125506656, 187500.0, 187500.0, 187500.0, -187500.02235174447, 187500.0, -187500.02235174447, -187500.02235174447, -0.028, 0.028, 1.002, 192.0, 0.0, 0.0, 0.0, 0.0, 0.0, 0.0, 0.0, 0.0, 0.0, 1.676047401896864E9, 0.0, 2023-02-10 11:43:21.896
197.0, 3741.4138008849386, 187500.0, 187500.0, 187500.0, -187500.02235174447, 187500.0, -187500.02235174447, -187500.02235174447, -0.028, 0.028, 1.002, 192.0, 0.0, 0.0, 0.0, 0.0, 0.0, 0.0, 0.0, 0.0, 0.0, 1.676047401896885E9, 0.0, 2023-02-10 11:43:21.896
198.0, 3702.2535445992407, 187500.0, 187500.0, 187500.0, -187500.02235174447, 187500.0, -187500.02235174447, -187500.02235174447, -0.028, 0.028, 1.002, 192.0, 0.0, 0.0, 0.0, 0.0, 0.0, 0.0, 0.0, 0.0, 0.0, 1.676047401904985E9, 0.0, 2023-02-10 11:43:21.904
199.0, 3632.9631367877887, 187500.0, 187500.0, 187500.0, -187500.02235174447, 187500.0, -187500.02235174447, -187500.02235174447, -0.028, 0.028, 1.002, 192.0, 0.0, 0.0, 0.0, 0.0, 0.0, 0.0, 0.0, 0.0, 0.0, 1.676047401905014E9, 0.0, 2023-02-10 11:43:21.905
200.0, 3626.2352617067413, 187500.0, 187500.0, 187500.0, -187500.02235174447, 187500.0, -187500.02235174447, -187500.02235174447, -0.028, 0.028, 1.002, 192.0, 0.0, 0.0, 0.0, 0.0, 0.0, 0.0, 0.0, 0.0, 0.0, 1.676047401913014E9, 0.0, 2023-02-10 11:43:21.913
201.0, 3696.665608485414, 187500.0, 187500.0, 187500.0, -187500.02235174447, 187500.0, -187500.02235174447, -187500.02235174447, -0.028, 0.028, 1.002, 192.0, 0.0, 0.0, 0.0, 0.0, 0.0, 0.0, 0.0, 0.0, 0.0, 1.676047401913038E9, 0.0, 2023-02-10 11:43:21.913
202.0, 3586.985598443222, 187500.0, 187500.0, 187500.0, -187500.02235174447, 187500.0, -187500.02235174447, -187500.02235174447, -0.028, 0.028, 1.002, 192.0, 0.0, 0.0, 0.0, 0.0, 0.0, 0.0, 0.0, 0.0, 0.0, 1.676047401919595E9, 0.0, 2023-02-10 11:43:21.919
