%OpenBCI Raw EEG Data
%Number of channels = 8
%Sample Rate = 250 Hz
%Board = OpenBCI_GUI$BoardCytonSerial
Sample Index, EXG Channel 0, EXG Channel 1, EXG Channel 2, EXG Channel 3, EXG Channel 4, EXG Channel 5, EXG Channel 6, EXG Channel 7, Accel Channel 0, Accel Channel 1, Accel Channel 2, Other, Other, Other, Other, Other, Other, Other, Analog Channel 0, Analog Channel 1, Analog Channel 2, Timestamp, Other, Timestamp (Formatted)
228.0, 8455.553168720386, 187500.0, 187500.0, 187500.0, -187500.02235174447, 187500.0, -187500.02235174447, -187500.02235174447, 0.0, 0.0, 0.0, 192.0, 0.0, 0.0, 0.0, 0.0, 0.0, 0.0, 0.0, 0.0, 0.0, 1.676047363213938E9, 0.0, 2023-02-10 11:42:43.213
229.0, 8529.693905078639, 187500.0, 187500.0, 187500.0, -187500.02235174447, 187500.0, -187500.02235174447, -187500.02235174447, 0.0, 0.0, 0.0, 192.0, 0.0, 0.0, 0.0, 0.0, 0.0, 0.0, 0.0, 0.0, 0.0, 1.676047363213958E9, 0.0, 2023-02-10 11:42:43.213
230.0, 8450.76989540695, 187500.0, 187500.0, 187500.0, -187500.02235174447, 187500.0, -187500.02235174447, -187500.02235174447, 0.0, 0.0, 0.0, 192.0, 0.0, 0.0, 0.0, 0.0, 0.0, 0.0, 0.0, 0.0, 0.0, 1.676047363213967E9, 0.0, 2023-02-10 11:42:43.213
231.0, 8390.219019677523, 187500.0, 187500.0, 187500.0, -187500.02235174447, 187500.0, -187500.02235174447, -187500.02235174447, 0.0, 0.0, 0.0, 192.0, 0.0, 0.0, 0.0, 0.0, 0.0, 0.0, 0.0, 0.0, 0.0, 1.676047363213976E9, 0.0, 2023-02-10 11:42:43.213
0.0, 0.0, 0.0, 0.0, 0.0, 0.0, 0.0, 0.0, 0.0, -0.018000000000000002, 0.036000000000000004, 1.002, 192.0, 255.0, 112.0, 1.0, 32.0, 31.0, 80.0, 0.0, 0.0, 0.0, 1.676047363297245E9, 0.0, 2023-02-10 11:42:43.297
1.0, 8178.927979341505, 187500.0, 187500.0, 187500.0, -187500.02235174447, 187500.0, -187500.02235174447, -187500.02235174447, -0.018000000000000002, 0.036000000000000004, 1.002, 192.0, 0.0, 0.0, 0.0, 0.0, 0.0, 0.0, 0.0, 0.0, 0.0, 1.676047363313431E9, 0.0, 2023-02-10 11:42:43.313
2.0, 8246.340840618712, 187500.0, 187500.0, 187500.0, -187500.02235174447, 187500.0, -187500.02235174447, -187500.02235174447, -0.018000000000000002, 0.036000000000000004, 1.002, 192.0, 0.0, 0.0, 0.0, 0.0, 0.0, 0.0, 0.0, 0.0, 0.0, 1.676047363320857E9, 0.0, 2023-02-10 11:42:43.320
3.0, 8195.021235349326, 187500.0, 187500.0, 187500.0, -187500.02235174447, 187500.0, -187500.02235174447, -187500.02235174447, -0.018000000000000002, 0.036000000000000004, 1.002, 192.0, 0.0, 0.0, 0.0, 0.0, 0.0, 0.0, 0.0, 0.0, 0.0, 1.676047363320881E9, 0.0, 2023-02-10 11:42:43.320
4.0, 8105.524850550277, 187500.0, 187500.0, 187500.0, -187500.02235174447, 187500.0, -187500.02235174447, -187500.02235174447, -0.018000000000000002, 0.036000000000000004, 1.002, 192.0, 0.0, 0.0, 0.0, 0.0, 0.0, 0.0, 0.0, 0.0, 0.0, 1.676047363327502E9, 0.0, 2023-02-10 11:42:43.327
5.0, 8121.573403069187, 187500.0, 187500.0, 187500.0, -187500.02235174447, 187500.0, -187500.02235174447, -187500.02235174447, -0.018000000000000002, 0.036000000000000004, 1.002, 192.0, 0.0, 0.0, 0.0, 0.0, 0.0, 0.0, 0.0, 0.0, 0.0, 1.676047363327532E9, 0.0, 2023-02-10 11:42:43.327
6.0, 8405.820537307327, 187500.0, 187500.0, 187500.0, -187500.02235174447, 187500.0, -187500.02235174447, -187500.02235174447, -0.018000000000000002, 0.036000000000000004, 1.002, 192.0, 0.0, 0.0, 0.0, 0.0, 0.0, 0.0, 0.0, 0.0, 0.0, 1.676047363336101E9, 0.0, 2023-02-10 11:42:43.336
7.0, 8421.220889237034, 187500.0, 187500.0, 187500.0, -187500.02235174447, 187500.0, -187500.02235174447, -187500.02235174447, -0.018000000000000002, 0.036000000000000004, 1.002, 192.0, 0.0, 0.0, 0.0, 0.0, 0.0, 0.0, 0.0, 0.0, 0.0, 1.676047363336154E9, 0.0, 2023-02-10 11:42:43.336
8.0, 8569.83763812037, 187500.0, 187500.0, 187500.0, -187500.02235174447, 187500.0, -187500.02235174447, -187500.02235174447, -0.018000000000000002, 0.032, 1.0, 192.0, 255.0, 112.0, 1.0, 0.0, 31.0, 64.0, 0.0, 0.0, 0.0, 1.676047363342727E9, 0.0, 2023-02-10 11:42:43.342
9.0, 8405.529964629408, 187500.0, 187500.0, 187500.0, -187500.02235174447, 187500.0, -187500.02235174447, -187500.02235174447, -0.018000000000000002, 0.032, 1.0, 192.0, 0.0, 0.0, 0.0, 0.0, 0.0, 0.0, 0.0, 0.0, 0.0, 1.676047363342768E9, 0.0, 2023-02-10 11:42:43.342
10.0, 8174.032947305793, 187500.0, 187500.0, 187500.0, -187500.02235174447, 187500.0, -187500.02235174447, -187500.02235174447, -0.018000000000000002, 0.032, 1.0, 192.0, 0.0, 0.0, 0.0, 0.0, 0.0, 0.0, 0.0, 0.0, 0.0, 1.676047363350857E9, 0.0, 2023-02-10 11:42:43.350
11.0, 8147.99316501536, 187500.0, 187500.0, 187500.0, -187500.02235174447, 187500.0, -187500.02235174447, -187500.02235174447, -0.018000000000000002, 0.032, 1.0, 192.0, 0.0, 0.0, 0.0, 0.0, 0.0, 0.0, 0.0, 0.0, 0.0, 1.676047363350885E9, 0.0, 2023-02-10 11:42:43.350
12.0, 8157.000918030849, 187500.0, 187500.0, 187500.0, -187500.02235174447, 187500.0, -187500.02235174447, -187500.02235174447, -0.018000000000000002, 0.032, 1.0, 192.0, 0.0, 0.0, 0.0, 0.0, 0.0, 0.0, 0.0, 0.0, 0.0, 1.676047363358993E9, 0.0, 2023-02-10 11:42:43.358
13.0, 8213.729645458418, 187500.0, 187500.0, 187500.0, -187500.02235174447, 187500.0, -187500.02235174447, -187500.02235174447, -0.018000000000000002, 0.032, 1.0, 192.0, 0.0, 0.0, 0.0, 0.0, 0.0, 0.0, 0.0, 0.0, 0.0, 1.676047363359031E9, 0.0, 2023-02-10 11:42:43.359
14.0, 8213.506128013865, 187500.0, 187500.0, 187500.0, -187500.02235174447, 187500.0, -187500.02235174447, -187500.02235174447, -0.018000000000000002, 0.032, 1.0, 192.0, 0.0, 0.0, 0.0, 0.0, 0.0, 0.0, 0.0, 0.0, 0.0, 1.676047363365089E9, 0.0, 2023-02-10 11:42:43.365
15.0, 8137.443141632455, 187500.0, 187500.0, 187500.0, -187500.02235174447, 187500.0, -187500.02235174447, -187500.02235174447, -0.018000000000000002, 0.032, 1.0, 192.0, 0.0, 0.0, 0.0, 0.0, 0.0, 0.0, 0.0, 0.0, 0.0, 1.676047363365157E9, 0.0, 2023-02-10 11:42:43.365
16.0, 8237.176625392036, 187500.0, 187500.0, 187500.0, -187500.02235174447, 187500.0, -187500.02235174447, -187500.02235174447, -0.018000000000000002, 0.032, 1.0, 192.0, 0.0, 0.0, 0.0, 0.0, 0.0, 0.0, 0.0, 0.0, 0.0, 1.676047363372242E9, 0.0, 2023-02-10 11:42:43.372
17.0, 8327.857652647215, 187500.0, 187500.0, 187500.0, -187500.02235174447, 187500.0, -187500.02235174447, -187500.02235174447, -0.028, 0.034, 1.002, 192.0, 255.0, 32.0, 1.0, 16.0, 31.0, 80.0, 0.0, 0.0, 0.0, 1.676047363380287E9, 0.0, 2023-02-10 11:42:43.380
18.0, 8328.394094514144, 187500.0, 187500.0, 187500.0, -187500.02235174447, 187500.0, -187500.02235174447, -187500.02235174447, -0.028, 0.034, 1.002, 192.0, 0.0, 0.0, 0.0, 0.0, 0.0, 0.0, 0.0, 0.0, 0.0, 1.676047363380314E9, 0.0, 2023-02-10 11:42:43.380
19.0, 8199.156308073558, 187500.0, 187500.0, 187500.0, -187500.02235174447, 187500.0, -187500.02235174447, -187500.02235174447, -0.028, 0.034, 1.002, 192.0, 0.0, 0.0, 0.0, 0.0, 0.0, 0.0, 0.0, 0.0, 0.0, 1.676047363388951E9, 0.0, 2023-02-10 11:42:43.388
20.0, 8078.903922904006, 187500.0, 187500.0, 187500.0, -187500.02235174447, 187500.0, -187500.02235174447, -187500.02235174447, -0.028, 0.034, 1.002, 192.0, 0.0, 0.0, 0.0, 0.0, 0.0, 0.0, 0.0, 0.0, 0.0, 1.676047363388987E9, 0.0, 2023-02-10 11:42:43.388
21.0, 8149.915415038517, 187500.0, 187500.0, 187500.0, -187500.02235174447, 187500.0, -187500.02235174447, -187500.02235174447, -0.028, 0.034, 1.002, 192.0, 0.0, 0.0, 0.0, 0.0, 0.0, 0.0, 0.0, 0.0, 0.0, 1.676047363395124E9, 0.0, 2023-02-10 11:42:43.395
22.0, 8172.647139149563, 187500.0, 187500.0, 187500.0, -187500.02235174447, 187500.0, -187500.02235174447, -187500.02235174447, -0.028, 0.034, 1.002, 192.0, 0.0, 0.0, 0.0, 0.0, 0.0, 0.0, 0.0, 0.0, 0.0, 1.676047363395147E9, 0.0, 2023-02-10 11:42:43.395
23.0, 8001.63394232201, 187500.0, 187500.0, 187500.0, -187500.02235174447, 187500.0, -187500.02235174447, -187500.02235174447, -0.028, 0.034, 1.002, 192.0, 0.0, 0.0, 0.0, 0.0, 0.0, 0.0, 0.0, 0.0, 0.0, 1.676047363402984E9, 0.0, 2023-02-10 11:42:43.402
24.0, 7976.711747254342, 187500.0, 187500.0, 187500.0, -187500.02235174447, 187500.0, -187500.02235174447, -187500.02235174447, -0.028, 0.034, 1.002, 192.0, 0.0, 0.0, 0.0, 0.0, 0.0, 0.0, 0.0, 0.0, 0.0, 1.676047363403008E9, 0.0, 2023-02-10 11:42:43.403
25.0, 8219.585802505708, 187500.0, 187500.0, 187500.0, -187500.02235174447, 187500.0, -187500.02235174447, -187500.02235174447, -0.028, 0.034, 1.002, 192.0, 0.0, 0.0, 0.0, 0.0, 0.0, 0.0, 0.0, 0.0, 0.0, 1.676047363411021E9, 0.0, 2023-02-10 11:42:43.411
26.0, 8487.985549925035, 187500.0, 187500.0, 187500.0, -187500.02235174447, 187500.0, -187500.02235174447, -187500.02235174447, -0.028, 0.034, 1.002, 192.0, 0.0, 0.0, 0.0, 0.0, 0.0, 0.0, 0.0, 0.0, 0.0, 1.676047363411043E9, 0.0, 2023-02-10 11:42:43.411
27.0, 8243.055134183782, 187500.0, 187500.0, 187500.0, -187500.02235174447, 187500.0, -187500.02235174447, -187500.02235174447, -0.02, 0.032, 1.004, 192.0, 255.0, 96.0, 1.0, 0.0, 31.0, 96.0, 0.0, 0.0, 0.0, 1.67604736341814E9, 0.0, 2023-02-10 11:42:43.418
28.0, 7972.710784996842, 187500.0, 187500.0, 187500.0, -187500.02235174447, 187500.0, -187500.02235174447, -187500.02235174447, -0.02, 0.032, 1.004, 192.0, 0.0, 0.0, 0.0, 0.0, 0.0, 0.0, 0.0, 0.0, 0.0, 1.676047363418163E9, 0.0, 2023-02-10 11:42:43.418
29.0, 8196.854078394661, 187500.0, 187500.0, 187500.0, -187500.02235174447, 187500.0, -187500.02235174447, -187500.02235174447, -0.02, 0.032, 1.004, 192.0, 0.0, 0.0, 0.0, 0.0, 0.0, 0.0, 0.0, 0.0, 0.0, 1.676047363425588E9, 0.0, 2023-02-10 11:42:43.425
30.0, 8012.720407571842, 187500.0, 187500.0, 187500.0, -187500.02235174447, 187500.0, -187500.02235174447, -187500.02235174447, -0.02, 0.032, 1.004, 192.0, 0.0, 0.0, 0.0, 0.0, 0.0, 0.0, 0.0, 0.0, 0.0, 1.676047363425631E9, 0.0, 2023-02-10 11:42:43.425
31.0, 8023.046913510194, 187500.0, 187500.0, 187500.0, -187500.02235174447, 187500.0, -187500.02235174447, -187500.02235174447, -0.02, 0.032, 1.004, 192.0, 0.0, 0.0, 0.0, 0.0, 0.0, 0.0, 0.0, 0.0, 0.0, 1.676047363432535E9, 0.0, 2023-02-10 11:42:43.432
32.0, 7984.1548781579595, 187500.0, 187500.0, 187500.0, -187500.02235174447, 187500.0, -187500.02235174447, -187500.02235174447, -0.02, 0.032, 1.004, 192.0, 0.0, 0.0, 0.0, 0.0, 0.0, 0.0, 0.0, 0.0, 0.0, 1.676047363440623E9, 0.0, 2023-02-10 11:42:43.440
33.0, 8023.695114099398, 187500.0, 187500.0, 187500.0, -187500.02235174447, 187500.0, -187500.02235174447, -187500.02235174447, -0.02, 0.032, 1.004, 192.0, 0.0, 0.0, 0.0, 0.0, 0.0, 0.0, 0.0, 0.0, 0.0, 1.676047363440644E9, 0.0, 2023-02-10 11:42:43.440
34.0, 8134.068028219704, 187500.0, 187500.0, 187500.0, -187500.02235174447, 187500.0, -187500.02235174447, -187500.02235174447, -0.02, 0.032, 1.004, 192.0, 0.0, 0.0, 0.0, 0.0, 0.0, 0.0, 0.0, 0.0, 0.0, 1.676047363447701E9, 0.0, 2023-02-10 11:42:43.447
35.0, 8160.644252377064, 187500.0, 187500.0, 187500.0, -187500.02235174447, 187500.0, -187500.02235174447, -187500.02235174447, -0.02, 0.032, 1.004, 192.0, 0.0, 0.0, 0.0, 0.0, 0.0, 0.0, 0.0, 0.0, 0.0, 1.676047363447722E9, 0.0, 2023-02-10 11:42:43.447
36.0, 7996.1354131860035, 187500.0, 187500.0, 187500.0, -187500.02235174447, 187500.0, -187500.02235174447, -187500.02235174447, -0.02, 0.032, 1.004, 192.0, 0.0, 0.0, 0.0, 0.0, 0.0, 0.0, 0.0, 0.0, 0.0, 1.676047363455476E9, 0.0, 2023-02-10 11:42:43.455
37.0, 7937.059752590627, 187500.0, 187500.0, 187500.0, -187500.02235174447, 187500.0, -187500.02235174447, -187500.02235174447, -0.026000000000000002, 0.026000000000000002, 1.002, 192.0, 255.0, 48.0, 0.0, 208.0, 31.0, 80.0, 0.0, 0.0, 0.0, 1.67604736345553E9, 0.0, 2023-02-10 11:42:43.455
38.0, 8234.896747457595, 187500.0, 187500.0, 187500.0, -187500.02235174447, 187500.0, -187500.02235174447, -187500.02235174447, -0.026000000000000002, 0.026000000000000002, 1.002, 192.0, 0.0, 0.0, 0.0, 0.0, 0.0, 0.0, 0.0, 0.0, 0.0, 1.676047363463332E9, 0.0, 2023-02-10 11:42:43.463
39.0, 7919.603040171032, 187500.0, 187500.0, 187500.0, -187500.02235174447, 187500.0, -187500.02235174447, -187500.02235174447, -0.026000000000000002, 0.026000000000000002, 1.002, 192.0, 0.0, 0.0, 0.0, 0.0, 0.0, 0.0, 0.0, 0.0, 0.0, 1.676047363463357E9, 0.0, 2023-02-10 11:42:43.463
40.0, 7831.380704805935, 187500.0, 187500.0, 187500.0, -187500.02235174447, 187500.0, -187500.02235174447, -187500.02235174447, -0.026000000000000002, 0.026000000000000002, 1.002, 192.0, 0.0, 0.0, 0.0, 0.0, 0.0, 0.0, 0.0, 0.0, 0.0, 1.676047363471351E9, 0.0, 2023-02-10 11:42:43.471
41.0, 7869.646891313421, 187500.0, 187500.0, 187500.0, -187500.02235174447, 187500.0, -187500.02235174447, -187500.02235174447, -0.026000000000000002, 0.026000000000000002, 1.002, 192.0, 0.0, 0.0, 0.0, 0.0, 0.0, 0.0, 0.0, 0.0, 0.0, 1.676047363471373E9, 0.0, 2023-02-10 11:42:43.471
42.0, 7942.424171259901, 187500.0, 187500.0, 187500.0, -187500.02235174447, 187500.0, -187500.02235174447, -187500.02235174447, -0.026000000000000002, 0.026000000000000002, 1.002, 192.0, 0.0, 0.0, 0.0, 0.0, 0.0, 0.0, 0.0, 0.0, 0.0, 1.676047363478306E9, 0.0, 2023-02-10 11:42:43.478
43.0, 8011.267544182247, 187500.0, 187500.0, 187500.0, -187500.02235174447, 187500.0, -187500.02235174447, -187500.02235174447, -0.026000000000000002, 0.026000000000000002, 1.002, 192.0, 0.0, 0.0, 0.0, 0.0, 0.0, 0.0, 0.0, 0.0, 0.0, 1.676047363478331E9, 0.0, 2023-02-10 11:42:43.478
44.0, 7946.648650961954, 187500.0, 187500.0, 187500.0, -187500.02235174447, 187500.0, -187500.02235174447, -187500.02235174447, -0.026000000000000002, 0.026000000000000002, 1.002, 192.0, 0.0, 0.0, 0.0, 0.0, 0.0, 0.0, 0.0, 0.0, 0.0, 1.676047363485974E9, 0.0, 2023-02-10 11:42:43.485
45.0, 7975.683567009398, 187500.0, 187500.0, 187500.0, -187500.02235174447, 187500.0, -187500.02235174447, -187500.02235174447, -0.026000000000000002, 0.026000000000000002, 1.002, 192.0, 0.0, 0.0, 0.0, 0.0, 0.0, 0.0, 0.0, 0.0, 0.0, 1.676047363485995E9, 0.0, 2023-02-10 11:42:43.485
46.0, 7919.983019826773, 187500.0, 187500.0, 187500.0, -187500.02235174447, 187500.0, -187500.02235174447, -187500.02235174447, -0.026000000000000002, 0.026000000000000002, 1.002, 192.0, 0.0, 0.0, 0.0, 0.0, 0.0, 0.0, 0.0, 0.0, 0.0, 1.67604736349299E9, 0.0, 2023-02-10 11:42:43.492
47.0, 8244.128017917636, 187500.0, 187500.0, 187500.0, -187500.02235174447, 187500.0, -187500.02235174447, -187500.02235174447, -0.026000000000000002, 0.028, 1.004, 192.0, 255.0, 48.0, 0.0, 224.0, 31.0, 96.0, 0.0, 0.0, 0.0, 1.67604736350106E9, 0.0, 2023-02-10 11:42:43.501
48.0, 7996.4259858639225, 187500.0, 187500.0, 187500.0, -187500.02235174447, 187500.0, -187500.02235174447, -187500.02235174447, -0.026000000000000002, 0.028, 1.004, 192.0, 0.0, 0.0, 0.0, 0.0, 0.0, 0.0, 0.0, 0.0, 0.0, 1.676047363501083E9, 0.0, 2023-02-10 11:42:43.501
49.0, 7692.084633360462, 187500.0, 187500.0, 187500.0, -187500.02235174447, 187500.0, -187500.02235174447, -187500.02235174447, -0.026000000000000002, 0.028, 1.004, 192.0, 0.0, 0.0, 0.0, 0.0, 0.0, 0.0, 0.0, 0.0, 0.0, 1.676047363507596E9, 0.0, 2023-02-10 11:42:43.507
50.0, 7894.636141614455, 187500.0, 187500.0, 187500.0, -187500.02235174447, 187500.0, -187500.02235174447, -187500.02235174447, -0.026000000000000002, 0.028, 1.004, 192.0, 0.0, 0.0, 0.0, 0.0, 0.0, 0.0, 0.0, 0.0, 0.0, 1.676047363507634E9, 0.0, 2023-02-10 11:42:43.507
51.0, 7904.828537086075, 187500.0, 187500.0, 187500.0, -187500.02235174447, 187500.0, -187500.02235174447, -187500.02235174447, -0.026000000000000002, 0.028, 1.004, 192.0, 0.0, 0.0, 0.0, 0.0, 0.0, 0.0, 0.0, 0.0, 0.0, 1.676047363515493E9, 0.0, 2023-02-10 11:42:43.515
52.0, 7856.548769062611, 187500.0, 187500.0, 187500.0, -187500.02235174447, 187500.0, -187500.02235174447, -187500.02235174447, -0.026000000000000002, 0.028, 1.004, 192.0, 0.0, 0.0, 0.0, 0.0, 0.0, 0.0, 0.0, 0.0, 0.0, 1.676047363515516E9, 0.0, 2023-02-10 11:42:43.515
53.0, 7784.911428083352, 187500.0, 187500.0, 187500.0, -187500.02235174447, 187500.0, -187500.02235174447, -187500.02235174447, -0.026000000000000002, 0.028, 1.004, 192.0, 0.0, 0.0, 0.0, 0.0, 0.0, 0.0, 0.0, 0.0, 0.0, 1.676047363523583E9, 0.0, 2023-02-10 11:42:43.523
54.0, 7848.569196292066, 187500.0, 187500.0, 187500.0, -187500.02235174447, 187500.0, -187500.02235174447, -187500.02235174447, -0.026000000000000002, 0.028, 1.004, 192.0, 0.0, 0.0, 0.0, 0.0, 0.0, 0.0, 0.0, 0.0, 0.0, 1.676047363523605E9, 0.0, 2023-02-10 11:42:43.523
55.0, 7884.1308217204605, 187500.0, 187500.0, 187500.0, -187500.02235174447, 187500.0, -187500.02235174447, -187500.02235174447, -0.026000000000000002, 0.028, 1.004, 192.0, 0.0, 0.0, 0.0, 0.0, 0.0, 0.0, 0.0, 0.0, 0.0, 1.676047363530308E9, 0.0, 2023-02-10 11:42:43.530
56.0, 7875.391289638435, 187500.0, 187500.0, 187500.0, -187500.02235174447, 187500.0, -187500.02235174447, -187500.02235174447, -0.026000000000000002, 0.028, 1.004, 192.0, 0.0, 0.0, 0.0, 0.0, 0.0, 0.0, 0.0, 0.0, 0.0, 1.67604736353033E9, 0.0, 2023-02-10 11:42:43.530
57.0, 7857.688708029832, 187500.0, 187500.0, 187500.0, -187500.02235174447, 187500.0, -187500.02235174447, -187500.02235174447, -0.022, 0.028, 1.008, 192.0, 255.0, 80.0, 0.0, 224.0, 31.0, 128.0, 0.0, 0.0, 0.0, 1.676047363538142E9, 0.0, 2023-02-10 11:42:43.538
58.0, 7962.049002891661, 187500.0, 187500.0, 187500.0, -187500.02235174447, 187500.0, -187500.02235174447, -187500.02235174447, -0.022, 0.028, 1.008, 192.0, 0.0, 0.0, 0.0, 0.0, 0.0, 0.0, 0.0, 0.0, 0.0, 1.676047363538164E9, 0.0, 2023-02-10 11:42:43.538
59.0, 8091.8679346880845, 187500.0, 187500.0, 187500.0, -187500.02235174447, 187500.0, -187500.02235174447, -187500.02235174447, -0.022, 0.028, 1.008, 192.0, 0.0, 0.0, 0.0, 0.0, 0.0, 0.0, 0.0, 0.0, 0.0, 1.676047363546316E9, 0.0, 2023-02-10 11:42:43.546
60.0, 7853.419524838869, 187500.0, 187500.0, 187500.0, -187500.02235174447, 187500.0, -187500.02235174447, -187500.02235174447, -0.022, 0.028, 1.008, 192.0, 0.0, 0.0, 0.0, 0.0, 0.0, 0.0, 0.0, 0.0, 0.0, 1.67604736354634E9, 0.0, 2023-02-10 11:42:43.546
61.0, 7643.156664747795, 187500.0, 187500.0, 187500.0, -187500.02235174447, 187500.0, -187500.02235174447, -187500.02235174447, -0.022, 0.028, 1.008, 192.0, 0.0, 0.0, 0.0, 0.0, 0.0, 0.0, 0.0, 0.0, 0.0, 1.676047363553354E9, 0.0, 2023-02-10 11:42:43.553
62.0, 7695.57150549549, 187500.0, 187500.0, 187500.0, -187500.02235174447, 187500.0, -187500.02235174447, -187500.02235174447, -0.022, 0.028, 1.008, 192.0, 0.0, 0.0, 0.0, 0.0, 0.0, 0.0, 0.0, 0.0, 0.0, 1.676047363559821E9, 0.0, 2023-02-10 11:42:43.559
63.0, 7784.084413538506, 187500.0, 187500.0, 187500.0, -187500.02235174447, 187500.0, -187500.02235174447, -187500.02235174447, -0.022, 0.028, 1.008, 192.0, 0.0, 0.0, 0.0, 0.0, 0.0, 0.0, 0.0, 0.0, 0.0, 1.676047363559853E9, 0.0, 2023-02-10 11:42:43.559
64.0, 7836.8792339419415, 187500.0, 187500.0, 187500.0, -187500.02235174447, 187500.0, -187500.02235174447, -187500.02235174447, -0.022, 0.028, 1.008, 192.0, 0.0, 0.0, 0.0, 0.0, 0.0, 0.0, 0.0, 0.0, 0.0, 1.67604736356779E9, 0.0, 2023-02-10 11:42:43.567
65.0, 7778.474125680224, 187500.0, 187500.0, 187500.0, -187500.02235174447, 187500.0, -187500.02235174447, -187500.02235174447, -0.022, 0.028, 1.008, 192.0, 0.0, 0.0, 0.0, 0.0, 0.0, 0.0, 0.0, 0.0, 0.0, 1.676047363567816E9, 0.0, 2023-02-10 11:42:43.567
66.0, 7717.789139484065, 187500.0, 187500.0, 187500.0, -187500.02235174447, 187500.0, -187500.02235174447, -187500.02235174447, -0.028, 0.032, 1.0, 192.0, 255.0, 32.0, 1.0, 0.0, 31.0, 64.0, 0.0, 0.0, 0.0, 1.676047363576247E9, 0.0, 2023-02-10 11:42:43.576
67.0, 7750.601500344455, 187500.0, 187500.0, 187500.0, -187500.02235174447, 187500.0, -187500.02235174447, -187500.02235174447, -0.028, 0.032, 1.0, 192.0, 0.0, 0.0, 0.0, 0.0, 0.0, 0.0, 0.0, 0.0, 0.0, 1.676047363576292E9, 0.0, 2023-02-10 11:42:43.576
68.0, 7823.69170471331, 187500.0, 187500.0, 187500.0, -187500.02235174447, 187500.0, -187500.02235174447, -187500.02235174447, -0.028, 0.032, 1.0, 192.0, 0.0, 0.0, 0.0, 0.0, 0.0, 0.0, 0.0, 0.0, 0.0, 1.676047363583026E9, 0.0, 2023-02-10 11:42:43.583
69.0, 7942.781799171186, 187500.0, 187500.0, 187500.0, -187500.02235174447, 187500.0, -187500.02235174447, -187500.02235174447, -0.028, 0.032, 1.0, 192.0, 0.0, 0.0, 0.0, 0.0, 0.0, 0.0, 0.0, 0.0, 0.0, 1.676047363583047E9, 0.0, 2023-02-10 11:42:43.583
70.0, 7899.285304461158, 187500.0, 187500.0, 187500.0, -187500.02235174447, 187500.0, -187500.02235174447, -187500.02235174447, -0.028, 0.032, 1.0, 192.0, 0.0, 0.0, 0.0, 0.0, 0.0, 0.0, 0.0, 0.0, 0.0, 1.676047363590501E9, 0.0, 2023-02-10 11:42:43.590
71.0, 7779.748175114176, 187500.0, 187500.0, 187500.0, -187500.02235174447, 187500.0, -187500.02235174447, -187500.02235174447, -0.028, 0.032, 1.0, 192.0, 0.0, 0.0, 0.0, 0.0, 0.0, 0.0, 0.0, 0.0, 0.0, 1.676047363590533E9, 0.0, 2023-02-10 11:42:43.590
72.0, 7540.785675142489, 187500.0, 187500.0, 187500.0, -187500.02235174447, 187500.0, -187500.02235174447, -187500.02235174447, -0.028, 0.032, 1.0, 192.0, 0.0, 0.0, 0.0, 0.0, 0.0, 0.0, 0.0, 0.0, 0.0, 1.676047363598679E9, 0.0, 2023-02-10 11:42:43.598
73.0, 7623.911812771776, 187500.0, 187500.0, 187500.0, -187500.02235174447, 187500.0, -187500.02235174447, -187500.02235174447, -0.028, 0.032, 1.0, 192.0, 0.0, 0.0, 0.0, 0.0, 0.0, 0.0, 0.0, 0.0, 0.0, 1.676047363598708E9, 0.0, 2023-02-10 11:42:43.598
74.0, 7603.482318339625, 187500.0, 187500.0, 187500.0, -187500.02235174447, 187500.0, -187500.02235174447, -187500.02235174447, -0.028, 0.032, 1.0, 192.0, 0.0, 0.0, 0.0, 0.0, 0.0, 0.0, 0.0, 0.0, 0.0, 1.676047363606541E9, 0.0, 2023-02-10 11:42:43.606
75.0, 7687.301360047026, 187500.0, 187500.0, 187500.0, -187500.02235174447, 187500.0, -187500.02235174447, -187500.02235174447, -0.028, 0.032, 1.0, 192.0, 0.0, 0.0, 0.0, 0.0, 0.0, 0.0, 0.0, 0.0, 0.0, 1.67604736360657E9, 0.0, 2023-02-10 11:42:43.606
76.0, 7773.892018066886, 187500.0, 187500.0, 187500.0, -187500.02235174447, 187500.0, -187500.02235174447, -187500.02235174447, -0.028, 0.03, 1.0, 192.0, 255.0, 32.0, 0.0, 240.0, 31.0, 64.0, 0.0, 0.0, 0.0, 1.676047363612489E9, 0.0, 2023-02-10 11:42:43.612
77.0, 7736.139921681872, 187500.0, 187500.0, 187500.0, -187500.02235174447, 187500.0, -187500.02235174447, -187500.02235174447, -0.028, 0.03, 1.0, 192.0, 0.0, 0.0, 0.0, 0.0, 0.0, 0.0, 0.0, 0.0, 0.0, 1.676047363612512E9, 0.0, 2023-02-10 11:42:43.612
78.0, 7740.498511850657, 187500.0, 187500.0, 187500.0, -187500.02235174447, 187500.0, -187500.02235174447, -187500.02235174447, -0.028, 0.03, 1.0, 192.0, 0.0, 0.0, 0.0, 0.0, 0.0, 0.0, 0.0, 0.0, 0.0, 1.676047363620212E9, 0.0, 2023-02-10 11:42:43.620
79.0, 7816.002704620684, 187500.0, 187500.0, 187500.0, -187500.02235174447, 187500.0, -187500.02235174447, -187500.02235174447, -0.028, 0.03, 1.0, 192.0, 0.0, 0.0, 0.0, 0.0, 0.0, 0.0, 0.0, 0.0, 0.0, 1.676047363628155E9, 0.0, 2023-02-10 11:42:43.628
80.0, 7905.588496397555, 187500.0, 187500.0, 187500.0, -187500.02235174447, 187500.0, -187500.02235174447, -187500.02235174447, -0.028, 0.03, 1.0, 192.0, 0.0, 0.0, 0.0, 0.0, 0.0, 0.0, 0.0, 0.0, 0.0, 1.67604736362818E9, 0.0, 2023-02-10 11:42:43.628
81.0, 7646.218853738172, 187500.0, 187500.0, 187500.0, -187500.02235174447, 187500.0, -187500.02235174447, -187500.02235174447, -0.028, 0.03, 1.0, 192.0, 0.0, 0.0, 0.0, 0.0, 0.0, 0.0, 0.0, 0.0, 0.0, 1.676047363636157E9, 0.0, 2023-02-10 11:42:43.636
82.0, 7488.169668694695, 187500.0, 187500.0, 187500.0, -187500.02235174447, 187500.0, -187500.02235174447, -187500.02235174447, -0.028, 0.03, 1.0, 192.0, 0.0, 0.0, 0.0, 0.0, 0.0, 0.0, 0.0, 0.0, 0.0, 1.676047363636186E9, 0.0, 2023-02-10 11:42:43.636
83.0, 7581.018815162041, 187500.0, 187500.0, 187500.0, -187500.02235174447, 187500.0, -187500.02235174447, -187500.02235174447, -0.028, 0.03, 1.0, 192.0, 0.0, 0.0, 0.0, 0.0, 0.0, 0.0, 0.0, 0.0, 0.0, 1.676047363642729E9, 0.0, 2023-02-10 11:42:43.642
84.0, 7667.855342370909, 187500.0, 187500.0, 187500.0, -187500.02235174447, 187500.0, -187500.02235174447, -187500.02235174447, -0.028, 0.03, 1.0, 192.0, 0.0, 0.0, 0.0, 0.0, 0.0, 0.0, 0.0, 0.0, 0.0, 1.676047363642751E9, 0.0, 2023-02-10 11:42:43.642
85.0, 7614.479376611635, 187500.0, 187500.0, 187500.0, -187500.02235174447, 187500.0, -187500.02235174447, -187500.02235174447, -0.028, 0.03, 1.0, 192.0, 0.0, 0.0, 0.0, 0.0, 0.0, 0.0, 0.0, 0.0, 0.0, 1.67604736365074E9, 0.0, 2023-02-10 11:42:43.650
86.0, 7534.34837273936, 187500.0, 187500.0, 187500.0, -187500.02235174447, 187500.0, -187500.02235174447, -187500.02235174447, -0.03, 0.028, 1.002, 192.0, 255.0, 16.0, 0.0, 224.0, 31.0, 80.0, 0.0, 0.0, 0.0, 1.676047363650764E9, 0.0, 2023-02-10 11:42:43.650
87.0, 7536.248271018061, 187500.0, 187500.0, 187500.0, -187500.02235174447, 187500.0, -187500.02235174447, -187500.02235174447, -0.03, 0.028, 1.002, 192.0, 0.0, 0.0, 0.0, 0.0, 0.0, 0.0, 0.0, 0.0, 0.0, 1.676047363658739E9, 0.0, 2023-02-10 11:42:43.658
88.0, 7563.964434142642, 187500.0, 187500.0, 187500.0, -187500.02235174447, 187500.0, -187500.02235174447, -187500.02235174447, -0.03, 0.028, 1.002, 192.0, 0.0, 0.0, 0.0, 0.0, 0.0, 0.0, 0.0, 0.0, 0.0, 1.676047363658787E9, 0.0, 2023-02-10 11:42:43.658
89.0, 7755.2283114467045, 187500.0, 187500.0, 187500.0, -187500.02235174447, 187500.0, -187500.02235174447, -187500.02235174447, -0.03, 0.028, 1.002, 192.0, 0.0, 0.0, 0.0, 0.0, 0.0, 0.0, 0.0, 0.0, 0.0, 1.676047363665873E9, 0.0, 2023-02-10 11:42:43.665
90.0, 7629.276231441049, 187500.0, 187500.0, 187500.0, -187500.02235174447, 187500.0, -187500.02235174447, -187500.02235174447, -0.03, 0.028, 1.002, 192.0, 0.0, 0.0, 0.0, 0.0, 0.0, 0.0, 0.0, 0.0, 0.0, 1.676047363665906E9, 0.0, 2023-02-10 11:42:43.665
91.0, 7563.49504750908, 187500.0, 187500.0, 187500.0, -187500.02235174447, 187500.0, -187500.02235174447, -187500.02235174447, -0.03, 0.028, 1.002, 192.0, 0.0, 0.0, 0.0, 0.0, 0.0, 0.0, 0.0, 0.0, 0.0, 1.67604736367336E9, 0.0, 2023-02-10 11:42:43.673
92.0, 7687.793098425043, 187500.0, 187500.0, 187500.0, -187500.02235174447, 187500.0, -187500.02235174447, -187500.02235174447, -0.03, 0.028, 1.002, 192.0, 0.0, 0.0, 0.0, 0.0, 0.0, 0.0, 0.0, 0.0, 0.0, 1.67604736367339E9, 0.0, 2023-02-10 11:42:43.673
93.0, 7733.122436180406, 187500.0, 187500.0, 187500.0, -187500.02235174447, 187500.0, -187500.02235174447, -187500.02235174447, -0.03, 0.028, 1.002, 192.0, 0.0, 0.0, 0.0, 0.0, 0.0, 0.0, 0.0, 0.0, 0.0, 1.676047363680409E9, 0.0, 2023-02-10 11:42:43.680
94.0, 7528.939250581176, 187500.0, 187500.0, 187500.0, -187500.02235174447, 187500.0, -187500.02235174447, -187500.02235174447, -0.03, 0.028, 1.002, 192.0, 0.0, 0.0, 0.0, 0.0, 0.0, 0.0, 0.0, 0.0, 0.0, 1.676047363688415E9, 0.0, 2023-02-10 11:42:43.688
95.0, 7496.059834487419, 187500.0, 187500.0, 187500.0, -187500.02235174447, 187500.0, -187500.02235174447, -187500.02235174447, -0.03, 0.028, 1.002, 192.0, 0.0, 0.0, 0.0, 0.0, 0.0, 0.0, 0.0, 0.0, 0.0, 1.676047363688436E9, 0.0, 2023-02-10 11:42:43.688
96.0, 7705.205107355727, 187500.0, 187500.0, 187500.0, -187500.02235174447, 187500.0, -187500.02235174447, -187500.02235174447, -0.026000000000000002, 0.028, 1.002, 192.0, 255.0, 48.0, 0.0, 224.0, 31.0, 80.0, 0.0, 0.0, 0.0, 1.67604736369496E9, 0.0, 2023-02-10 11:42:43.694
97.0, 7653.0361357970405, 187500.0, 187500.0, 187500.0, -187500.02235174447, 187500.0, -187500.02235174447, -187500.02235174447, -0.026000000000000002, 0.028, 1.002, 192.0, 0.0, 0.0, 0.0, 0.0, 0.0, 0.0, 0.0, 0.0, 0.0, 1.676047363694984E9, 0.0, 2023-02-10 11:42:43.694
98.0, 7521.25025048855, 187500.0, 187500.0, 187500.0, -187500.02235174447, 187500.0, -187500.02235174447, -187500.02235174447, -0.026000000000000002, 0.028, 1.002, 192.0, 0.0, 0.0, 0.0, 0.0, 0.0, 0.0, 0.0, 0.0, 0.0, 1.676047363702948E9, 0.0, 2023-02-10 11:42:43.702
99.0, 7493.936418764165, 187500.0, 187500.0, 187500.0, -187500.02235174447, 187500.0, -187500.02235174447, -187500.02235174447, -0.026000000000000002, 0.028, 1.002, 192.0, 0.0, 0.0, 0.0, 0.0, 0.0, 0.0, 0.0, 0.0, 0.0, 1.676047363702968E9, 0.0, 2023-02-10 11:42:43.702
100.0, 7617.8768417688425, 187500.0, 187500.0, 187500.0, -187500.02235174447, 187500.0, -187500.02235174447, -187500.02235174447, -0.026000000000000002, 0.028, 1.002, 192.0, 0.0, 0.0, 0.0, 0.0, 0.0, 0.0, 0.0, 0.0, 0.0, 1.676047363710943E9, 0.0, 2023-02-10 11:42:43.710
101.0, 7453.569168277881, 187500.0, 187500.0, 187500.0, -187500.02235174447, 187500.0, -187500.02235174447, -187500.02235174447, -0.026000000000000002, 0.028, 1.002, 192.0, 0.0, 0.0, 0.0, 0.0, 0.0, 0.0, 0.0, 0.0, 0.0, 1.676047363710964E9, 0.0, 2023-02-10 11:42:43.710
102.0, 7409.737397401023, 187500.0, 187500.0, 187500.0, -187500.02235174447, 187500.0, -187500.02235174447, -187500.02235174447, -0.026000000000000002, 0.028, 1.002, 192.0, 0.0, 0.0, 0.0, 0.0, 0.0, 0.0, 0.0, 0.0, 0.0, 1.676047363718929E9, 0.0, 2023-02-10 11:42:43.718
103.0, 7527.866366847321, 187500.0, 187500.0, 187500.0, -187500.02235174447, 187500.0, -187500.02235174447, -187500.02235174447, -0.026000000000000002, 0.028, 1.002, 192.0, 0.0, 0.0, 0.0, 0.0, 0.0, 0.0, 0.0, 0.0, 0.0, 1.676047363719069E9, 0.0, 2023-02-10 11:42:43.719
104.0, 7735.29055539257, 187500.0, 187500.0, 187500.0, -187500.02235174447, 187500.0, -187500.02235174447, -187500.02235174447, -0.026000000000000002, 0.028, 1.002, 192.0, 0.0, 0.0, 0.0, 0.0, 0.0, 0.0, 0.0, 0.0, 0.0, 1.676047363725614E9, 0.0, 2023-02-10 11:42:43.725
105.0, 7708.9154969353085, 187500.0, 187500.0, 187500.0, -187500.02235174447, 187500.0, -187500.02235174447, -187500.02235174447, -0.026000000000000002, 0.028, 1.002, 192.0, 0.0, 0.0, 0.0, 0.0, 0.0, 0.0, 0.0, 0.0, 0.0, 1.676047363725632E9, 0.0, 2023-02-10 11:42:43.725
106.0, 7748.813360788031, 187500.0, 187500.0, 187500.0, -187500.02235174447, 187500.0, -187500.02235174447, -187500.02235174447, -0.024, 0.03, 1.002, 192.0, 255.0, 64.0, 0.0, 240.0, 31.0, 80.0, 0.0, 0.0, 0.0, 1.676047363734905E9, 0.0, 2023-02-10 11:42:43.734
107.0, 7365.257425934962, 187500.0, 187500.0, 187500.0, -187500.02235174447, 187500.0, -187500.02235174447, -187500.02235174447, -0.024, 0.03, 1.002, 192.0, 0.0, 0.0, 0.0, 0.0, 0.0, 0.0, 0.0, 0.0, 0.0, 1.676047363734925E9, 0.0, 2023-02-10 11:42:43.734
108.0, 7310.808576441834, 187500.0, 187500.0, 187500.0, -187500.02235174447, 187500.0, -187500.02235174447, -187500.02235174447, -0.024, 0.03, 1.002, 192.0, 0.0, 0.0, 0.0, 0.0, 0.0, 0.0, 0.0, 0.0, 0.0, 1.676047363742123E9, 0.0, 2023-02-10 11:42:43.742
109.0, 7531.599108171357, 187500.0, 187500.0, 187500.0, -187500.02235174447, 187500.0, -187500.02235174447, -187500.02235174447, -0.024, 0.03, 1.002, 192.0, 0.0, 0.0, 0.0, 0.0, 0.0, 0.0, 0.0, 0.0, 0.0, 1.676047363748283E9, 0.0, 2023-02-10 11:42:43.748
110.0, 7400.148499029697, 187500.0, 187500.0, 187500.0, -187500.02235174447, 187500.0, -187500.02235174447, -187500.02235174447, -0.024, 0.03, 1.002, 192.0, 0.0, 0.0, 0.0, 0.0, 0.0, 0.0, 0.0, 0.0, 0.0, 1.676047363748331E9, 0.0, 2023-02-10 11:42:43.748
111.0, 7287.741576163957, 187500.0, 187500.0, 187500.0, -187500.02235174447, 187500.0, -187500.02235174447, -187500.02235174447, -0.024, 0.03, 1.002, 192.0, 0.0, 0.0, 0.0, 0.0, 0.0, 0.0, 0.0, 0.0, 0.0, 1.676047363755369E9, 0.0, 2023-02-10 11:42:43.755
112.0, 7338.010649443942, 187500.0, 187500.0, 187500.0, -187500.02235174447, 187500.0, -187500.02235174447, -187500.02235174447, -0.024, 0.03, 1.002, 192.0, 0.0, 0.0, 0.0, 0.0, 0.0, 0.0, 0.0, 0.0, 0.0, 1.676047363755407E9, 0.0, 2023-02-10 11:42:43.755
113.0, 7363.513989867448, 187500.0, 187500.0, 187500.0, -187500.02235174447, 187500.0, -187500.02235174447, -187500.02235174447, -0.024, 0.03, 1.002, 192.0, 0.0, 0.0, 0.0, 0.0, 0.0, 0.0, 0.0, 0.0, 0.0, 1.676047363763354E9, 0.0, 2023-02-10 11:42:43.763
114.0, 7478.29019764545, 187500.0, 187500.0, 187500.0, -187500.02235174447, 187500.0, -187500.02235174447, -187500.02235174447, -0.024, 0.03, 1.002, 192.0, 0.0, 0.0, 0.0, 0.0, 0.0, 0.0, 0.0, 0.0, 0.0, 1.676047363763377E9, 0.0, 2023-02-10 11:42:43.763
115.0, 7569.395908045281, 187500.0, 187500.0, 187500.0, -187500.02235174447, 187500.0, -187500.02235174447, -187500.02235174447, -0.024, 0.03, 1.002, 192.0, 0.0, 0.0, 0.0, 0.0, 0.0, 0.0, 0.0, 0.0, 0.0, 1.676047363771143E9, 0.0, 2023-02-10 11:42:43.771
116.0, 7408.128071800241, 187500.0, 187500.0, 187500.0, -187500.02235174447, 187500.0, -187500.02235174447, -187500.02235174447, -0.026000000000000002, 0.028, 1.004, 192.0, 255.0, 48.0, 0.0, 224.0, 31.0, 96.0, 0.0, 0.0, 0.0, 1.676047363771166E9, 0.0, 2023-02-10 11:42:43.771
117.0, 7515.863480074821, 187500.0, 187500.0, 187500.0, -187500.02235174447, 187500.0, -187500.02235174447, -187500.02235174447, -0.026000000000000002, 0.028, 1.004, 192.0, 0.0, 0.0, 0.0, 0.0, 0.0, 0.0, 0.0, 0.0, 0.0, 1.676047363777863E9, 0.0, 2023-02-10 11:42:43.777
118.0, 7469.550665563424, 187500.0, 187500.0, 187500.0, -187500.02235174447, 187500.0, -187500.02235174447, -187500.02235174447, -0.026000000000000002, 0.028, 1.004, 192.0, 0.0, 0.0, 0.0, 0.0, 0.0, 0.0, 0.0, 0.0, 0.0, 1.676047363778034E9, 0.0, 2023-02-10 11:42:43.778
119.0, 7378.22143771904, 187500.0, 187500.0, 187500.0, -187500.02235174447, 187500.0, -187500.02235174447, -187500.02235174447, -0.026000000000000002, 0.028, 1.004, 192.0, 0.0, 0.0, 0.0, 0.0, 0.0, 0.0, 0.0, 0.0, 0.0, 1.676047363785935E9, 0.0, 2023-02-10 11:42:43.785
120.0, 7261.590035151248, 187500.0, 187500.0, 187500.0, -187500.02235174447, 187500.0, -187500.02235174447, -187500.02235174447, -0.026000000000000002, 0.028, 1.004, 192.0, 0.0, 0.0, 0.0, 0.0, 0.0, 0.0, 0.0, 0.0, 0.0, 1.676047363785959E9, 0.0, 2023-02-10 11:42:43.785
121.0, 7245.183854721053, 187500.0, 187500.0, 187500.0, -187500.02235174447, 187500.0, -187500.02235174447, -187500.02235174447, -0.026000000000000002, 0.028, 1.004, 192.0, 0.0, 0.0, 0.0, 0.0, 0.0, 0.0, 0.0, 0.0, 0.0, 1.676047363794041E9, 0.0, 2023-02-10 11:42:43.794
122.0, 7416.621734693258, 187500.0, 187500.0, 187500.0, -187500.02235174447, 187500.0, -187500.02235174447, -187500.02235174447, -0.026000000000000002, 0.028, 1.004, 192.0, 0.0, 0.0, 0.0, 0.0, 0.0, 0.0, 0.0, 0.0, 0.0, 1.676047363794092E9, 0.0, 2023-02-10 11:42:43.794
123.0, 7491.544782107447, 187500.0, 187500.0, 187500.0, -187500.02235174447, 187500.0, -187500.02235174447, -187500.02235174447, -0.026000000000000002, 0.028, 1.004, 192.0, 0.0, 0.0, 0.0, 0.0, 0.0, 0.0, 0.0, 0.0, 0.0, 1.676047363800945E9, 0.0, 2023-02-10 11:42:43.800
124.0, 7466.600235295325, 187500.0, 187500.0, 187500.0, -187500.02235174447, 187500.0, -187500.02235174447, -187500.02235174447, -0.026000000000000002, 0.028, 1.004, 192.0, 0.0, 0.0, 0.0, 0.0, 0.0, 0.0, 0.0, 0.0, 0.0, 1.676047363809034E9, 0.0, 2023-02-10 11:42:43.809
125.0, 7235.438494138539, 187500.0, 187500.0, 187500.0, -187500.02235174447, 187500.0, -187500.02235174447, -187500.02235174447, -0.028, 0.032, 1.006, 192.0, 255.0, 32.0, 1.0, 0.0, 31.0, 112.0, 0.0, 0.0, 0.0, 1.676047363809063E9, 0.0, 2023-02-10 11:42:43.809
126.0, 7389.866696580255, 187500.0, 187500.0, 187500.0, -187500.02235174447, 187500.0, -187500.02235174447, -187500.02235174447, -0.028, 0.032, 1.006, 192.0, 0.0, 0.0, 0.0, 0.0, 0.0, 0.0, 0.0, 0.0, 0.0, 1.676047363815528E9, 0.0, 2023-02-10 11:42:43.815
127.0, 7411.346723001805, 187500.0, 187500.0, 187500.0, -187500.02235174447, 187500.0, -187500.02235174447, -187500.02235174447, -0.028, 0.032, 1.006, 192.0, 0.0, 0.0, 0.0, 0.0, 0.0, 0.0, 0.0, 0.0, 0.0, 1.676047363815552E9, 0.0, 2023-02-10 11:42:43.815
128.0, 7361.904664266666, 187500.0, 187500.0, 187500.0, -187500.02235174447, 187500.0, -187500.02235174447, -187500.02235174447, -0.028, 0.032, 1.006, 192.0, 0.0, 0.0, 0.0, 0.0, 0.0, 0.0, 0.0, 0.0, 0.0, 1.676047363824197E9, 0.0, 2023-02-10 11:42:43.824
129.0, 7303.521907749404, 187500.0, 187500.0, 187500.0, -187500.02235174447, 187500.0, -187500.02235174447, -187500.02235174447, -0.028, 0.032, 1.006, 192.0, 0.0, 0.0, 0.0, 0.0, 0.0, 0.0, 0.0, 0.0, 0.0, 1.676047363824282E9, 0.0, 2023-02-10 11:42:43.824
130.0, 7145.673888406025, 187500.0, 187500.0, 187500.0, -187500.02235174447, 187500.0, -187500.02235174447, -187500.02235174447, -0.028, 0.032, 1.006, 192.0, 0.0, 0.0, 0.0, 0.0, 0.0, 0.0, 0.0, 0.0, 0.0, 1.676047363830235E9, 0.0, 2023-02-10 11:42:43.830
131.0, 7269.368442221695, 187500.0, 187500.0, 187500.0, -187500.02235174447, 187500.0, -187500.02235174447, -187500.02235174447, -0.028, 0.032, 1.006, 192.0, 0.0, 0.0, 0.0, 0.0, 0.0, 0.0, 0.0, 0.0, 0.0, 1.67604736383026E9, 0.0, 2023-02-10 11:42:43.830
132.0, 7250.414162923595, 187500.0, 187500.0, 187500.0, -187500.02235174447, 187500.0, -187500.02235174447, -187500.02235174447, -0.028, 0.032, 1.006, 192.0, 0.0, 0.0, 0.0, 0.0, 0.0, 0.0, 0.0, 0.0, 0.0, 1.6760473638382E9, 0.0, 2023-02-10 11:42:43.838
133.0, 7333.853224975255, 187500.0, 187500.0, 187500.0, -187500.02235174447, 187500.0, -187500.02235174447, -187500.02235174447, -0.028, 0.032, 1.006, 192.0, 0.0, 0.0, 0.0, 0.0, 0.0, 0.0, 0.0, 0.0, 0.0, 1.676047363838303E9, 0.0, 2023-02-10 11:42:43.838
134.0, 7550.039297346985, 187500.0, 187500.0, 187500.0, -187500.02235174447, 187500.0, -187500.02235174447, -187500.02235174447, -0.028, 0.032, 1.006, 192.0, 0.0, 0.0, 0.0, 0.0, 0.0, 0.0, 0.0, 0.0, 0.0, 1.676047363846157E9, 0.0, 2023-02-10 11:42:43.846
135.0, 7349.700611794068, 187500.0, 187500.0, 187500.0, -187500.02235174447, 187500.0, -187500.02235174447, -187500.02235174447, -0.028, 0.03, 1.004, 192.0, 255.0, 32.0, 0.0, 240.0, 31.0, 96.0, 0.0, 0.0, 0.0, 1.67604736384618E9, 0.0, 2023-02-10 11:42:43.846
136.0, 7177.905103910578, 187500.0, 187500.0, 187500.0, -187500.02235174447, 187500.0, -187500.02235174447, -187500.02235174447, -0.028, 0.03, 1.004, 192.0, 0.0, 0.0, 0.0, 0.0, 0.0, 0.0, 0.0, 0.0, 0.0, 1.676047363853199E9, 0.0, 2023-02-10 11:42:43.853
137.0, 7258.907825816611, 187500.0, 187500.0, 187500.0, -187500.02235174447, 187500.0, -187500.02235174447, -187500.02235174447, -0.028, 0.03, 1.004, 192.0, 0.0, 0.0, 0.0, 0.0, 0.0, 0.0, 0.0, 0.0, 0.0, 1.67604736385322E9, 0.0, 2023-02-10 11:42:43.853
138.0, 7073.5671607932045, 187500.0, 187500.0, 187500.0, -187500.02235174447, 187500.0, -187500.02235174447, -187500.02235174447, -0.028, 0.03, 1.004, 192.0, 0.0, 0.0, 0.0, 0.0, 0.0, 0.0, 0.0, 0.0, 0.0, 1.676047363859973E9, 0.0, 2023-02-10 11:42:43.859
139.0, 7193.037234906821, 187500.0, 187500.0, 187500.0, -187500.02235174447, 187500.0, -187500.02235174447, -187500.02235174447, -0.028, 0.03, 1.004, 192.0, 0.0, 0.0, 0.0, 0.0, 0.0, 0.0, 0.0, 0.0, 0.0, 1.676047363859997E9, 0.0, 2023-02-10 11:42:43.859
140.0, 7394.158231515674, 187500.0, 187500.0, 187500.0, -187500.02235174447, 187500.0, -187500.02235174447, -187500.02235174447, -0.028, 0.03, 1.004, 192.0, 0.0, 0.0, 0.0, 0.0, 0.0, 0.0, 0.0, 0.0, 0.0, 1.67604736386779E9, 0.0, 2023-02-10 11:42:43.867
141.0, 7381.395385431694, 187500.0, 187500.0, 187500.0, -187500.02235174447, 187500.0, -187500.02235174447, -187500.02235174447, -0.028, 0.03, 1.004, 192.0, 0.0, 0.0, 0.0, 0.0, 0.0, 0.0, 0.0, 0.0, 0.0, 1.676047363875787E9, 0.0, 2023-02-10 11:42:43.875
142.0, 7350.907605994655, 187500.0, 187500.0, 187500.0, -187500.02235174447, 187500.0, -187500.02235174447, -187500.02235174447, -0.028, 0.03, 1.004, 192.0, 0.0, 0.0, 0.0, 0.0, 0.0, 0.0, 0.0, 0.0, 0.0, 1.676047363875809E9, 0.0, 2023-02-10 11:42:43.875
143.0, 7198.111080898176, 187500.0, 187500.0, 187500.0, -187500.02235174447, 187500.0, -187500.02235174447, -187500.02235174447, -0.028, 0.03, 1.004, 192.0, 0.0, 0.0, 0.0, 0.0, 0.0, 0.0, 0.0, 0.0, 0.0, 1.676047363882832E9, 0.0, 2023-02-10 11:42:43.882
144.0, 7385.999844789487, 187500.0, 187500.0, 187500.0, -187500.02235174447, 187500.0, -187500.02235174447, -187500.02235174447, -0.028, 0.03, 1.004, 192.0, 0.0, 0.0, 0.0, 0.0, 0.0, 0.0, 0.0, 0.0, 0.0, 1.676047363882854E9, 0.0, 2023-02-10 11:42:43.882
145.0, 7173.367699786151, 187500.0, 187500.0, 187500.0, -187500.02235174447, 187500.0, -187500.02235174447, -187500.02235174447, -0.026000000000000002, 0.034, 0.996, 192.0, 255.0, 48.0, 1.0, 16.0, 31.0, 32.0, 0.0, 0.0, 0.0, 1.676047363890472E9, 0.0, 2023-02-10 11:42:43.890
146.0, 7180.9449411565, 187500.0, 187500.0, 187500.0, -187500.02235174447, 187500.0, -187500.02235174447, -187500.02235174447, -0.026000000000000002, 0.034, 0.996, 192.0, 0.0, 0.0, 0.0, 0.0, 0.0, 0.0, 0.0, 0.0, 0.0, 1.676047363890494E9, 0.0, 2023-02-10 11:42:43.890
147.0, 7235.684363327547, 187500.0, 187500.0, 187500.0, -187500.02235174447, 187500.0, -187500.02235174447, -187500.02235174447, -0.026000000000000002, 0.034, 0.996, 192.0, 0.0, 0.0, 0.0, 0.0, 0.0, 0.0, 0.0, 0.0, 0.0, 1.676047363898278E9, 0.0, 2023-02-10 11:42:43.898
148.0, 7249.922424545578, 187500.0, 187500.0, 187500.0, -187500.02235174447, 187500.0, -187500.02235174447, -187500.02235174447, -0.026000000000000002, 0.034, 0.996, 192.0, 0.0, 0.0, 0.0, 0.0, 0.0, 0.0, 0.0, 0.0, 0.0, 1.676047363898377E9, 0.0, 2023-02-10 11:42:43.898
149.0, 7211.924458971555, 187500.0, 187500.0, 187500.0, -187500.02235174447, 187500.0, -187500.02235174447, -187500.02235174447, -0.026000000000000002, 0.034, 0.996, 192.0, 0.0, 0.0, 0.0, 0.0, 0.0, 0.0, 0.0, 0.0, 0.0, 1.676047363906911E9, 0.0, 2023-02-10 11:42:43.906
150.0, 7173.635920719615, 187500.0, 187500.0, 187500.0, -187500.02235174447, 187500.0, -187500.02235174447, -187500.02235174447, -0.026000000000000002, 0.034, 0.996, 192.0, 0.0, 0.0, 0.0, 0.0, 0.0, 0.0, 0.0, 0.0, 0.0, 1.676047363906935E9, 0.0, 2023-02-10 11:42:43.906
151.0, 7165.0752025932325, 187500.0, 187500.0, 187500.0, -187500.02235174447, 187500.0, -187500.02235174447, -187500.02235174447, -0.026000000000000002, 0.034, 0.996, 192.0, 0.0, 0.0, 0.0, 0.0, 0.0, 0.0, 0.0, 0.0, 0.0, 1.676047363913086E9, 0.0, 2023-02-10 11:42:43.913
152.0, 7157.453257733972, 187500.0, 187500.0, 187500.0, -187500.02235174447, 187500.0, -187500.02235174447, -187500.02235174447, -0.026000000000000002, 0.034, 0.996, 192.0, 0.0, 0.0, 0.0, 0.0, 0.0, 0.0, 0.0, 0.0, 0.0, 1.676047363913104E9, 0.0, 2023-02-10 11:42:43.913
153.0, 7172.831257919223, 187500.0, 187500.0, 187500.0, -187500.02235174447, 187500.0, -187500.02235174447, -187500.02235174447, -0.026000000000000002, 0.034, 0.996, 192.0, 0.0, 0.0, 0.0, 0.0, 0.0, 0.0, 0.0, 0.0, 0.0, 1.676047363921031E9, 0.0, 2023-02-10 11:42:43.921
154.0, 7292.055462843831, 187500.0, 187500.0, 187500.0, -187500.02235174447, 187500.0, -187500.02235174447, -187500.02235174447, -0.026000000000000002, 0.034, 0.996, 192.0, 0.0, 0.0, 0.0, 0.0, 0.0, 0.0, 0.0, 0.0, 0.0, 1.676047363921049E9, 0.0, 2023-02-10 11:42:43.921
155.0, 7200.23449662143, 187500.0, 187500.0, 187500.0, -187500.02235174447, 187500.0, -187500.02235174447, -187500.02235174447, -0.024, 0.04, 0.994, 192.0, 255.0, 64.0, 1.0, 64.0, 31.0, 16.0, 0.0, 0.0, 0.0, 1.676047363928365E9, 0.0, 2023-02-10 11:42:43.928
156.0, 7097.438823871473, 187500.0, 187500.0, 187500.0, -187500.02235174447, 187500.0, -187500.02235174447, -187500.02235174447, -0.024, 0.04, 0.994, 192.0, 0.0, 0.0, 0.0, 0.0, 0.0, 0.0, 0.0, 0.0, 0.0, 1.676047363936267E9, 0.0, 2023-02-10 11:42:43.936
157.0, 7102.244448929364, 187500.0, 187500.0, 187500.0, -187500.02235174447, 187500.0, -187500.02235174447, -187500.02235174447, -0.024, 0.04, 0.994, 192.0, 0.0, 0.0, 0.0, 0.0, 0.0, 0.0, 0.0, 0.0, 0.0, 1.676047363936289E9, 0.0, 2023-02-10 11:42:43.936
158.0, 7094.130765692087, 187500.0, 187500.0, 187500.0, -187500.02235174447, 187500.0, -187500.02235174447, -187500.02235174447, -0.024, 0.04, 0.994, 192.0, 0.0, 0.0, 0.0, 0.0, 0.0, 0.0, 0.0, 0.0, 0.0, 1.676047363942858E9, 0.0, 2023-02-10 11:42:43.942
159.0, 7240.199415707519, 187500.0, 187500.0, 187500.0, -187500.02235174447, 187500.0, -187500.02235174447, -187500.02235174447, -0.024, 0.04, 0.994, 192.0, 0.0, 0.0, 0.0, 0.0, 0.0, 0.0, 0.0, 0.0, 0.0, 1.676047363942879E9, 0.0, 2023-02-10 11:42:43.942
160.0, 7203.564906545271, 187500.0, 187500.0, 187500.0, -187500.02235174447, 187500.0, -187500.02235174447, -187500.02235174447, -0.024, 0.04, 0.994, 192.0, 0.0, 0.0, 0.0, 0.0, 0.0, 0.0, 0.0, 0.0, 0.0, 1.67604736395085E9, 0.0, 2023-02-10 11:42:43.950
161.0, 7049.2037593369205, 187500.0, 187500.0, 187500.0, -187500.02235174447, 187500.0, -187500.02235174447, -187500.02235174447, -0.024, 0.04, 0.994, 192.0, 0.0, 0.0, 0.0, 0.0, 0.0, 0.0, 0.0, 0.0, 0.0, 1.676047363950872E9, 0.0, 2023-02-10 11:42:43.950
162.0, 7018.581869433149, 187500.0, 187500.0, 187500.0, -187500.02235174447, 187500.0, -187500.02235174447, -187500.02235174447, -0.024, 0.04, 0.994, 192.0, 0.0, 0.0, 0.0, 0.0, 0.0, 0.0, 0.0, 0.0, 0.0, 1.676047363958656E9, 0.0, 2023-02-10 11:42:43.958
163.0, 7191.338502328218, 187500.0, 187500.0, 187500.0, -187500.02235174447, 187500.0, -187500.02235174447, -187500.02235174447, -0.024, 0.04, 0.994, 192.0, 0.0, 0.0, 0.0, 0.0, 0.0, 0.0, 0.0, 0.0, 0.0, 1.676047363958794E9, 0.0, 2023-02-10 11:42:43.958
164.0, 7312.6414194871695, 187500.0, 187500.0, 187500.0, -187500.02235174447, 187500.0, -187500.02235174447, -187500.02235174447, -0.024, 0.04, 0.994, 192.0, 0.0, 0.0, 0.0, 0.0, 0.0, 0.0, 0.0, 0.0, 0.0, 1.676047363965807E9, 0.0, 2023-02-10 11:42:43.965
165.0, 7130.139426009587, 187500.0, 187500.0, 187500.0, -187500.02235174447, 187500.0, -187500.02235174447, -187500.02235174447, -0.03, 0.032, 0.996, 192.0, 255.0, 16.0, 1.0, 0.0, 31.0, 32.0, 0.0, 0.0, 0.0, 1.67604736396583E9, 0.0, 2023-02-10 11:42:43.965
166.0, 7158.101458323176, 187500.0, 187500.0, 187500.0, -187500.02235174447, 187500.0, -187500.02235174447, -187500.02235174447, -0.03, 0.032, 0.996, 192.0, 0.0, 0.0, 0.0, 0.0, 0.0, 0.0, 0.0, 0.0, 0.0, 1.676047363973813E9, 0.0, 2023-02-10 11:42:43.973
167.0, 7033.602241707116, 187500.0, 187500.0, 187500.0, -187500.02235174447, 187500.0, -187500.02235174447, -187500.02235174447, -0.03, 0.032, 0.996, 192.0, 0.0, 0.0, 0.0, 0.0, 0.0, 0.0, 0.0, 0.0, 0.0, 1.676047363973868E9, 0.0, 2023-02-10 11:42:43.973
168.0, 7246.390848921639, 187500.0, 187500.0, 187500.0, -187500.02235174447, 187500.0, -187500.02235174447, -187500.02235174447, -0.03, 0.032, 0.996, 192.0, 0.0, 0.0, 0.0, 0.0, 0.0, 0.0, 0.0, 0.0, 0.0, 1.676047363981374E9, 0.0, 2023-02-10 11:42:43.981
169.0, 7037.849073153624, 187500.0, 187500.0, 187500.0, -187500.02235174447, 187500.0, -187500.02235174447, -187500.02235174447, -0.03, 0.032, 0.996, 192.0, 0.0, 0.0, 0.0, 0.0, 0.0, 0.0, 0.0, 0.0, 0.0, 1.676047363981401E9, 0.0, 2023-02-10 11:42:43.981
170.0, 7005.4166919489735, 187500.0, 187500.0, 187500.0, -187500.02235174447, 187500.0, -187500.02235174447, -187500.02235174447, -0.03, 0.032, 0.996, 192.0, 0.0, 0.0, 0.0, 0.0, 0.0, 0.0, 0.0, 0.0, 0.0, 1.676047363989969E9, 0.0, 2023-02-10 11:42:43.989
171.0, 7220.865156753678, 187500.0, 187500.0, 187500.0, -187500.02235174447, 187500.0, -187500.02235174447, -187500.02235174447, -0.03, 0.032, 0.996, 192.0, 0.0, 0.0, 0.0, 0.0, 0.0, 0.0, 0.0, 0.0, 0.0, 1.676047363995946E9, 0.0, 2023-02-10 11:42:43.995
172.0, 7013.195099019421, 187500.0, 187500.0, 187500.0, -187500.02235174447, 187500.0, -187500.02235174447, -187500.02235174447, -0.03, 0.032, 0.996, 192.0, 0.0, 0.0, 0.0, 0.0, 0.0, 0.0, 0.0, 0.0, 0.0, 1.676047363995969E9, 0.0, 2023-02-10 11:42:43.995
173.0, 6915.94265889438, 187500.0, 187500.0, 187500.0, -187500.02235174447, 187500.0, -187500.02235174447, -187500.02235174447, -0.03, 0.032, 0.996, 192.0, 0.0, 0.0, 0.0, 0.0, 0.0, 0.0, 0.0, 0.0, 0.0, 1.676047364003005E9, 0.0, 2023-02-10 11:42:44.003
174.0, 6934.539310281195, 187500.0, 187500.0, 187500.0, -187500.02235174447, 187500.0, -187500.02235174447, -187500.02235174447, -0.026000000000000002, 0.03, 0.998, 192.0, 255.0, 48.0, 0.0, 240.0, 31.0, 48.0, 0.0, 0.0, 0.0, 1.676047364003024E9, 0.0, 2023-02-10 11:42:44.003
175.0, 7012.43513970794, 187500.0, 187500.0, 187500.0, -187500.02235174447, 187500.0, -187500.02235174447, -187500.02235174447, -0.026000000000000002, 0.03, 0.998, 192.0, 0.0, 0.0, 0.0, 0.0, 0.0, 0.0, 0.0, 0.0, 0.0, 1.676047364011022E9, 0.0, 2023-02-10 11:42:44.011
176.0, 7318.028189900898, 187500.0, 187500.0, 187500.0, -187500.02235174447, 187500.0, -187500.02235174447, -187500.02235174447, -0.026000000000000002, 0.03, 0.998, 192.0, 0.0, 0.0, 0.0, 0.0, 0.0, 0.0, 0.0, 0.0, 0.0, 1.676047364011047E9, 0.0, 2023-02-10 11:42:44.011
177.0, 7209.912801970578, 187500.0, 187500.0, 187500.0, -187500.02235174447, 187500.0, -187500.02235174447, -187500.02235174447, -0.026000000000000002, 0.03, 0.998, 192.0, 0.0, 0.0, 0.0, 0.0, 0.0, 0.0, 0.0, 0.0, 0.0, 1.676047364018183E9, 0.0, 2023-02-10 11:42:44.018
178.0, 6966.099973452088, 187500.0, 187500.0, 187500.0, -187500.02235174447, 187500.0, -187500.02235174447, -187500.02235174447, -0.026000000000000002, 0.03, 0.998, 192.0, 0.0, 0.0, 0.0, 0.0, 0.0, 0.0, 0.0, 0.0, 0.0, 1.676047364018292E9, 0.0, 2023-02-10 11:42:44.018
179.0, 6876.245960741754, 187500.0, 187500.0, 187500.0, -187500.02235174447, 187500.0, -187500.02235174447, -187500.02235174447, -0.026000000000000002, 0.03, 0.998, 192.0, 0.0, 0.0, 0.0, 0.0, 0.0, 0.0, 0.0, 0.0, 0.0, 1.676047364025548E9, 0.0, 2023-02-10 11:42:44.025
180.0, 7062.190122865453, 187500.0, 187500.0, 187500.0, -187500.02235174447, 187500.0, -187500.02235174447, -187500.02235174447, -0.026000000000000002, 0.03, 0.998, 192.0, 0.0, 0.0, 0.0, 0.0, 0.0, 0.0, 0.0, 0.0, 0.0, 1.676047364025571E9, 0.0, 2023-02-10 11:42:44.025
181.0, 6979.756889314282, 187500.0, 187500.0, 187500.0, -187500.02235174447, 187500.0, -187500.02235174447, -187500.02235174447, -0.026000000000000002, 0.03, 0.998, 192.0, 0.0, 0.0, 0.0, 0.0, 0.0, 0.0, 0.0, 0.0, 0.0, 1.676047364033522E9, 0.0, 2023-02-10 11:42:44.033
182.0, 6880.582199166084, 187500.0, 187500.0, 187500.0, -187500.02235174447, 187500.0, -187500.02235174447, -187500.02235174447, -0.026000000000000002, 0.03, 0.998, 192.0, 0.0, 0.0, 0.0, 0.0, 0.0, 0.0, 0.0, 0.0, 0.0, 1.676047364033545E9, 0.0, 2023-02-10 11:42:44.033
183.0, 6988.719938840859, 187500.0, 187500.0, 187500.0, -187500.02235174447, 187500.0, -187500.02235174447, -187500.02235174447, -0.026000000000000002, 0.03, 0.998, 192.0, 0.0, 0.0, 0.0, 0.0, 0.0, 0.0, 0.0, 0.0, 0.0, 1.676047364041548E9, 0.0, 2023-02-10 11:42:44.041
184.0, 7189.349197071696, 187500.0, 187500.0, 187500.0, -187500.02235174447, 187500.0, -187500.02235174447, -187500.02235174447, -0.022, 0.032, 0.996, 192.0, 255.0, 80.0, 1.0, 0.0, 31.0, 32.0, 0.0, 0.0, 0.0, 1.67604736404157E9, 0.0, 2023-02-10 11:42:44.041
185.0, 7140.130655781109, 187500.0, 187500.0, 187500.0, -187500.02235174447, 187500.0, -187500.02235174447, -187500.02235174447, -0.022, 0.032, 0.996, 192.0, 0.0, 0.0, 0.0, 0.0, 0.0, 0.0, 0.0, 0.0, 0.0, 1.676047364048716E9, 0.0, 2023-02-10 11:42:44.048
186.0, 6996.274828466753, 187500.0, 187500.0, 187500.0, -187500.02235174447, 187500.0, -187500.02235174447, -187500.02235174447, -0.022, 0.032, 0.996, 192.0, 0.0, 0.0, 0.0, 0.0, 0.0, 0.0, 0.0, 0.0, 0.0, 1.676047364055241E9, 0.0, 2023-02-10 11:42:44.055
187.0, 6869.965120549813, 187500.0, 187500.0, 187500.0, -187500.02235174447, 187500.0, -187500.02235174447, -187500.02235174447, -0.022, 0.032, 0.996, 192.0, 0.0, 0.0, 0.0, 0.0, 0.0, 0.0, 0.0, 0.0, 0.0, 1.676047364055268E9, 0.0, 2023-02-10 11:42:44.055
188.0, 6938.272051605231, 187500.0, 187500.0, 187500.0, -187500.02235174447, 187500.0, -187500.02235174447, -187500.02235174447, -0.022, 0.032, 0.996, 192.0, 0.0, 0.0, 0.0, 0.0, 0.0, 0.0, 0.0, 0.0, 0.0, 1.676047364064657E9, 0.0, 2023-02-10 11:42:44.064
189.0, 7063.39711706604, 187500.0, 187500.0, 187500.0, -187500.02235174447, 187500.0, -187500.02235174447, -187500.02235174447, -0.022, 0.032, 0.996, 192.0, 0.0, 0.0, 0.0, 0.0, 0.0, 0.0, 0.0, 0.0, 0.0, 1.676047364064684E9, 0.0, 2023-02-10 11:42:44.064
190.0, 7161.767144413847, 187500.0, 187500.0, 187500.0, -187500.02235174447, 187500.0, -187500.02235174447, -187500.02235174447, -0.022, 0.032, 0.996, 192.0, 0.0, 0.0, 0.0, 0.0, 0.0, 0.0, 0.0, 0.0, 0.0, 1.67604736407127E9, 0.0, 2023-02-10 11:42:44.071
191.0, 7123.12097825062, 187500.0, 187500.0, 187500.0, -187500.02235174447, 187500.0, -187500.02235174447, -187500.02235174447, -0.022, 0.032, 0.996, 192.0, 0.0, 0.0, 0.0, 0.0, 0.0, 0.0, 0.0, 0.0, 0.0, 1.67604736407131E9, 0.0, 2023-02-10 11:42:44.071
192.0, 6749.757438869172, 187500.0, 187500.0, 187500.0, -187500.02235174447, 187500.0, -187500.02235174447, -187500.02235174447, -0.022, 0.032, 0.996, 192.0, 0.0, 0.0, 0.0, 0.0, 0.0, 0.0, 0.0, 0.0, 0.0, 1.676047364077898E9, 0.0, 2023-02-10 11:42:44.077
193.0, 6893.322693505609, 187500.0, 187500.0, 187500.0, -187500.02235174447, 187500.0, -187500.02235174447, -187500.02235174447, -0.022, 0.032, 0.996, 192.0, 0.0, 0.0, 0.0, 0.0, 0.0, 0.0, 0.0, 0.0, 0.0, 1.676047364078022E9, 0.0, 2023-02-10 11:42:44.078
194.0, 7127.166643997031, 187500.0, 187500.0, 187500.0, -187500.02235174447, 187500.0, -187500.02235174447, -187500.02235174447, -0.024, 0.028, 0.998, 192.0, 255.0, 64.0, 0.0, 224.0, 31.0, 48.0, 0.0, 0.0, 0.0, 1.67604736408592E9, 0.0, 2023-02-10 11:42:44.085
195.0, 7017.866613610579, 187500.0, 187500.0, 187500.0, -187500.02235174447, 187500.0, -187500.02235174447, -187500.02235174447, -0.024, 0.028, 0.998, 192.0, 0.0, 0.0, 0.0, 0.0, 0.0, 0.0, 0.0, 0.0, 0.0, 1.676047364085941E9, 0.0, 2023-02-10 11:42:44.085
196.0, 6831.318954386587, 187500.0, 187500.0, 187500.0, -187500.02235174447, 187500.0, -187500.02235174447, -187500.02235174447, -0.024, 0.028, 0.998, 192.0, 0.0, 0.0, 0.0, 0.0, 0.0, 0.0, 0.0, 0.0, 0.0, 1.676047364093926E9, 0.0, 2023-02-10 11:42:44.093
197.0, 7059.753782719825, 187500.0, 187500.0, 187500.0, -187500.02235174447, 187500.0, -187500.02235174447, -187500.02235174447, -0.024, 0.028, 0.998, 192.0, 0.0, 0.0, 0.0, 0.0, 0.0, 0.0, 0.0, 0.0, 0.0, 1.676047364093951E9, 0.0, 2023-02-10 11:42:44.093
198.0, 6987.378834173541, 187500.0, 187500.0, 187500.0, -187500.02235174447, 187500.0, -187500.02235174447, -187500.02235174447, -0.024, 0.028, 0.998, 192.0, 0.0, 0.0, 0.0, 0.0, 0.0, 0.0, 0.0, 0.0, 0.0, 1.67604736410088E9, 0.0, 2023-02-10 11:42:44.100
199.0, 6864.533646647174, 187500.0, 187500.0, 187500.0, -187500.02235174447, 187500.0, -187500.02235174447, -187500.02235174447, -0.024, 0.028, 0.998, 192.0, 0.0, 0.0, 0.0, 0.0, 0.0, 0.0, 0.0, 0.0, 0.0, 1.676047364100901E9, 0.0, 2023-02-10 11:42:44.100
200.0, 6849.490922628752, 187500.0, 187500.0, 187500.0, -187500.02235174447, 187500.0, -187500.02235174447, -187500.02235174447, -0.024, 0.028, 0.998, 192.0, 0.0, 0.0, 0.0, 0.0, 0.0, 0.0, 0.0, 0.0, 0.0, 1.676047364107416E9, 0.0, 2023-02-10 11:42:44.107
201.0, 6980.248627692298, 187500.0, 187500.0, 187500.0, -187500.02235174447, 187500.0, -187500.02235174447, -187500.02235174447, -0.024, 0.028, 0.998, 192.0, 0.0, 0.0, 0.0, 0.0, 0.0, 0.0, 0.0, 0.0, 0.0, 1.676047364107436E9, 0.0, 2023-02-10 11:42:44.107
202.0, 7072.650739270537, 187500.0, 187500.0, 187500.0, -187500.02235174447, 187500.0, -187500.02235174447, -187500.02235174447, -0.024, 0.028, 0.998, 192.0, 0.0, 0.0, 0.0, 0.0, 0.0, 0.0, 0.0, 0.0, 0.0, 1.676047364115474E9, 0.0, 2023-02-10 11:42:44.115
203.0, 7018.358351988596, 187500.0, 187500.0, 187500.0, -187500.02235174447, 187500.0, -187500.02235174447, -187500.02235174447, -0.024, 0.028, 0.998, 192.0, 0.0, 0.0, 0.0, 0.0, 0.0, 0.0, 0.0, 0.0, 0.0, 1.676047364123518E9, 0.0, 2023-02-10 11:42:44.123
204.0, 7318.54228002337, 187500.0, 187500.0, 187500.0, -187500.02235174447, 187500.0, -187500.02235174447, -187500.02235174447, -0.024, 0.034, 0.998, 192.0, 255.0, 64.0, 1.0, 16.0, 31.0, 48.0, 0.0, 0.0, 0.0, 1.676047364123537E9, 0.0, 2023-02-10 11:42:44.123
205.0, 7096.902382004546, 187500.0, 187500.0, 187500.0, -187500.02235174447, 187500.0, -187500.02235174447, -187500.02235174447, -0.024, 0.034, 0.998, 192.0, 0.0, 0.0, 0.0, 0.0, 0.0, 0.0, 0.0, 0.0, 0.0, 1.676047364130029E9, 0.0, 2023-02-10 11:42:44.130
206.0, 6679.684720001784, 187500.0, 187500.0, 187500.0, -187500.02235174447, 187500.0, -187500.02235174447, -187500.02235174447, -0.024, 0.034, 0.998, 192.0, 0.0, 0.0, 0.0, 0.0, 0.0, 0.0, 0.0, 0.0, 0.0, 1.676047364130046E9, 0.0, 2023-02-10 11:42:44.130
207.0, 6754.607767415973, 187500.0, 187500.0, 187500.0, -187500.02235174447, 187500.0, -187500.02235174447, -187500.02235174447, -0.024, 0.034, 0.998, 192.0, 0.0, 0.0, 0.0, 0.0, 0.0, 0.0, 0.0, 0.0, 0.0, 1.67604736413812E9, 0.0, 2023-02-10 11:42:44.138
208.0, 6772.869142635959, 187500.0, 187500.0, 187500.0, -187500.02235174447, 187500.0, -187500.02235174447, -187500.02235174447, -0.024, 0.034, 0.998, 192.0, 0.0, 0.0, 0.0, 0.0, 0.0, 0.0, 0.0, 0.0, 0.0, 1.676047364138266E9, 0.0, 2023-02-10 11:42:44.138
209.0, 6884.918437590413, 187500.0, 187500.0, 187500.0, -187500.02235174447, 187500.0, -187500.02235174447, -187500.02235174447, -0.024, 0.034, 0.998, 192.0, 0.0, 0.0, 0.0, 0.0, 0.0, 0.0, 0.0, 0.0, 0.0, 1.676047364146291E9, 0.0, 2023-02-10 11:42:44.146
210.0, 6909.103025091055, 187500.0, 187500.0, 187500.0, -187500.02235174447, 187500.0, -187500.02235174447, -187500.02235174447, -0.024, 0.034, 0.998, 192.0, 0.0, 0.0, 0.0, 0.0, 0.0, 0.0, 0.0, 0.0, 0.0, 1.676047364146319E9, 0.0, 2023-02-10 11:42:44.146
211.0, 6834.336439888053, 187500.0, 187500.0, 187500.0, -187500.02235174447, 187500.0, -187500.02235174447, -187500.02235174447, -0.024, 0.034, 0.998, 192.0, 0.0, 0.0, 0.0, 0.0, 0.0, 0.0, 0.0, 0.0, 0.0, 1.676047364153232E9, 0.0, 2023-02-10 11:42:44.153
212.0, 6758.653433162383, 187500.0, 187500.0, 187500.0, -187500.02235174447, 187500.0, -187500.02235174447, -187500.02235174447, -0.024, 0.034, 0.998, 192.0, 0.0, 0.0, 0.0, 0.0, 0.0, 0.0, 0.0, 0.0, 0.0, 1.676047364153253E9, 0.0, 2023-02-10 11:42:44.153
213.0, 7084.698329531948, 187500.0, 187500.0, 187500.0, -187500.02235174447, 187500.0, -187500.02235174447, -187500.02235174447, -0.024, 0.034, 0.998, 192.0, 0.0, 0.0, 0.0, 0.0, 0.0, 0.0, 0.0, 0.0, 0.0, 1.676047364160802E9, 0.0, 2023-02-10 11:42:44.160
214.0, 7340.067009933831, 187500.0, 187500.0, 187500.0, -187500.02235174447, 187500.0, -187500.02235174447, -187500.02235174447, -0.022, 0.034, 0.996, 192.0, 255.0, 80.0, 1.0, 16.0, 31.0, 32.0, 0.0, 0.0, 0.0, 1.676047364160825E9, 0.0, 2023-02-10 11:42:44.160
215.0, 6855.1459139759445, 187500.0, 187500.0, 187500.0, -187500.02235174447, 187500.0, -187500.02235174447, -187500.02235174447, -0.022, 0.034, 0.996, 192.0, 0.0, 0.0, 0.0, 0.0, 0.0, 0.0, 0.0, 0.0, 0.0, 1.67604736416876E9, 0.0, 2023-02-10 11:42:44.168
216.0, 6628.588632176952, 187500.0, 187500.0, 187500.0, -187500.02235174447, 187500.0, -187500.02235174447, -187500.02235174447, -0.022, 0.034, 0.996, 192.0, 0.0, 0.0, 0.0, 0.0, 0.0, 0.0, 0.0, 0.0, 0.0, 1.676047364168782E9, 0.0, 2023-02-10 11:42:44.168
217.0, 6755.904168594381, 187500.0, 187500.0, 187500.0, -187500.02235174447, 187500.0, -187500.02235174447, -187500.02235174447, -0.022, 0.034, 0.996, 192.0, 0.0, 0.0, 0.0, 0.0, 0.0, 0.0, 0.0, 0.0, 0.0, 1.676047364175902E9, 0.0, 2023-02-10 11:42:44.175
218.0, 6883.845553856559, 187500.0, 187500.0, 187500.0, -187500.02235174447, 187500.0, -187500.02235174447, -187500.02235174447, -0.022, 0.034, 0.996, 192.0, 0.0, 0.0, 0.0, 0.0, 0.0, 0.0, 0.0, 0.0, 0.0, 1.676047364182855E9, 0.0, 2023-02-10 11:42:44.182
219.0, 6907.828975657103, 187500.0, 187500.0, 187500.0, -187500.02235174447, 187500.0, -187500.02235174447, -187500.02235174447, -0.022, 0.034, 0.996, 192.0, 0.0, 0.0, 0.0, 0.0, 0.0, 0.0, 0.0, 0.0, 0.0, 1.676047364182876E9, 0.0, 2023-02-10 11:42:44.182
220.0, 6821.461835081796, 187500.0, 187500.0, 187500.0, -187500.02235174447, 187500.0, -187500.02235174447, -187500.02235174447, -0.022, 0.034, 0.996, 192.0, 0.0, 0.0, 0.0, 0.0, 0.0, 0.0, 0.0, 0.0, 0.0, 1.676047364190376E9, 0.0, 2023-02-10 11:42:44.190
221.0, 6862.83491406857, 187500.0, 187500.0, 187500.0, -187500.02235174447, 187500.0, -187500.02235174447, -187500.02235174447, -0.022, 0.034, 0.996, 192.0, 0.0, 0.0, 0.0, 0.0, 0.0, 0.0, 0.0, 0.0, 0.0, 1.6760473641904E9, 0.0, 2023-02-10 11:42:44.190
222.0, 6978.728709069337, 187500.0, 187500.0, 187500.0, -187500.02235174447, 187500.0, -187500.02235174447, -187500.02235174447, -0.022, 0.034, 0.996, 192.0, 0.0, 0.0, 0.0, 0.0, 0.0, 0.0, 0.0, 0.0, 0.0, 1.676047364198505E9, 0.0, 2023-02-10 11:42:44.198
223.0, 6795.3326458135425, 187500.0, 187500.0, 187500.0, -187500.02235174447, 187500.0, -187500.02235174447, -187500.02235174447, -0.022, 0.034, 0.996, 192.0, 0.0, 0.0, 0.0, 0.0, 0.0, 0.0, 0.0, 0.0, 0.0, 1.676047364198625E9, 0.0, 2023-02-10 11:42:44.198
224.0, 6754.898340093892, 187500.0, 187500.0, 187500.0, -187500.02235174447, 187500.0, -187500.02235174447, -187500.02235174447, -0.028, 0.032, 0.994, 192.0, 255.0, 32.0, 1.0, 0.0, 31.0, 16.0, 0.0, 0.0, 0.0, 1.67604736420642E9, 0.0, 2023-02-10 11:42:44.206
225.0, 6826.200404906322, 187500.0, 187500.0, 187500.0, -187500.02235174447, 187500.0, -187500.02235174447, -187500.02235174447, -0.028, 0.032, 0.994, 192.0, 0.0, 0.0, 0.0, 0.0, 0.0, 0.0, 0.0, 0.0, 0.0, 1.676047364206441E9, 0.0, 2023-02-10 11:42:44.206
226.0, 6996.274828466753, 187500.0, 187500.0, 187500.0, -187500.02235174447, 187500.0, -187500.02235174447, -187500.02235174447, -0.028, 0.032, 0.994, 192.0, 0.0, 0.0, 0.0, 0.0, 0.0, 0.0, 0.0, 0.0, 0.0, 1.676047364213385E9, 0.0, 2023-02-10 11:42:44.213
227.0, 6979.6451305920045, 187500.0, 187500.0, 187500.0, -187500.02235174447, 187500.0, -187500.02235174447, -187500.02235174447, -0.028, 0.032, 0.994, 192.0, 0.0, 0.0, 0.0, 0.0, 0.0, 0.0, 0.0, 0.0, 0.0, 1.6760473642134E9, 0.0, 2023-02-10 11:42:44.213
228.0, 6677.069565900513, 187500.0, 187500.0, 187500.0, -187500.02235174447, 187500.0, -187500.02235174447, -187500.02235174447, -0.028, 0.032, 0.994, 192.0, 0.0, 0.0, 0.0, 0.0, 0.0, 0.0, 0.0, 0.0, 0.0, 1.676047364220936E9, 0.0, 2023-02-10 11:42:44.220
229.0, 6633.126036301379, 187500.0, 187500.0, 187500.0, -187500.02235174447, 187500.0, -187500.02235174447, -187500.02235174447, -0.028, 0.032, 0.994, 192.0, 0.0, 0.0, 0.0, 0.0, 0.0, 0.0, 0.0, 0.0, 0.0, 1.676047364220953E9, 0.0, 2023-02-10 11:42:44.220
230.0, 6789.63295097744, 187500.0, 187500.0, 187500.0, -187500.02235174447, 187500.0, -187500.02235174447, -187500.02235174447, -0.028, 0.032, 0.994, 192.0, 0.0, 0.0, 0.0, 0.0, 0.0, 0.0, 0.0, 0.0, 0.0, 1.676047364229084E9, 0.0, 2023-02-10 11:42:44.229
231.0, 7006.824851849658, 187500.0, 187500.0, 187500.0, -187500.02235174447, 187500.0, -187500.02235174447, -187500.02235174447, -0.028, 0.032, 0.994, 192.0, 0.0, 0.0, 0.0, 0.0, 0.0, 0.0, 0.0, 0.0, 0.0, 1.676047364229105E9, 0.0, 2023-02-10 11:42:44.229
232.0, 7028.10371257111, 187500.0, 187500.0, 187500.0, -187500.02235174447, 187500.0, -187500.02235174447, -187500.02235174447, -0.028, 0.032, 0.994, 192.0, 0.0, 0.0, 0.0, 0.0, 0.0, 0.0, 0.0, 0.0, 0.0, 1.676047364236103E9, 0.0, 2023-02-10 11:42:44.236
233.0, 6744.258909733166, 187500.0, 187500.0, 187500.0, -187500.02235174447, 187500.0, -187500.02235174447, -187500.02235174447, -0.028, 0.03, 1.002, 192.0, 255.0, 32.0, 0.0, 240.0, 31.0, 80.0, 0.0, 0.0, 0.0, 1.6760473642433E9, 0.0, 2023-02-10 11:42:44.243
234.0, 6813.661076266894, 187500.0, 187500.0, 187500.0, -187500.02235174447, 187500.0, -187500.02235174447, -187500.02235174447, -0.028, 0.03, 1.002, 192.0, 0.0, 0.0, 0.0, 0.0, 0.0, 0.0, 0.0, 0.0, 0.0, 1.676047364243348E9, 0.0, 2023-02-10 11:42:44.243
235.0, 7090.6438935570595, 187500.0, 187500.0, 187500.0, -187500.02235174447, 187500.0, -187500.02235174447, -187500.02235174447, -0.028, 0.03, 1.002, 192.0, 0.0, 0.0, 0.0, 0.0, 0.0, 0.0, 0.0, 0.0, 0.0, 1.676047364250737E9, 0.0, 2023-02-10 11:42:44.250
236.0, 6907.98543786829, 187500.0, 187500.0, 187500.0, -187500.02235174447, 187500.0, -187500.02235174447, -187500.02235174447, -0.028, 0.03, 1.002, 192.0, 0.0, 0.0, 0.0, 0.0, 0.0, 0.0, 0.0, 0.0, 0.0, 1.676047364250762E9, 0.0, 2023-02-10 11:42:44.250
237.0, 6401.226687577569, 187500.0, 187500.0, 187500.0, -187500.02235174447, 187500.0, -187500.02235174447, -187500.02235174447, -0.028, 0.03, 1.002, 192.0, 0.0, 0.0, 0.0, 0.0, 0.0, 0.0, 0.0, 0.0, 0.0, 1.676047364258844E9, 0.0, 2023-02-10 11:42:44.258
238.0, 6740.2132439867555, 187500.0, 187500.0, 187500.0, -187500.02235174447, 187500.0, -187500.02235174447, -187500.02235174447, -0.028, 0.03, 1.002, 192.0, 0.0, 0.0, 0.0, 0.0, 0.0, 0.0, 0.0, 0.0, 0.0, 1.676047364258978E9, 0.0, 2023-02-10 11:42:44.258
239.0, 7071.711966003414, 187500.0, 187500.0, 187500.0, -187500.02235174447, 187500.0, -187500.02235174447, -187500.02235174447, -0.028, 0.03, 1.002, 192.0, 0.0, 0.0, 0.0, 0.0, 0.0, 0.0, 0.0, 0.0, 0.0, 1.676047364265864E9, 0.0, 2023-02-10 11:42:44.265
240.0, 6726.466921146742, 187500.0, 187500.0, 187500.0, -187500.02235174447, 187500.0, -187500.02235174447, -187500.02235174447, -0.028, 0.03, 1.002, 192.0, 0.0, 0.0, 0.0, 0.0, 0.0, 0.0, 0.0, 0.0, 0.0, 1.676047364265885E9, 0.0, 2023-02-10 11:42:44.265
241.0, 6700.85182200096, 187500.0, 187500.0, 187500.0, -187500.02235174447, 187500.0, -187500.02235174447, -187500.02235174447, -0.028, 0.03, 1.002, 192.0, 0.0, 0.0, 0.0, 0.0, 0.0, 0.0, 0.0, 0.0, 0.0, 1.676047364273305E9, 0.0, 2023-02-10 11:42:44.273
242.0, 6753.467828448753, 187500.0, 187500.0, 187500.0, -187500.02235174447, 187500.0, -187500.02235174447, -187500.02235174447, -0.028, 0.03, 1.002, 192.0, 0.0, 0.0, 0.0, 0.0, 0.0, 0.0, 0.0, 0.0, 0.0, 1.676047364273349E9, 0.0, 2023-02-10 11:42:44.273
243.0, 6861.806733823626, 187500.0, 187500.0, 187500.0, -187500.02235174447, 187500.0, -187500.02235174447, -187500.02235174447, -0.03, 0.03, 1.002, 192.0, 255.0, 16.0, 0.0, 240.0, 31.0, 80.0, 0.0, 0.0, 0.0, 1.676047364281442E9, 0.0, 2023-02-10 11:42:44.281
244.0, 6943.211787129854, 187500.0, 187500.0, 187500.0, -187500.02235174447, 187500.0, -187500.02235174447, -187500.02235174447, -0.03, 0.03, 1.002, 192.0, 0.0, 0.0, 0.0, 0.0, 0.0, 0.0, 0.0, 0.0, 0.0, 1.676047364281465E9, 0.0, 2023-02-10 11:42:44.281
245.0, 6928.705504978359, 187500.0, 187500.0, 187500.0, -187500.02235174447, 187500.0, -187500.02235174447, -187500.02235174447, -0.03, 0.03, 1.002, 192.0, 0.0, 0.0, 0.0, 0.0, 0.0, 0.0, 0.0, 0.0, 0.0, 1.676047364288514E9, 0.0, 2023-02-10 11:42:44.288
246.0, 6660.50692325913, 187500.0, 187500.0, 187500.0, -187500.02235174447, 187500.0, -187500.02235174447, -187500.02235174447, -0.03, 0.03, 1.002, 192.0, 0.0, 0.0, 0.0, 0.0, 0.0, 0.0, 0.0, 0.0, 0.0, 1.676047364288535E9, 0.0, 2023-02-10 11:42:44.288
247.0, 6706.059778459046, 187500.0, 187500.0, 187500.0, -187500.02235174447, 187500.0, -187500.02235174447, -187500.02235174447, -0.03, 0.03, 1.002, 192.0, 0.0, 0.0, 0.0, 0.0, 0.0, 0.0, 0.0, 0.0, 0.0, 1.67604736429645E9, 0.0, 2023-02-10 11:42:44.296
248.0, 6786.950741642802, 187500.0, 187500.0, 187500.0, -187500.02235174447, 187500.0, -187500.02235174447, -187500.02235174447, -0.03, 0.03, 1.002, 192.0, 0.0, 0.0, 0.0, 0.0, 0.0, 0.0, 0.0, 0.0, 0.0, 1.676047364302969E9, 0.0, 2023-02-10 11:42:44.302
249.0, 6787.1742590873555, 187500.0, 187500.0, 187500.0, -187500.02235174447, 187500.0, -187500.02235174447, -187500.02235174447, -0.03, 0.03, 1.002, 192.0, 0.0, 0.0, 0.0, 0.0, 0.0, 0.0, 0.0, 0.0, 0.0, 1.676047364302981E9, 0.0, 2023-02-10 11:42:44.302
250.0, 6721.415426899842, 187500.0, 187500.0, 187500.0, -187500.02235174447, 187500.0, -187500.02235174447, -187500.02235174447, -0.03, 0.03, 1.002, 192.0, 0.0, 0.0, 0.0, 0.0, 0.0, 0.0, 0.0, 0.0, 0.0, 1.676047364310979E9, 0.0, 2023-02-10 11:42:44.310
251.0, 6810.710645998794, 187500.0, 187500.0, 187500.0, -187500.02235174447, 187500.0, -187500.02235174447, -187500.02235174447, -0.03, 0.03, 1.002, 192.0, 0.0, 0.0, 0.0, 0.0, 0.0, 0.0, 0.0, 0.0, 0.0, 1.676047364311008E9, 0.0, 2023-02-10 11:42:44.311
252.0, 6783.910904396881, 187500.0, 187500.0, 187500.0, -187500.02235174447, 187500.0, -187500.02235174447, -187500.02235174447, -0.03, 0.03, 1.002, 192.0, 0.0, 0.0, 0.0, 0.0, 0.0, 0.0, 0.0, 0.0, 0.0, 1.676047364318158E9, 0.0, 2023-02-10 11:42:44.318
253.0, 6616.988076804648, 187500.0, 187500.0, 187500.0, -187500.02235174447, 187500.0, -187500.02235174447, -187500.02235174447, -0.028, 0.028, 1.002, 192.0, 255.0, 32.0, 0.0, 224.0, 31.0, 80.0, 0.0, 0.0, 0.0, 1.676047364318312E9, 0.0, 2023-02-10 11:42:44.318
254.0, 6675.9966821666585, 187500.0, 187500.0, 187500.0, -187500.02235174447, 187500.0, -187500.02235174447, -187500.02235174447, -0.028, 0.028, 1.002, 192.0, 0.0, 0.0, 0.0, 0.0, 0.0, 0.0, 0.0, 0.0, 0.0, 1.676047364325691E9, 0.0, 2023-02-10 11:42:44.325
255.0, 6802.708721483794, 187500.0, 187500.0, 187500.0, -187500.02235174447, 187500.0, -187500.02235174447, -187500.02235174447, -0.028, 0.028, 1.002, 192.0, 0.0, 0.0, 0.0, 0.0, 0.0, 0.0, 0.0, 0.0, 0.0, 1.676047364325721E9, 0.0, 2023-02-10 11:42:44.325
0.0, 6833.9564602323135, 187500.0, 187500.0, 187500.0, -187500.02235174447, 187500.0, -187500.02235174447, -187500.02235174447, -0.028, 0.028, 1.002, 192.0, 0.0, 0.0, 0.0, 0.0, 0.0, 0.0, 0.0, 0.0, 0.0, 1.676047364333614E9, 0.0, 2023-02-10 11:42:44.333
1.0, 6922.536423508695, 187500.0, 187500.0, 187500.0, -187500.02235174447, 187500.0, -187500.02235174447, -187500.02235174447, -0.028, 0.028, 1.002, 192.0, 0.0, 0.0, 0.0, 0.0, 0.0, 0.0, 0.0, 0.0, 0.0, 1.676047364333636E9, 0.0, 2023-02-10 11:42:44.333
2.0, 6880.738661377271, 187500.0, 187500.0, 187500.0, -187500.02235174447, 187500.0, -187500.02235174447, -187500.02235174447, -0.028, 0.028, 1.002, 192.0, 0.0, 0.0, 0.0, 0.0, 0.0, 0.0, 0.0, 0.0, 0.0, 1.676047364341753E9, 0.0, 2023-02-10 11:42:44.341
3.0, 6702.2823336461, 187500.0, 187500.0, 187500.0, -187500.02235174447, 187500.0, -187500.02235174447, -187500.02235174447, -0.028, 0.028, 1.002, 192.0, 0.0, 0.0, 0.0, 0.0, 0.0, 0.0, 0.0, 0.0, 0.0, 1.676047364341778E9, 0.0, 2023-02-10 11:42:44.341
4.0, 6818.2878873691425, 187500.0, 187500.0, 187500.0, -187500.02235174447, 187500.0, -187500.02235174447, -187500.02235174447, -0.028, 0.028, 1.002, 192.0, 0.0, 0.0, 0.0, 0.0, 0.0, 0.0, 0.0, 0.0, 0.0, 1.676047364348394E9, 0.0, 2023-02-10 11:42:44.348
5.0, 6693.207525397244, 187500.0, 187500.0, 187500.0, -187500.02235174447, 187500.0, -187500.02235174447, -187500.02235174447, -0.028, 0.028, 1.002, 192.0, 0.0, 0.0, 0.0, 0.0, 0.0, 0.0, 0.0, 0.0, 0.0, 1.676047364348416E9, 0.0, 2023-02-10 11:42:44.348
6.0, 6592.110585225891, 187500.0, 187500.0, 187500.0, -187500.02235174447, 187500.0, -187500.02235174447, -187500.02235174447, -0.028, 0.028, 1.002, 192.0, 0.0, 0.0, 0.0, 0.0, 0.0, 0.0, 0.0, 0.0, 0.0, 1.676047364355363E9, 0.0, 2023-02-10 11:42:44.355
7.0, 6627.538100187552, 187500.0, 187500.0, 187500.0, -187500.02235174447, 187500.0, -187500.02235174447, -187500.02235174447, -0.026000000000000002, 0.028, 1.008, 192.0, 255.0, 48.0, 0.0, 224.0, 31.0, 128.0, 0.0, 0.0, 0.0, 1.676047364355389E9, 0.0, 2023-02-10 11:42:44.355
8.0, 6713.189984940289, 187500.0, 187500.0, 187500.0, -187500.02235174447, 187500.0, -187500.02235174447, -187500.02235174447, -0.026000000000000002, 0.028, 1.008, 192.0, 0.0, 0.0, 0.0, 0.0, 0.0, 0.0, 0.0, 0.0, 0.0, 1.676047364363212E9, 0.0, 2023-02-10 11:42:44.363
9.0, 6791.443442278319, 187500.0, 187500.0, 187500.0, -187500.02235174447, 187500.0, -187500.02235174447, -187500.02235174447, -0.026000000000000002, 0.028, 1.008, 192.0, 0.0, 0.0, 0.0, 0.0, 0.0, 0.0, 0.0, 0.0, 0.0, 1.676047364371245E9, 0.0, 2023-02-10 11:42:44.371
10.0, 7023.052218324211, 187500.0, 187500.0, 187500.0, -187500.02235174447, 187500.0, -187500.02235174447, -187500.02235174447, -0.026000000000000002, 0.028, 1.008, 192.0, 0.0, 0.0, 0.0, 0.0, 0.0, 0.0, 0.0, 0.0, 0.0, 1.676047364371266E9, 0.0, 2023-02-10 11:42:44.371
11.0, 7009.976447817857, 187500.0, 187500.0, 187500.0, -187500.02235174447, 187500.0, -187500.02235174447, -187500.02235174447, -0.026000000000000002, 0.028, 1.008, 192.0, 0.0, 0.0, 0.0, 0.0, 0.0, 0.0, 0.0, 0.0, 0.0, 1.676047364377934E9, 0.0, 2023-02-10 11:42:44.377
12.0, 6503.038883571492, 187500.0, 187500.0, 187500.0, -187500.02235174447, 187500.0, -187500.02235174447, -187500.02235174447, -0.026000000000000002, 0.028, 1.008, 192.0, 0.0, 0.0, 0.0, 0.0, 0.0, 0.0, 0.0, 0.0, 0.0, 1.676047364377953E9, 0.0, 2023-02-10 11:42:44.377
13.0, 6437.727086273085, 187500.0, 187500.0, 187500.0, -187500.02235174447, 187500.0, -187500.02235174447, -187500.02235174447, -0.026000000000000002, 0.028, 1.008, 192.0, 0.0, 0.0, 0.0, 0.0, 0.0, 0.0, 0.0, 0.0, 0.0, 1.676047364385755E9, 0.0, 2023-02-10 11:42:44.385
14.0, 6387.525068226465, 187500.0, 187500.0, 187500.0, -187500.02235174447, 187500.0, -187500.02235174447, -187500.02235174447, -0.026000000000000002, 0.028, 1.008, 192.0, 0.0, 0.0, 0.0, 0.0, 0.0, 0.0, 0.0, 0.0, 0.0, 1.676047364385773E9, 0.0, 2023-02-10 11:42:44.385
15.0, 6717.839147786993, 187500.0, 187500.0, 187500.0, -187500.02235174447, 187500.0, -187500.02235174447, -187500.02235174447, -0.026000000000000002, 0.028, 1.008, 192.0, 0.0, 0.0, 0.0, 0.0, 0.0, 0.0, 0.0, 0.0, 0.0, 1.676047364393953E9, 0.0, 2023-02-10 11:42:44.393
16.0, 6890.104042304045, 187500.0, 187500.0, 187500.0, -187500.02235174447, 187500.0, -187500.02235174447, -187500.02235174447, -0.026000000000000002, 0.028, 1.008, 192.0, 0.0, 0.0, 0.0, 0.0, 0.0, 0.0, 0.0, 0.0, 0.0, 1.676047364393982E9, 0.0, 2023-02-10 11:42:44.393
17.0, 7130.944088809978, 187500.0, 187500.0, 187500.0, -187500.02235174447, 187500.0, -187500.02235174447, -187500.02235174447, -0.026000000000000002, 0.03, 1.008, 192.0, 255.0, 48.0, 0.0, 240.0, 31.0, 128.0, 0.0, 0.0, 0.0, 1.676047364401077E9, 0.0, 2023-02-10 11:42:44.401
18.0, 6813.571669289073, 187500.0, 187500.0, 187500.0, -187500.02235174447, 187500.0, -187500.02235174447, -187500.02235174447, -0.026000000000000002, 0.03, 1.008, 192.0, 0.0, 0.0, 0.0, 0.0, 0.0, 0.0, 0.0, 0.0, 0.0, 1.676047364401104E9, 0.0, 2023-02-10 11:42:44.401
19.0, 6378.316149510879, 187500.0, 187500.0, 187500.0, -187500.02235174447, 187500.0, -187500.02235174447, -187500.02235174447, -0.026000000000000002, 0.03, 1.008, 192.0, 0.0, 0.0, 0.0, 0.0, 0.0, 0.0, 0.0, 0.0, 0.0, 1.676047364408807E9, 0.0, 2023-02-10 11:42:44.408
20.0, 6533.213738586157, 187500.0, 187500.0, 187500.0, -187500.02235174447, 187500.0, -187500.02235174447, -187500.02235174447, -0.026000000000000002, 0.03, 1.008, 192.0, 0.0, 0.0, 0.0, 0.0, 0.0, 0.0, 0.0, 0.0, 0.0, 1.67604736440884E9, 0.0, 2023-02-10 11:42:44.408
21.0, 6629.8626816109045, 187500.0, 187500.0, 187500.0, -187500.02235174447, 187500.0, -187500.02235174447, -187500.02235174447, -0.026000000000000002, 0.03, 1.008, 192.0, 0.0, 0.0, 0.0, 0.0, 0.0, 0.0, 0.0, 0.0, 0.0, 1.676047364416587E9, 0.0, 2023-02-10 11:42:44.416
22.0, 6591.082404980946, 187500.0, 187500.0, 187500.0, -187500.02235174447, 187500.0, -187500.02235174447, -187500.02235174447, -0.026000000000000002, 0.03, 1.008, 192.0, 0.0, 0.0, 0.0, 0.0, 0.0, 0.0, 0.0, 0.0, 0.0, 1.676047364416611E9, 0.0, 2023-02-10 11:42:44.416
23.0, 6590.3000939250105, 187500.0, 187500.0, 187500.0, -187500.02235174447, 187500.0, -187500.02235174447, -187500.02235174447, -0.026000000000000002, 0.03, 1.008, 192.0, 0.0, 0.0, 0.0, 0.0, 0.0, 0.0, 0.0, 0.0, 0.0, 1.676047364423686E9, 0.0, 2023-02-10 11:42:44.423
24.0, 6691.821717241016, 187500.0, 187500.0, 187500.0, -187500.02235174447, 187500.0, -187500.02235174447, -187500.02235174447, -0.026000000000000002, 0.03, 1.008, 192.0, 0.0, 0.0, 0.0, 0.0, 0.0, 0.0, 0.0, 0.0, 0.0, 1.676047364430636E9, 0.0, 2023-02-10 11:42:44.430
25.0, 6691.620551540917, 187500.0, 187500.0, 187500.0, -187500.02235174447, 187500.0, -187500.02235174447, -187500.02235174447, -0.026000000000000002, 0.03, 1.008, 192.0, 0.0, 0.0, 0.0, 0.0, 0.0, 0.0, 0.0, 0.0, 0.0, 1.676047364430659E9, 0.0, 2023-02-10 11:42:44.430
26.0, 6570.764669271072, 187500.0, 187500.0, 187500.0, -187500.02235174447, 187500.0, -187500.02235174447, -187500.02235174447, -0.024, 0.03, 0.998, 192.0, 255.0, 64.0, 0.0, 240.0, 31.0, 48.0, 0.0, 0.0, 0.0, 1.676047364438206E9, 0.0, 2023-02-10 11:42:44.438
27.0, 6615.915193070793, 187500.0, 187500.0, 187500.0, -187500.02235174447, 187500.0, -187500.02235174447, -187500.02235174447, -0.024, 0.03, 0.998, 192.0, 0.0, 0.0, 0.0, 0.0, 0.0, 0.0, 0.0, 0.0, 0.0, 1.676047364438228E9, 0.0, 2023-02-10 11:42:44.438
28.0, 6654.561359234019, 187500.0, 187500.0, 187500.0, -187500.02235174447, 187500.0, -187500.02235174447, -187500.02235174447, -0.024, 0.03, 0.998, 192.0, 0.0, 0.0, 0.0, 0.0, 0.0, 0.0, 0.0, 0.0, 0.0, 1.676047364446217E9, 0.0, 2023-02-10 11:42:44.446
29.0, 6613.612963391896, 187500.0, 187500.0, 187500.0, -187500.02235174447, 187500.0, -187500.02235174447, -187500.02235174447, -0.024, 0.03, 0.998, 192.0, 0.0, 0.0, 0.0, 0.0, 0.0, 0.0, 0.0, 0.0, 0.0, 1.676047364446249E9, 0.0, 2023-02-10 11:42:44.446
30.0, 6725.550499624074, 187500.0, 187500.0, 187500.0, -187500.02235174447, 187500.0, -187500.02235174447, -187500.02235174447, -0.024, 0.03, 0.998, 192.0, 0.0, 0.0, 0.0, 0.0, 0.0, 0.0, 0.0, 0.0, 0.0, 1.676047364453123E9, 0.0, 2023-02-10 11:42:44.453
31.0, 6697.499060332663, 187500.0, 187500.0, 187500.0, -187500.02235174447, 187500.0, -187500.02235174447, -187500.02235174447, -0.024, 0.03, 0.998, 192.0, 0.0, 0.0, 0.0, 0.0, 0.0, 0.0, 0.0, 0.0, 0.0, 1.676047364453144E9, 0.0, 2023-02-10 11:42:44.453
32.0, 6707.825566271015, 187500.0, 187500.0, 187500.0, -187500.02235174447, 187500.0, -187500.02235174447, -187500.02235174447, -0.024, 0.03, 0.998, 192.0, 0.0, 0.0, 0.0, 0.0, 0.0, 0.0, 0.0, 0.0, 0.0, 1.676047364460745E9, 0.0, 2023-02-10 11:42:44.460
33.0, 6892.450975471852, 187500.0, 187500.0, 187500.0, -187500.02235174447, 187500.0, -187500.02235174447, -187500.02235174447, -0.024, 0.03, 0.998, 192.0, 0.0, 0.0, 0.0, 0.0, 0.0, 0.0, 0.0, 0.0, 0.0, 1.676047364460771E9, 0.0, 2023-02-10 11:42:44.460
34.0, 6539.092247377903, 187500.0, 187500.0, 187500.0, -187500.02235174447, 187500.0, -187500.02235174447, -187500.02235174447, -0.024, 0.03, 0.998, 192.0, 0.0, 0.0, 0.0, 0.0, 0.0, 0.0, 0.0, 0.0, 0.0, 1.67604736446872E9, 0.0, 2023-02-10 11:42:44.468
35.0, 6405.093539368337, 187500.0, 187500.0, 187500.0, -187500.02235174447, 187500.0, -187500.02235174447, -187500.02235174447, -0.024, 0.03, 0.998, 192.0, 0.0, 0.0, 0.0, 0.0, 0.0, 0.0, 0.0, 0.0, 0.0, 1.676047364468734E9, 0.0, 2023-02-10 11:42:44.468
36.0, 6539.248709589089, 187500.0, 187500.0, 187500.0, -187500.02235174447, 187500.0, -187500.02235174447, -187500.02235174447, -0.022, 0.036000000000000004, 0.998, 192.0, 255.0, 80.0, 1.0, 32.0, 31.0, 48.0, 0.0, 0.0, 0.0, 1.676047364478255E9, 0.0, 2023-02-10 11:42:44.478
37.0, 6687.105499160945, 187500.0, 187500.0, 187500.0, -187500.02235174447, 187500.0, -187500.02235174447, -187500.02235174447, -0.022, 0.036000000000000004, 0.998, 192.0, 0.0, 0.0, 0.0, 0.0, 0.0, 0.0, 0.0, 0.0, 0.0, 1.676047364478286E9, 0.0, 2023-02-10 11:42:44.478
38.0, 6669.827600696994, 187500.0, 187500.0, 187500.0, -187500.02235174447, 187500.0, -187500.02235174447, -187500.02235174447, -0.022, 0.036000000000000004, 0.998, 192.0, 0.0, 0.0, 0.0, 0.0, 0.0, 0.0, 0.0, 0.0, 0.0, 1.67604736448438E9, 0.0, 2023-02-10 11:42:44.484
39.0, 6384.105251324803, 187500.0, 187500.0, 187500.0, -187500.02235174447, 187500.0, -187500.02235174447, -187500.02235174447, -0.022, 0.036000000000000004, 0.998, 192.0, 0.0, 0.0, 0.0, 0.0, 0.0, 0.0, 0.0, 0.0, 0.0, 1.676047364490785E9, 0.0, 2023-02-10 11:42:44.490
40.0, 6538.309936321966, 187500.0, 187500.0, 187500.0, -187500.02235174447, 187500.0, -187500.02235174447, -187500.02235174447, -0.022, 0.036000000000000004, 0.998, 192.0, 0.0, 0.0, 0.0, 0.0, 0.0, 0.0, 0.0, 0.0, 0.0, 1.676047364490831E9, 0.0, 2023-02-10 11:42:44.490
41.0, 6655.947167390248, 187500.0, 187500.0, 187500.0, -187500.02235174447, 187500.0, -187500.02235174447, -187500.02235174447, -0.022, 0.036000000000000004, 0.998, 192.0, 0.0, 0.0, 0.0, 0.0, 0.0, 0.0, 0.0, 0.0, 0.0, 1.676047364498531E9, 0.0, 2023-02-10 11:42:44.498
42.0, 6595.619809105374, 187500.0, 187500.0, 187500.0, -187500.02235174447, 187500.0, -187500.02235174447, -187500.02235174447, -0.022, 0.036000000000000004, 0.998, 192.0, 0.0, 0.0, 0.0, 0.0, 0.0, 0.0, 0.0, 0.0, 0.0, 1.676047364498567E9, 0.0, 2023-02-10 11:42:44.498
43.0, 6714.464034374241, 187500.0, 187500.0, 187500.0, -187500.02235174447, 187500.0, -187500.02235174447, -187500.02235174447, -0.022, 0.036000000000000004, 0.998, 192.0, 0.0, 0.0, 0.0, 0.0, 0.0, 0.0, 0.0, 0.0, 0.0, 1.676047364506408E9, 0.0, 2023-02-10 11:42:44.506
44.0, 6828.189710162844, 187500.0, 187500.0, 187500.0, -187500.02235174447, 187500.0, -187500.02235174447, -187500.02235174447, -0.022, 0.036000000000000004, 0.998, 192.0, 0.0, 0.0, 0.0, 0.0, 0.0, 0.0, 0.0, 0.0, 0.0, 1.676047364506434E9, 0.0, 2023-02-10 11:42:44.506
45.0, 6624.78883561955, 187500.0, 187500.0, 187500.0, -187500.02235174447, 187500.0, -187500.02235174447, -187500.02235174447, -0.022, 0.036000000000000004, 0.998, 192.0, 0.0, 0.0, 0.0, 0.0, 0.0, 0.0, 0.0, 0.0, 0.0, 1.676047364513018E9, 0.0, 2023-02-10 11:42:44.513
46.0, 6490.901886332261, 187500.0, 187500.0, 187500.0, -187500.02235174447, 187500.0, -187500.02235174447, -187500.02235174447, -0.026000000000000002, 0.038, 0.998, 192.0, 255.0, 48.0, 1.0, 48.0, 31.0, 48.0, 0.0, 0.0, 0.0, 1.676047364513041E9, 0.0, 2023-02-10 11:42:44.513
47.0, 6458.894188272261, 187500.0, 187500.0, 187500.0, -187500.02235174447, 187500.0, -187500.02235174447, -187500.02235174447, -0.026000000000000002, 0.038, 0.998, 192.0, 0.0, 0.0, 0.0, 0.0, 0.0, 0.0, 0.0, 0.0, 0.0, 1.676047364521111E9, 0.0, 2023-02-10 11:42:44.521
48.0, 6519.735636679607, 187500.0, 187500.0, 187500.0, -187500.02235174447, 187500.0, -187500.02235174447, -187500.02235174447, -0.026000000000000002, 0.038, 0.998, 192.0, 0.0, 0.0, 0.0, 0.0, 0.0, 0.0, 0.0, 0.0, 0.0, 1.676047364521131E9, 0.0, 2023-02-10 11:42:44.521
49.0, 6692.648731785862, 187500.0, 187500.0, 187500.0, -187500.02235174447, 187500.0, -187500.02235174447, -187500.02235174447, -0.026000000000000002, 0.038, 0.998, 192.0, 0.0, 0.0, 0.0, 0.0, 0.0, 0.0, 0.0, 0.0, 0.0, 1.676047364529064E9, 0.0, 2023-02-10 11:42:44.529
50.0, 6734.267679961644, 187500.0, 187500.0, 187500.0, -187500.02235174447, 187500.0, -187500.02235174447, -187500.02235174447, -0.026000000000000002, 0.038, 0.998, 192.0, 0.0, 0.0, 0.0, 0.0, 0.0, 0.0, 0.0, 0.0, 0.0, 1.676047364529086E9, 0.0, 2023-02-10 11:42:44.529
51.0, 6499.596714925375, 187500.0, 187500.0, 187500.0, -187500.02235174447, 187500.0, -187500.02235174447, -187500.02235174447, -0.026000000000000002, 0.038, 0.998, 192.0, 0.0, 0.0, 0.0, 0.0, 0.0, 0.0, 0.0, 0.0, 0.0, 1.67604736453605E9, 0.0, 2023-02-10 11:42:44.536
52.0, 6548.256462604579, 187500.0, 187500.0, 187500.0, -187500.02235174447, 187500.0, -187500.02235174447, -187500.02235174447, -0.026000000000000002, 0.038, 0.998, 192.0, 0.0, 0.0, 0.0, 0.0, 0.0, 0.0, 0.0, 0.0, 0.0, 1.676047364536071E9, 0.0, 2023-02-10 11:42:44.536
53.0, 6447.584205577875, 187500.0, 187500.0, 187500.0, -187500.02235174447, 187500.0, -187500.02235174447, -187500.02235174447, -0.026000000000000002, 0.038, 0.998, 192.0, 0.0, 0.0, 0.0, 0.0, 0.0, 0.0, 0.0, 0.0, 0.0, 1.676047364543992E9, 0.0, 2023-02-10 11:42:44.543
54.0, 6540.9921456566035, 187500.0, 187500.0, 187500.0, -187500.02235174447, 187500.0, -187500.02235174447, -187500.02235174447, -0.026000000000000002, 0.038, 0.998, 192.0, 0.0, 0.0, 0.0, 0.0, 0.0, 0.0, 0.0, 0.0, 0.0, 1.676047364550647E9, 0.0, 2023-02-10 11:42:44.550
55.0, 6587.416718890277, 187500.0, 187500.0, 187500.0, -187500.02235174447, 187500.0, -187500.02235174447, -187500.02235174447, -0.026000000000000002, 0.038, 0.998, 192.0, 0.0, 0.0, 0.0, 0.0, 0.0, 0.0, 0.0, 0.0, 0.0, 1.676047364550671E9, 0.0, 2023-02-10 11:42:44.550
56.0, 6594.792794560528, 187500.0, 187500.0, 187500.0, -187500.02235174447, 187500.0, -187500.02235174447, -187500.02235174447, -0.022, 0.032, 0.996, 192.0, 255.0, 80.0, 1.0, 0.0, 31.0, 32.0, 0.0, 0.0, 0.0, 1.676047364560143E9, 0.0, 2023-02-10 11:42:44.560
57.0, 6377.779707643951, 187500.0, 187500.0, 187500.0, -187500.02235174447, 187500.0, -187500.02235174447, -187500.02235174447, -0.022, 0.032, 0.996, 192.0, 0.0, 0.0, 0.0, 0.0, 0.0, 0.0, 0.0, 0.0, 0.0, 1.67604736456017E9, 0.0, 2023-02-10 11:42:44.560
58.0, 6519.1544913237685, 187500.0, 187500.0, 187500.0, -187500.02235174447, 187500.0, -187500.02235174447, -187500.02235174447, -0.022, 0.032, 0.996, 192.0, 0.0, 0.0, 0.0, 0.0, 0.0, 0.0, 0.0, 0.0, 0.0, 1.676047364566239E9, 0.0, 2023-02-10 11:42:44.566
59.0, 6633.126036301379, 187500.0, 187500.0, 187500.0, -187500.02235174447, 187500.0, -187500.02235174447, -187500.02235174447, -0.022, 0.032, 0.996, 192.0, 0.0, 0.0, 0.0, 0.0, 0.0, 0.0, 0.0, 0.0, 0.0, 1.676047364566259E9, 0.0, 2023-02-10 11:42:44.566
60.0, 6510.303200519467, 187500.0, 187500.0, 187500.0, -187500.02235174447, 187500.0, -187500.02235174447, -187500.02235174447, -0.022, 0.032, 0.996, 192.0, 0.0, 0.0, 0.0, 0.0, 0.0, 0.0, 0.0, 0.0, 0.0, 1.676047364573259E9, 0.0, 2023-02-10 11:42:44.573
61.0, 6491.572438665919, 187500.0, 187500.0, 187500.0, -187500.02235174447, 187500.0, -187500.02235174447, -187500.02235174447, -0.022, 0.032, 0.996, 192.0, 0.0, 0.0, 0.0, 0.0, 0.0, 0.0, 0.0, 0.0, 0.0, 1.676047364573282E9, 0.0, 2023-02-10 11:42:44.573
62.0, 6574.787983273028, 187500.0, 187500.0, 187500.0, -187500.02235174447, 187500.0, -187500.02235174447, -187500.02235174447, -0.022, 0.032, 0.996, 192.0, 0.0, 0.0, 0.0, 0.0, 0.0, 0.0, 0.0, 0.0, 0.0, 1.676047364581373E9, 0.0, 2023-02-10 11:42:44.581
63.0, 6540.835683445416, 187500.0, 187500.0, 187500.0, -187500.02235174447, 187500.0, -187500.02235174447, -187500.02235174447, -0.022, 0.032, 0.996, 192.0, 0.0, 0.0, 0.0, 0.0, 0.0, 0.0, 0.0, 0.0, 0.0, 1.676047364581396E9, 0.0, 2023-02-10 11:42:44.581
64.0, 6503.530621949509, 187500.0, 187500.0, 187500.0, -187500.02235174447, 187500.0, -187500.02235174447, -187500.02235174447, -0.022, 0.032, 0.996, 192.0, 0.0, 0.0, 0.0, 0.0, 0.0, 0.0, 0.0, 0.0, 0.0, 1.6760473645894E9, 0.0, 2023-02-10 11:42:44.589
65.0, 6668.84412394096, 187500.0, 187500.0, 187500.0, -187500.02235174447, 187500.0, -187500.02235174447, -187500.02235174447, -0.022, 0.032, 0.996, 192.0, 0.0, 0.0, 0.0, 0.0, 0.0, 0.0, 0.0, 0.0, 0.0, 1.676047364589421E9, 0.0, 2023-02-10 11:42:44.589
66.0, 6474.093374501869, 187500.0, 187500.0, 187500.0, -187500.02235174447, 187500.0, -187500.02235174447, -187500.02235174447, -0.02, 0.036000000000000004, 0.996, 192.0, 255.0, 96.0, 1.0, 32.0, 31.0, 32.0, 0.0, 0.0, 0.0, 1.676047364595977E9, 0.0, 2023-02-10 11:42:44.595
67.0, 6553.330308595933, 187500.0, 187500.0, 187500.0, -187500.02235174447, 187500.0, -187500.02235174447, -187500.02235174447, -0.02, 0.036000000000000004, 0.996, 192.0, 0.0, 0.0, 0.0, 0.0, 0.0, 0.0, 0.0, 0.0, 0.0, 1.676047364596002E9, 0.0, 2023-02-10 11:42:44.596
68.0, 6451.384002135277, 187500.0, 187500.0, 187500.0, -187500.02235174447, 187500.0, -187500.02235174447, -187500.02235174447, -0.02, 0.036000000000000004, 0.996, 192.0, 0.0, 0.0, 0.0, 0.0, 0.0, 0.0, 0.0, 0.0, 0.0, 1.676047364602935E9, 0.0, 2023-02-10 11:42:44.602
69.0, 6526.619973971841, 187500.0, 187500.0, 187500.0, -187500.02235174447, 187500.0, -187500.02235174447, -187500.02235174447, -0.02, 0.036000000000000004, 0.996, 192.0, 0.0, 0.0, 0.0, 0.0, 0.0, 0.0, 0.0, 0.0, 0.0, 1.676047364602955E9, 0.0, 2023-02-10 11:42:44.602
70.0, 6604.225230720667, 187500.0, 187500.0, 187500.0, -187500.02235174447, 187500.0, -187500.02235174447, -187500.02235174447, -0.02, 0.036000000000000004, 0.996, 192.0, 0.0, 0.0, 0.0, 0.0, 0.0, 0.0, 0.0, 0.0, 0.0, 1.676047364611023E9, 0.0, 2023-02-10 11:42:44.611
71.0, 6470.047708755459, 187500.0, 187500.0, 187500.0, -187500.02235174447, 187500.0, -187500.02235174447, -187500.02235174447, -0.02, 0.036000000000000004, 0.996, 192.0, 0.0, 0.0, 0.0, 0.0, 0.0, 0.0, 0.0, 0.0, 0.0, 1.676047364617996E9, 0.0, 2023-02-10 11:42:44.617
72.0, 6611.154271501812, 187500.0, 187500.0, 187500.0, -187500.02235174447, 187500.0, -187500.02235174447, -187500.02235174447, -0.02, 0.036000000000000004, 0.996, 192.0, 0.0, 0.0, 0.0, 0.0, 0.0, 0.0, 0.0, 0.0, 0.0, 1.676047364618011E9, 0.0, 2023-02-10 11:42:44.618
73.0, 6535.739485709606, 187500.0, 187500.0, 187500.0, -187500.02235174447, 187500.0, -187500.02235174447, -187500.02235174447, -0.02, 0.036000000000000004, 0.996, 192.0, 0.0, 0.0, 0.0, 0.0, 0.0, 0.0, 0.0, 0.0, 0.0, 1.676047364625598E9, 0.0, 2023-02-10 11:42:44.625
74.0, 6307.282305631913, 187500.0, 187500.0, 187500.0, -187500.02235174447, 187500.0, -187500.02235174447, -187500.02235174447, -0.02, 0.036000000000000004, 0.996, 192.0, 0.0, 0.0, 0.0, 0.0, 0.0, 0.0, 0.0, 0.0, 0.0, 1.676047364625647E9, 0.0, 2023-02-10 11:42:44.625
75.0, 6707.1103104484455, 187500.0, 187500.0, 187500.0, -187500.02235174447, 187500.0, -187500.02235174447, -187500.02235174447, -0.02, 0.036000000000000004, 0.996, 192.0, 0.0, 0.0, 0.0, 0.0, 0.0, 0.0, 0.0, 0.0, 0.0, 1.676047364633531E9, 0.0, 2023-02-10 11:42:44.633
76.0, 6783.285055552132, 187500.0, 187500.0, 187500.0, -187500.02235174447, 187500.0, -187500.02235174447, -187500.02235174447, -0.026000000000000002, 0.03, 0.998, 192.0, 255.0, 48.0, 0.0, 240.0, 31.0, 48.0, 0.0, 0.0, 0.0, 1.676047364633554E9, 0.0, 2023-02-10 11:42:44.633
77.0, 6551.810389972972, 187500.0, 187500.0, 187500.0, -187500.02235174447, 187500.0, -187500.02235174447, -187500.02235174447, -0.026000000000000002, 0.03, 0.998, 192.0, 0.0, 0.0, 0.0, 0.0, 0.0, 0.0, 0.0, 0.0, 0.0, 1.676047364641694E9, 0.0, 2023-02-10 11:42:44.641
78.0, 6363.273425492457, 187500.0, 187500.0, 187500.0, -187500.02235174447, 187500.0, -187500.02235174447, -187500.02235174447, -0.026000000000000002, 0.03, 0.998, 192.0, 0.0, 0.0, 0.0, 0.0, 0.0, 0.0, 0.0, 0.0, 0.0, 1.676047364641718E9, 0.0, 2023-02-10 11:42:44.641
79.0, 6435.55896706092, 187500.0, 187500.0, 187500.0, -187500.02235174447, 187500.0, -187500.02235174447, -187500.02235174447, -0.026000000000000002, 0.03, 0.998, 192.0, 0.0, 0.0, 0.0, 0.0, 0.0, 0.0, 0.0, 0.0, 0.0, 1.676047364648266E9, 0.0, 2023-02-10 11:42:44.648
80.0, 6529.995087384593, 187500.0, 187500.0, 187500.0, -187500.02235174447, 187500.0, -187500.02235174447, -187500.02235174447, -0.026000000000000002, 0.03, 0.998, 192.0, 0.0, 0.0, 0.0, 0.0, 0.0, 0.0, 0.0, 0.0, 0.0, 1.67604736464829E9, 0.0, 2023-02-10 11:42:44.648
81.0, 6485.760985107539, 187500.0, 187500.0, 187500.0, -187500.02235174447, 187500.0, -187500.02235174447, -187500.02235174447, -0.026000000000000002, 0.03, 0.998, 192.0, 0.0, 0.0, 0.0, 0.0, 0.0, 0.0, 0.0, 0.0, 0.0, 1.676047364656642E9, 0.0, 2023-02-10 11:42:44.656
82.0, 6435.89424322775, 187500.0, 187500.0, 187500.0, -187500.02235174447, 187500.0, -187500.02235174447, -187500.02235174447, -0.026000000000000002, 0.03, 0.998, 192.0, 0.0, 0.0, 0.0, 0.0, 0.0, 0.0, 0.0, 0.0, 0.0, 1.676047364656717E9, 0.0, 2023-02-10 11:42:44.656
83.0, 6416.135301129259, 187500.0, 187500.0, 187500.0, -187500.02235174447, 187500.0, -187500.02235174447, -187500.02235174447, -0.026000000000000002, 0.03, 0.998, 192.0, 0.0, 0.0, 0.0, 0.0, 0.0, 0.0, 0.0, 0.0, 0.0, 1.676047364664454E9, 0.0, 2023-02-10 11:42:44.664
84.0, 6666.944225662259, 187500.0, 187500.0, 187500.0, -187500.02235174447, 187500.0, -187500.02235174447, -187500.02235174447, -0.026000000000000002, 0.03, 0.998, 192.0, 0.0, 0.0, 0.0, 0.0, 0.0, 0.0, 0.0, 0.0, 0.0, 1.676047364664491E9, 0.0, 2023-02-10 11:42:44.664
85.0, 6384.015844346982, 187500.0, 187500.0, 187500.0, -187500.02235174447, 187500.0, -187500.02235174447, -187500.02235174447, -0.02, 0.03, 1.0, 192.0, 255.0, 96.0, 0.0, 240.0, 31.0, 64.0, 0.0, 0.0, 0.0, 1.676047364671283E9, 0.0, 2023-02-10 11:42:44.671
86.0, 6396.97985613106, 187500.0, 187500.0, 187500.0, -187500.02235174447, 187500.0, -187500.02235174447, -187500.02235174447, -0.02, 0.03, 1.0, 192.0, 0.0, 0.0, 0.0, 0.0, 0.0, 0.0, 0.0, 0.0, 0.0, 1.676047364677999E9, 0.0, 2023-02-10 11:42:44.677
87.0, 6482.14000250578, 187500.0, 187500.0, 187500.0, -187500.02235174447, 187500.0, -187500.02235174447, -187500.02235174447, -0.02, 0.03, 1.0, 192.0, 0.0, 0.0, 0.0, 0.0, 0.0, 0.0, 0.0, 0.0, 0.0, 1.676047364678025E9, 0.0, 2023-02-10 11:42:44.678
88.0, 6414.928306928672, 187500.0, 187500.0, 187500.0, -187500.02235174447, 187500.0, -187500.02235174447, -187500.02235174447, -0.02, 0.03, 1.0, 192.0, 0.0, 0.0, 0.0, 0.0, 0.0, 0.0, 0.0, 0.0, 0.0, 1.676047364685859E9, 0.0, 2023-02-10 11:42:44.685
89.0, 6293.558334536355, 187500.0, 187500.0, 187500.0, -187500.02235174447, 187500.0, -187500.02235174447, -187500.02235174447, -0.02, 0.03, 1.0, 192.0, 0.0, 0.0, 0.0, 0.0, 0.0, 0.0, 0.0, 0.0, 0.0, 1.676047364685879E9, 0.0, 2023-02-10 11:42:44.685
90.0, 6300.666189273142, 187500.0, 187500.0, 187500.0, -187500.02235174447, 187500.0, -187500.02235174447, -187500.02235174447, -0.02, 0.03, 1.0, 192.0, 0.0, 0.0, 0.0, 0.0, 0.0, 0.0, 0.0, 0.0, 0.0, 1.676047364693896E9, 0.0, 2023-02-10 11:42:44.693
91.0, 6497.070967801925, 187500.0, 187500.0, 187500.0, -187500.02235174447, 187500.0, -187500.02235174447, -187500.02235174447, -0.02, 0.03, 1.0, 192.0, 0.0, 0.0, 0.0, 0.0, 0.0, 0.0, 0.0, 0.0, 0.0, 1.676047364693913E9, 0.0, 2023-02-10 11:42:44.693
92.0, 6642.8937486283485, 187500.0, 187500.0, 187500.0, -187500.02235174447, 187500.0, -187500.02235174447, -187500.02235174447, -0.02, 0.03, 1.0, 192.0, 0.0, 0.0, 0.0, 0.0, 0.0, 0.0, 0.0, 0.0, 0.0, 1.676047364701033E9, 0.0, 2023-02-10 11:42:44.701
93.0, 6433.3684961043, 187500.0, 187500.0, 187500.0, -187500.02235174447, 187500.0, -187500.02235174447, -187500.02235174447, -0.02, 0.03, 1.0, 192.0, 0.0, 0.0, 0.0, 0.0, 0.0, 0.0, 0.0, 0.0, 0.0, 1.676047364701053E9, 0.0, 2023-02-10 11:42:44.701
94.0, 6468.773659321507, 187500.0, 187500.0, 187500.0, -187500.02235174447, 187500.0, -187500.02235174447, -187500.02235174447, -0.02, 0.03, 1.0, 192.0, 0.0, 0.0, 0.0, 0.0, 0.0, 0.0, 0.0, 0.0, 0.0, 1.676047364708662E9, 0.0, 2023-02-10 11:42:44.708
95.0, 6490.231333998601, 187500.0, 187500.0, 187500.0, -187500.02235174447, 187500.0, -187500.02235174447, -187500.02235174447, -0.022, 0.032, 0.994, 192.0, 255.0, 80.0, 1.0, 0.0, 31.0, 16.0, 0.0, 0.0, 0.0, 1.676047364708691E9, 0.0, 2023-02-10 11:42:44.708
96.0, 6485.090432773881, 187500.0, 187500.0, 187500.0, -187500.02235174447, 187500.0, -187500.02235174447, -187500.02235174447, -0.022, 0.032, 0.994, 192.0, 0.0, 0.0, 0.0, 0.0, 0.0, 0.0, 0.0, 0.0, 0.0, 1.676047364716572E9, 0.0, 2023-02-10 11:42:44.716
97.0, 6516.0475988444805, 187500.0, 187500.0, 187500.0, -187500.02235174447, 187500.0, -187500.02235174447, -187500.02235174447, -0.022, 0.032, 0.994, 192.0, 0.0, 0.0, 0.0, 0.0, 0.0, 0.0, 0.0, 0.0, 0.0, 1.676047364716594E9, 0.0, 2023-02-10 11:42:44.716
98.0, 6605.521631899075, 187500.0, 187500.0, 187500.0, -187500.02235174447, 187500.0, -187500.02235174447, -187500.02235174447, -0.022, 0.032, 0.994, 192.0, 0.0, 0.0, 0.0, 0.0, 0.0, 0.0, 0.0, 0.0, 0.0, 1.676047364724844E9, 0.0, 2023-02-10 11:42:44.724
99.0, 6464.929159275193, 187500.0, 187500.0, 187500.0, -187500.02235174447, 187500.0, -187500.02235174447, -187500.02235174447, -0.022, 0.032, 0.994, 192.0, 0.0, 0.0, 0.0, 0.0, 0.0, 0.0, 0.0, 0.0, 0.0, 1.676047364724886E9, 0.0, 2023-02-10 11:42:44.724
100.0, 6391.146050828225, 187500.0, 187500.0, 187500.0, -187500.02235174447, 187500.0, -187500.02235174447, -187500.02235174447, -0.022, 0.032, 0.994, 192.0, 0.0, 0.0, 0.0, 0.0, 0.0, 0.0, 0.0, 0.0, 0.0, 1.676047364730839E9, 0.0, 2023-02-10 11:42:44.730
101.0, 6277.398023295167, 187500.0, 187500.0, 187500.0, -187500.02235174447, 187500.0, -187500.02235174447, -187500.02235174447, -0.022, 0.032, 0.994, 192.0, 0.0, 0.0, 0.0, 0.0, 0.0, 0.0, 0.0, 0.0, 0.0, 1.676047364738189E9, 0.0, 2023-02-10 11:42:44.738
102.0, 6395.750510186018, 187500.0, 187500.0, 187500.0, -187500.02235174447, 187500.0, -187500.02235174447, -187500.02235174447, -0.022, 0.032, 0.994, 192.0, 0.0, 0.0, 0.0, 0.0, 0.0, 0.0, 0.0, 0.0, 0.0, 1.67604736473821E9, 0.0, 2023-02-10 11:42:44.738
103.0, 6389.424966505167, 187500.0, 187500.0, 187500.0, -187500.02235174447, 187500.0, -187500.02235174447, -187500.02235174447, -0.022, 0.032, 0.994, 192.0, 0.0, 0.0, 0.0, 0.0, 0.0, 0.0, 0.0, 0.0, 0.0, 1.676047364746339E9, 0.0, 2023-02-10 11:42:44.746
104.0, 6410.79323420444, 187500.0, 187500.0, 187500.0, -187500.02235174447, 187500.0, -187500.02235174447, -187500.02235174447, -0.022, 0.032, 0.994, 192.0, 0.0, 0.0, 0.0, 0.0, 0.0, 0.0, 0.0, 0.0, 0.0, 1.67604736474636E9, 0.0, 2023-02-10 11:42:44.746
105.0, 6437.347106617344, 187500.0, 187500.0, 187500.0, -187500.02235174447, 187500.0, -187500.02235174447, -187500.02235174447, -0.026000000000000002, 0.028, 0.996, 192.0, 255.0, 48.0, 0.0, 224.0, 31.0, 32.0, 0.0, 0.0, 0.0, 1.676047364753312E9, 0.0, 2023-02-10 11:42:44.753
106.0, 6356.21027424458, 187500.0, 187500.0, 187500.0, -187500.02235174447, 187500.0, -187500.02235174447, -187500.02235174447, -0.026000000000000002, 0.028, 0.996, 192.0, 0.0, 0.0, 0.0, 0.0, 0.0, 0.0, 0.0, 0.0, 0.0, 1.676047364753353E9, 0.0, 2023-02-10 11:42:44.753
107.0, 6577.246675163112, 187500.0, 187500.0, 187500.0, -187500.02235174447, 187500.0, -187500.02235174447, -187500.02235174447, -0.026000000000000002, 0.028, 0.996, 192.0, 0.0, 0.0, 0.0, 0.0, 0.0, 0.0, 0.0, 0.0, 0.0, 1.676047364760765E9, 0.0, 2023-02-10 11:42:44.760
108.0, 6486.498592674565, 187500.0, 187500.0, 187500.0, -187500.02235174447, 187500.0, -187500.02235174447, -187500.02235174447, -0.026000000000000002, 0.028, 0.996, 192.0, 0.0, 0.0, 0.0, 0.0, 0.0, 0.0, 0.0, 0.0, 0.0, 1.676047364760789E9, 0.0, 2023-02-10 11:42:44.760
109.0, 6323.4426168731, 187500.0, 187500.0, 187500.0, -187500.02235174447, 187500.0, -187500.02235174447, -187500.02235174447, -0.026000000000000002, 0.028, 0.996, 192.0, 0.0, 0.0, 0.0, 0.0, 0.0, 0.0, 0.0, 0.0, 0.0, 1.676047364768724E9, 0.0, 2023-02-10 11:42:44.768
110.0, 6383.434698991144, 187500.0, 187500.0, 187500.0, -187500.02235174447, 187500.0, -187500.02235174447, -187500.02235174447, -0.026000000000000002, 0.028, 0.996, 192.0, 0.0, 0.0, 0.0, 0.0, 0.0, 0.0, 0.0, 0.0, 0.0, 1.676047364768744E9, 0.0, 2023-02-10 11:42:44.768
111.0, 6574.340948383921, 187500.0, 187500.0, 187500.0, -187500.02235174447, 187500.0, -187500.02235174447, -187500.02235174447, -0.026000000000000002, 0.028, 0.996, 192.0, 0.0, 0.0, 0.0, 0.0, 0.0, 0.0, 0.0, 0.0, 0.0, 1.676047364777126E9, 0.0, 2023-02-10 11:42:44.777
112.0, 6408.8039289479175, 187500.0, 187500.0, 187500.0, -187500.02235174447, 187500.0, -187500.02235174447, -187500.02235174447, -0.026000000000000002, 0.028, 0.996, 192.0, 0.0, 0.0, 0.0, 0.0, 0.0, 0.0, 0.0, 0.0, 0.0, 1.676047364777169E9, 0.0, 2023-02-10 11:42:44.777
113.0, 6256.342680018268, 187500.0, 187500.0, 187500.0, -187500.02235174447, 187500.0, -187500.02235174447, -187500.02235174447, -0.026000000000000002, 0.028, 0.996, 192.0, 0.0, 0.0, 0.0, 0.0, 0.0, 0.0, 0.0, 0.0, 0.0, 1.676047364783596E9, 0.0, 2023-02-10 11:42:44.783
114.0, 6274.134668604693, 187500.0, 187500.0, 187500.0, -187500.02235174447, 187500.0, -187500.02235174447, -187500.02235174447, -0.026000000000000002, 0.028, 0.996, 192.0, 0.0, 0.0, 0.0, 0.0, 0.0, 0.0, 0.0, 0.0, 0.0, 1.676047364783623E9, 0.0, 2023-02-10 11:42:44.783
115.0, 6306.410587598156, 187500.0, 187500.0, 187500.0, -187500.02235174447, 187500.0, -187500.02235174447, -187500.02235174447, -0.02, 0.028, 0.994, 192.0, 255.0, 96.0, 0.0, 224.0, 31.0, 16.0, 0.0, 0.0, 0.0, 1.676047364791929E9, 0.0, 2023-02-10 11:42:44.791
116.0, 6400.712597455096, 187500.0, 187500.0, 187500.0, -187500.02235174447, 187500.0, -187500.02235174447, -187500.02235174447, -0.02, 0.028, 0.994, 192.0, 0.0, 0.0, 0.0, 0.0, 0.0, 0.0, 0.0, 0.0, 0.0, 1.676047364798518E9, 0.0, 2023-02-10 11:42:44.798
117.0, 6272.882970915195, 187500.0, 187500.0, 187500.0, -187500.02235174447, 187500.0, -187500.02235174447, -187500.02235174447, -0.02, 0.028, 0.994, 192.0, 0.0, 0.0, 0.0, 0.0, 0.0, 0.0, 0.0, 0.0, 0.0, 1.67604736479854E9, 0.0, 2023-02-10 11:42:44.798
118.0, 6331.444541388099, 187500.0, 187500.0, 187500.0, -187500.02235174447, 187500.0, -187500.02235174447, -187500.02235174447, -0.02, 0.028, 0.994, 192.0, 0.0, 0.0, 0.0, 0.0, 0.0, 0.0, 0.0, 0.0, 0.0, 1.676047364806454E9, 0.0, 2023-02-10 11:42:44.806
119.0, 6555.073744663447, 187500.0, 187500.0, 187500.0, -187500.02235174447, 187500.0, -187500.02235174447, -187500.02235174447, -0.02, 0.028, 0.994, 192.0, 0.0, 0.0, 0.0, 0.0, 0.0, 0.0, 0.0, 0.0, 0.0, 1.676047364806482E9, 0.0, 2023-02-10 11:42:44.806
120.0, 6492.533563677498, 187500.0, 187500.0, 187500.0, -187500.02235174447, 187500.0, -187500.02235174447, -187500.02235174447, -0.02, 0.028, 0.994, 192.0, 0.0, 0.0, 0.0, 0.0, 0.0, 0.0, 0.0, 0.0, 0.0, 1.67604736481318E9, 0.0, 2023-02-10 11:42:44.813
121.0, 6356.254977733491, 187500.0, 187500.0, 187500.0, -187500.02235174447, 187500.0, -187500.02235174447, -187500.02235174447, -0.02, 0.028, 0.994, 192.0, 0.0, 0.0, 0.0, 0.0, 0.0, 0.0, 0.0, 0.0, 0.0, 1.676047364813205E9, 0.0, 2023-02-10 11:42:44.813
122.0, 6314.323105135335, 187500.0, 187500.0, 187500.0, -187500.02235174447, 187500.0, -187500.02235174447, -187500.02235174447, -0.02, 0.028, 0.994, 192.0, 0.0, 0.0, 0.0, 0.0, 0.0, 0.0, 0.0, 0.0, 0.0, 1.676047364820986E9, 0.0, 2023-02-10 11:42:44.820
123.0, 6307.081139931815, 187500.0, 187500.0, 187500.0, -187500.02235174447, 187500.0, -187500.02235174447, -187500.02235174447, -0.02, 0.028, 0.994, 192.0, 0.0, 0.0, 0.0, 0.0, 0.0, 0.0, 0.0, 0.0, 0.0, 1.676047364821004E9, 0.0, 2023-02-10 11:42:44.821
124.0, 6377.824411132862, 187500.0, 187500.0, 187500.0, -187500.02235174447, 187500.0, -187500.02235174447, -187500.02235174447, -0.02, 0.028, 0.994, 192.0, 0.0, 0.0, 0.0, 0.0, 0.0, 0.0, 0.0, 0.0, 0.0, 1.676047364829032E9, 0.0, 2023-02-10 11:42:44.829
125.0, 6568.596550058908, 187500.0, 187500.0, 187500.0, -187500.02235174447, 187500.0, -187500.02235174447, -187500.02235174447, -0.024, 0.032, 1.002, 192.0, 255.0, 64.0, 1.0, 0.0, 31.0, 80.0, 0.0, 0.0, 0.0, 1.676047364829052E9, 0.0, 2023-02-10 11:42:44.829
126.0, 6391.950713628616, 187500.0, 187500.0, 187500.0, -187500.02235174447, 187500.0, -187500.02235174447, -187500.02235174447, -0.024, 0.032, 1.002, 192.0, 0.0, 0.0, 0.0, 0.0, 0.0, 0.0, 0.0, 0.0, 0.0, 1.676047364836072E9, 0.0, 2023-02-10 11:42:44.836
127.0, 6111.972762581439, 187500.0, 187500.0, 187500.0, -187500.02235174447, 187500.0, -187500.02235174447, -187500.02235174447, -0.024, 0.032, 1.002, 192.0, 0.0, 0.0, 0.0, 0.0, 0.0, 0.0, 0.0, 0.0, 0.0, 1.676047364836088E9, 0.0, 2023-02-10 11:42:44.836
128.0, 6304.376578852723, 187500.0, 187500.0, 187500.0, -187500.02235174447, 187500.0, -187500.02235174447, -187500.02235174447, -0.024, 0.032, 1.002, 192.0, 0.0, 0.0, 0.0, 0.0, 0.0, 0.0, 0.0, 0.0, 0.0, 1.676047364843635E9, 0.0, 2023-02-10 11:42:44.843
129.0, 6452.747458547051, 187500.0, 187500.0, 187500.0, -187500.02235174447, 187500.0, -187500.02235174447, -187500.02235174447, -0.024, 0.032, 1.002, 192.0, 0.0, 0.0, 0.0, 0.0, 0.0, 0.0, 0.0, 0.0, 0.0, 1.676047364843677E9, 0.0, 2023-02-10 11:42:44.843
130.0, 6274.313482560335, 187500.0, 187500.0, 187500.0, -187500.02235174447, 187500.0, -187500.02235174447, -187500.02235174447, -0.024, 0.032, 1.002, 192.0, 0.0, 0.0, 0.0, 0.0, 0.0, 0.0, 0.0, 0.0, 0.0, 1.676047364850649E9, 0.0, 2023-02-10 11:42:44.850
131.0, 6254.062802083827, 187500.0, 187500.0, 187500.0, -187500.02235174447, 187500.0, -187500.02235174447, -187500.02235174447, -0.024, 0.032, 1.002, 192.0, 0.0, 0.0, 0.0, 0.0, 0.0, 0.0, 0.0, 0.0, 0.0, 1.67604736485067E9, 0.0, 2023-02-10 11:42:44.850
132.0, 6531.693819963196, 187500.0, 187500.0, 187500.0, -187500.02235174447, 187500.0, -187500.02235174447, -187500.02235174447, -0.024, 0.032, 1.002, 192.0, 0.0, 0.0, 0.0, 0.0, 0.0, 0.0, 0.0, 0.0, 0.0, 1.676047364858765E9, 0.0, 2023-02-10 11:42:44.858
133.0, 6604.806376076505, 187500.0, 187500.0, 187500.0, -187500.02235174447, 187500.0, -187500.02235174447, -187500.02235174447, -0.024, 0.032, 1.002, 192.0, 0.0, 0.0, 0.0, 0.0, 0.0, 0.0, 0.0, 0.0, 0.0, 1.676047364865901E9, 0.0, 2023-02-10 11:42:44.865
134.0, 6339.982907770027, 187500.0, 187500.0, 187500.0, -187500.02235174447, 187500.0, -187500.02235174447, -187500.02235174447, -0.026000000000000002, 0.032, 1.002, 192.0, 255.0, 48.0, 1.0, 0.0, 31.0, 80.0, 0.0, 0.0, 0.0, 1.676047364866073E9, 0.0, 2023-02-10 11:42:44.866
135.0, 6208.353484672723, 187500.0, 187500.0, 187500.0, -187500.02235174447, 187500.0, -187500.02235174447, -187500.02235174447, -0.026000000000000002, 0.032, 1.002, 192.0, 0.0, 0.0, 0.0, 0.0, 0.0, 0.0, 0.0, 0.0, 0.0, 1.67604736487336E9, 0.0, 2023-02-10 11:42:44.873
136.0, 6229.744104116453, 187500.0, 187500.0, 187500.0, -187500.02235174447, 187500.0, -187500.02235174447, -187500.02235174447, -0.026000000000000002, 0.032, 1.002, 192.0, 0.0, 0.0, 0.0, 0.0, 0.0, 0.0, 0.0, 0.0, 0.0, 1.676047364873389E9, 0.0, 2023-02-10 11:42:44.873
137.0, 6331.913928021661, 187500.0, 187500.0, 187500.0, -187500.02235174447, 187500.0, -187500.02235174447, -187500.02235174447, -0.026000000000000002, 0.032, 1.002, 192.0, 0.0, 0.0, 0.0, 0.0, 0.0, 0.0, 0.0, 0.0, 0.0, 1.676047364882721E9, 0.0, 2023-02-10 11:42:44.882
138.0, 6348.901253807695, 187500.0, 187500.0, 187500.0, -187500.02235174447, 187500.0, -187500.02235174447, -187500.02235174447, -0.026000000000000002, 0.032, 1.002, 192.0, 0.0, 0.0, 0.0, 0.0, 0.0, 0.0, 0.0, 0.0, 0.0, 1.676047364882743E9, 0.0, 2023-02-10 11:42:44.882
139.0, 6397.672760209175, 187500.0, 187500.0, 187500.0, -187500.02235174447, 187500.0, -187500.02235174447, -187500.02235174447, -0.026000000000000002, 0.032, 1.002, 192.0, 0.0, 0.0, 0.0, 0.0, 0.0, 0.0, 0.0, 0.0, 0.0, 1.676047364889269E9, 0.0, 2023-02-10 11:42:44.889
140.0, 6290.049110656872, 187500.0, 187500.0, 187500.0, -187500.02235174447, 187500.0, -187500.02235174447, -187500.02235174447, -0.026000000000000002, 0.032, 1.002, 192.0, 0.0, 0.0, 0.0, 0.0, 0.0, 0.0, 0.0, 0.0, 0.0, 1.67604736488929E9, 0.0, 2023-02-10 11:42:44.889
141.0, 6350.801152086396, 187500.0, 187500.0, 187500.0, -187500.02235174447, 187500.0, -187500.02235174447, -187500.02235174447, -0.026000000000000002, 0.032, 1.002, 192.0, 0.0, 0.0, 0.0, 0.0, 0.0, 0.0, 0.0, 0.0, 0.0, 1.676047364896044E9, 0.0, 2023-02-10 11:42:44.896
142.0, 6310.813881255852, 187500.0, 187500.0, 187500.0, -187500.02235174447, 187500.0, -187500.02235174447, -187500.02235174447, -0.026000000000000002, 0.032, 1.002, 192.0, 0.0, 0.0, 0.0, 0.0, 0.0, 0.0, 0.0, 0.0, 0.0, 1.676047364896069E9, 0.0, 2023-02-10 11:42:44.896
143.0, 6299.81682298384, 187500.0, 187500.0, 187500.0, -187500.02235174447, 187500.0, -187500.02235174447, -187500.02235174447, -0.026000000000000002, 0.032, 1.002, 192.0, 0.0, 0.0, 0.0, 0.0, 0.0, 0.0, 0.0, 0.0, 0.0, 1.676047364903972E9, 0.0, 2023-02-10 11:42:44.903
144.0, 6462.761040063029, 187500.0, 187500.0, 187500.0, -187500.02235174447, 187500.0, -187500.02235174447, -187500.02235174447, -0.026000000000000002, 0.026000000000000002, 1.008, 192.0, 255.0, 48.0, 0.0, 208.0, 31.0, 128.0, 0.0, 0.0, 0.0, 1.676047364903992E9, 0.0, 2023-02-10 11:42:44.903
145.0, 6293.379520580712, 187500.0, 187500.0, 187500.0, -187500.02235174447, 187500.0, -187500.02235174447, -187500.02235174447, -0.026000000000000002, 0.026000000000000002, 1.008, 192.0, 0.0, 0.0, 0.0, 0.0, 0.0, 0.0, 0.0, 0.0, 0.0, 1.676047364911879E9, 0.0, 2023-02-10 11:42:44.911
146.0, 6265.305729544846, 187500.0, 187500.0, 187500.0, -187500.02235174447, 187500.0, -187500.02235174447, -187500.02235174447, -0.026000000000000002, 0.026000000000000002, 1.008, 192.0, 0.0, 0.0, 0.0, 0.0, 0.0, 0.0, 0.0, 0.0, 0.0, 1.676047364911898E9, 0.0, 2023-02-10 11:42:44.911
147.0, 6389.69318743863, 187500.0, 187500.0, 187500.0, -187500.02235174447, 187500.0, -187500.02235174447, -187500.02235174447, -0.026000000000000002, 0.026000000000000002, 1.008, 192.0, 0.0, 0.0, 0.0, 0.0, 0.0, 0.0, 0.0, 0.0, 0.0, 1.676047364917982E9, 0.0, 2023-02-10 11:42:44.917
148.0, 6227.061894781816, 187500.0, 187500.0, 187500.0, -187500.02235174447, 187500.0, -187500.02235174447, -187500.02235174447, -0.026000000000000002, 0.026000000000000002, 1.008, 192.0, 0.0, 0.0, 0.0, 0.0, 0.0, 0.0, 0.0, 0.0, 0.0, 1.676047364925515E9, 0.0, 2023-02-10 11:42:44.925
149.0, 6205.090129982249, 187500.0, 187500.0, 187500.0, -187500.02235174447, 187500.0, -187500.02235174447, -187500.02235174447, -0.026000000000000002, 0.026000000000000002, 1.008, 192.0, 0.0, 0.0, 0.0, 0.0, 0.0, 0.0, 0.0, 0.0, 0.0, 1.676047364925615E9, 0.0, 2023-02-10 11:42:44.925
150.0, 6322.257974416969, 187500.0, 187500.0, 187500.0, -187500.02235174447, 187500.0, -187500.02235174447, -187500.02235174447, -0.026000000000000002, 0.026000000000000002, 1.008, 192.0, 0.0, 0.0, 0.0, 0.0, 0.0, 0.0, 0.0, 0.0, 0.0, 1.676047364933491E9, 0.0, 2023-02-10 11:42:44.933
151.0, 6238.103656542738, 187500.0, 187500.0, 187500.0, -187500.02235174447, 187500.0, -187500.02235174447, -187500.02235174447, -0.026000000000000002, 0.026000000000000002, 1.008, 192.0, 0.0, 0.0, 0.0, 0.0, 0.0, 0.0, 0.0, 0.0, 0.0, 1.676047364933505E9, 0.0, 2023-02-10 11:42:44.933
152.0, 6293.200706625069, 187500.0, 187500.0, 187500.0, -187500.02235174447, 187500.0, -187500.02235174447, -187500.02235174447, -0.026000000000000002, 0.026000000000000002, 1.008, 192.0, 0.0, 0.0, 0.0, 0.0, 0.0, 0.0, 0.0, 0.0, 0.0, 1.676047364941509E9, 0.0, 2023-02-10 11:42:44.941
153.0, 6303.527212563421, 187500.0, 187500.0, 187500.0, -187500.02235174447, 187500.0, -187500.02235174447, -187500.02235174447, -0.026000000000000002, 0.026000000000000002, 1.008, 192.0, 0.0, 0.0, 0.0, 0.0, 0.0, 0.0, 0.0, 0.0, 0.0, 1.676047364941524E9, 0.0, 2023-02-10 11:42:44.941
154.0, 6441.236310152568, 187500.0, 187500.0, 187500.0, -187500.02235174447, 187500.0, -187500.02235174447, -187500.02235174447, -0.024, 0.026000000000000002, 0.998, 192.0, 255.0, 64.0, 0.0, 208.0, 31.0, 48.0, 0.0, 0.0, 0.0, 1.676047364948216E9, 0.0, 2023-02-10 11:42:44.948
155.0, 6542.4003055572875, 187500.0, 187500.0, 187500.0, -187500.02235174447, 187500.0, -187500.02235174447, -187500.02235174447, -0.024, 0.026000000000000002, 0.998, 192.0, 0.0, 0.0, 0.0, 0.0, 0.0, 0.0, 0.0, 0.0, 0.0, 1.676047364948243E9, 0.0, 2023-02-10 11:42:44.948
156.0, 6263.271720799413, 187500.0, 187500.0, 187500.0, -187500.02235174447, 187500.0, -187500.02235174447, -187500.02235174447, -0.024, 0.026000000000000002, 0.998, 192.0, 0.0, 0.0, 0.0, 0.0, 0.0, 0.0, 0.0, 0.0, 0.0, 1.676047364956403E9, 0.0, 2023-02-10 11:42:44.956
157.0, 6102.3391607212025, 187500.0, 187500.0, 187500.0, -187500.02235174447, 187500.0, -187500.02235174447, -187500.02235174447, -0.024, 0.026000000000000002, 0.998, 192.0, 0.0, 0.0, 0.0, 0.0, 0.0, 0.0, 0.0, 0.0, 0.0, 1.676047364956442E9, 0.0, 2023-02-10 11:42:44.956
158.0, 6383.50175422451, 187500.0, 187500.0, 187500.0, -187500.02235174447, 187500.0, -187500.02235174447, -187500.02235174447, -0.024, 0.026000000000000002, 0.998, 192.0, 0.0, 0.0, 0.0, 0.0, 0.0, 0.0, 0.0, 0.0, 0.0, 1.676047364964336E9, 0.0, 2023-02-10 11:42:44.964
159.0, 6303.05782592986, 187500.0, 187500.0, 187500.0, -187500.02235174447, 187500.0, -187500.02235174447, -187500.02235174447, -0.024, 0.026000000000000002, 0.998, 192.0, 0.0, 0.0, 0.0, 0.0, 0.0, 0.0, 0.0, 0.0, 0.0, 1.676047364964363E9, 0.0, 2023-02-10 11:42:44.964
160.0, 6137.476103004945, 187500.0, 187500.0, 187500.0, -187500.02235174447, 187500.0, -187500.02235174447, -187500.02235174447, -0.024, 0.026000000000000002, 0.998, 192.0, 0.0, 0.0, 0.0, 0.0, 0.0, 0.0, 0.0, 0.0, 0.0, 1.676047364971263E9, 0.0, 2023-02-10 11:42:44.971
161.0, 6064.497657358367, 187500.0, 187500.0, 187500.0, -187500.02235174447, 187500.0, -187500.02235174447, -187500.02235174447, -0.024, 0.026000000000000002, 0.998, 192.0, 0.0, 0.0, 0.0, 0.0, 0.0, 0.0, 0.0, 0.0, 0.0, 1.676047364971283E9, 0.0, 2023-02-10 11:42:44.971
162.0, 6270.513686002932, 187500.0, 187500.0, 187500.0, -187500.02235174447, 187500.0, -187500.02235174447, -187500.02235174447, -0.024, 0.026000000000000002, 0.998, 192.0, 0.0, 0.0, 0.0, 0.0, 0.0, 0.0, 0.0, 0.0, 0.0, 1.676047364977797E9, 0.0, 2023-02-10 11:42:44.977
163.0, 6359.808905101884, 187500.0, 187500.0, 187500.0, -187500.02235174447, 187500.0, -187500.02235174447, -187500.02235174447, -0.024, 0.026000000000000002, 0.998, 192.0, 0.0, 0.0, 0.0, 0.0, 0.0, 0.0, 0.0, 0.0, 0.0, 1.676047364985895E9, 0.0, 2023-02-10 11:42:44.985
164.0, 6243.088095556271, 187500.0, 187500.0, 187500.0, -187500.02235174447, 187500.0, -187500.02235174447, -187500.02235174447, -0.026000000000000002, 0.03, 0.998, 192.0, 255.0, 48.0, 0.0, 240.0, 31.0, 48.0, 0.0, 0.0, 0.0, 1.676047364986008E9, 0.0, 2023-02-10 11:42:44.986
165.0, 6234.303859985335, 187500.0, 187500.0, 187500.0, -187500.02235174447, 187500.0, -187500.02235174447, -187500.02235174447, -0.026000000000000002, 0.03, 0.998, 192.0, 0.0, 0.0, 0.0, 0.0, 0.0, 0.0, 0.0, 0.0, 0.0, 1.676047364994054E9, 0.0, 2023-02-10 11:42:44.994
166.0, 6301.224982884524, 187500.0, 187500.0, 187500.0, -187500.02235174447, 187500.0, -187500.02235174447, -187500.02235174447, -0.026000000000000002, 0.03, 0.998, 192.0, 0.0, 0.0, 0.0, 0.0, 0.0, 0.0, 0.0, 0.0, 0.0, 1.676047364994076E9, 0.0, 2023-02-10 11:42:44.994
167.0, 6386.742757170529, 187500.0, 187500.0, 187500.0, -187500.02235174447, 187500.0, -187500.02235174447, -187500.02235174447, -0.026000000000000002, 0.03, 0.998, 192.0, 0.0, 0.0, 0.0, 0.0, 0.0, 0.0, 0.0, 0.0, 0.0, 1.676047365001314E9, 0.0, 2023-02-10 11:42:45.001
168.0, 6445.416086365711, 187500.0, 187500.0, 187500.0, -187500.02235174447, 187500.0, -187500.02235174447, -187500.02235174447, -0.026000000000000002, 0.03, 0.998, 192.0, 0.0, 0.0, 0.0, 0.0, 0.0, 0.0, 0.0, 0.0, 0.0, 1.676047365001339E9, 0.0, 2023-02-10 11:42:45.001
169.0, 6299.705064261564, 187500.0, 187500.0, 187500.0, -187500.02235174447, 187500.0, -187500.02235174447, -187500.02235174447, -0.026000000000000002, 0.03, 0.998, 192.0, 0.0, 0.0, 0.0, 0.0, 0.0, 0.0, 0.0, 0.0, 0.0, 1.676047365008524E9, 0.0, 2023-02-10 11:42:45.008
170.0, 6235.7567233749305, 187500.0, 187500.0, 187500.0, -187500.02235174447, 187500.0, -187500.02235174447, -187500.02235174447, -0.026000000000000002, 0.03, 0.998, 192.0, 0.0, 0.0, 0.0, 0.0, 0.0, 0.0, 0.0, 0.0, 0.0, 1.676047365008544E9, 0.0, 2023-02-10 11:42:45.008
171.0, 6321.498015105488, 187500.0, 187500.0, 187500.0, -187500.02235174447, 187500.0, -187500.02235174447, -187500.02235174447, -0.026000000000000002, 0.03, 0.998, 192.0, 0.0, 0.0, 0.0, 0.0, 0.0, 0.0, 0.0, 0.0, 0.0, 1.67604736501654E9, 0.0, 2023-02-10 11:42:45.016
172.0, 6143.198149585503, 187500.0, 187500.0, 187500.0, -187500.02235174447, 187500.0, -187500.02235174447, -187500.02235174447, -0.026000000000000002, 0.03, 0.998, 192.0, 0.0, 0.0, 0.0, 0.0, 0.0, 0.0, 0.0, 0.0, 0.0, 1.676047365016561E9, 0.0, 2023-02-10 11:42:45.016
173.0, 6080.322692432725, 187500.0, 187500.0, 187500.0, -187500.02235174447, 187500.0, -187500.02235174447, -187500.02235174447, -0.026000000000000002, 0.03, 0.998, 192.0, 0.0, 0.0, 0.0, 0.0, 0.0, 0.0, 0.0, 0.0, 0.0, 1.676047365024585E9, 0.0, 2023-02-10 11:42:45.024
174.0, 6216.713037099009, 187500.0, 187500.0, 187500.0, -187500.02235174447, 187500.0, -187500.02235174447, -187500.02235174447, -0.024, 0.028, 1.002, 192.0, 255.0, 64.0, 0.0, 224.0, 31.0, 80.0, 0.0, 0.0, 0.0, 1.676047365024633E9, 0.0, 2023-02-10 11:42:45.024
175.0, 6559.767610999062, 187500.0, 187500.0, 187500.0, -187500.02235174447, 187500.0, -187500.02235174447, -187500.02235174447, -0.024, 0.028, 1.002, 192.0, 0.0, 0.0, 0.0, 0.0, 0.0, 0.0, 0.0, 0.0, 0.0, 1.67604736503115E9, 0.0, 2023-02-10 11:42:45.031
176.0, 6637.395219492343, 187500.0, 187500.0, 187500.0, -187500.02235174447, 187500.0, -187500.02235174447, -187500.02235174447, -0.024, 0.028, 1.002, 192.0, 0.0, 0.0, 0.0, 0.0, 0.0, 0.0, 0.0, 0.0, 0.0, 1.676047365031173E9, 0.0, 2023-02-10 11:42:45.031
177.0, 6095.186602495504, 187500.0, 187500.0, 187500.0, -187500.02235174447, 187500.0, -187500.02235174447, -187500.02235174447, -0.024, 0.028, 1.002, 192.0, 0.0, 0.0, 0.0, 0.0, 0.0, 0.0, 0.0, 0.0, 0.0, 1.67604736504012E9, 0.0, 2023-02-10 11:42:45.040
178.0, 5925.425103357447, 187500.0, 187500.0, 187500.0, -187500.02235174447, 187500.0, -187500.02235174447, -187500.02235174447, -0.024, 0.028, 1.002, 192.0, 0.0, 0.0, 0.0, 0.0, 0.0, 0.0, 0.0, 0.0, 0.0, 1.676047365046752E9, 0.0, 2023-02-10 11:42:45.046
179.0, 6179.542086069833, 187500.0, 187500.0, 187500.0, -187500.02235174447, 187500.0, -187500.02235174447, -187500.02235174447, -0.024, 0.028, 1.002, 192.0, 0.0, 0.0, 0.0, 0.0, 0.0, 0.0, 0.0, 0.0, 0.0, 1.676047365046934E9, 0.0, 2023-02-10 11:42:45.046
180.0, 6073.795983051776, 187500.0, 187500.0, 187500.0, -187500.02235174447, 187500.0, -187500.02235174447, -187500.02235174447, -0.024, 0.028, 1.002, 192.0, 0.0, 0.0, 0.0, 0.0, 0.0, 0.0, 0.0, 0.0, 0.0, 1.676047365053359E9, 0.0, 2023-02-10 11:42:45.053
181.0, 6071.20318069496, 187500.0, 187500.0, 187500.0, -187500.02235174447, 187500.0, -187500.02235174447, -187500.02235174447, -0.024, 0.028, 1.002, 192.0, 0.0, 0.0, 0.0, 0.0, 0.0, 0.0, 0.0, 0.0, 0.0, 1.676047365053378E9, 0.0, 2023-02-10 11:42:45.053
182.0, 6397.583353231354, 187500.0, 187500.0, 187500.0, -187500.02235174447, 187500.0, -187500.02235174447, -187500.02235174447, -0.024, 0.028, 1.002, 192.0, 0.0, 0.0, 0.0, 0.0, 0.0, 0.0, 0.0, 0.0, 0.0, 1.676047365060893E9, 0.0, 2023-02-10 11:42:45.060
183.0, 6455.653185326241, 187500.0, 187500.0, 187500.0, -187500.02235174447, 187500.0, -187500.02235174447, -187500.02235174447, -0.024, 0.028, 1.002, 192.0, 0.0, 0.0, 0.0, 0.0, 0.0, 0.0, 0.0, 0.0, 0.0, 1.676047365060923E9, 0.0, 2023-02-10 11:42:45.060
184.0, 6471.7911448229725, 187500.0, 187500.0, 187500.0, -187500.02235174447, 187500.0, -187500.02235174447, -187500.02235174447, -0.028, 0.03, 0.998, 192.0, 255.0, 32.0, 0.0, 240.0, 31.0, 48.0, 0.0, 0.0, 0.0, 1.676047365068865E9, 0.0, 2023-02-10 11:42:45.068
185.0, 6180.950245970517, 187500.0, 187500.0, 187500.0, -187500.02235174447, 187500.0, -187500.02235174447, -187500.02235174447, -0.028, 0.03, 0.998, 192.0, 0.0, 0.0, 0.0, 0.0, 0.0, 0.0, 0.0, 0.0, 0.0, 1.676047365068888E9, 0.0, 2023-02-10 11:42:45.068
186.0, 5997.867107137097, 187500.0, 187500.0, 187500.0, -187500.02235174447, 187500.0, -187500.02235174447, -187500.02235174447, -0.028, 0.03, 0.998, 192.0, 0.0, 0.0, 0.0, 0.0, 0.0, 0.0, 0.0, 0.0, 0.0, 1.676047365076824E9, 0.0, 2023-02-10 11:42:45.076
187.0, 6132.6257744581435, 187500.0, 187500.0, 187500.0, -187500.02235174447, 187500.0, -187500.02235174447, -187500.02235174447, -0.028, 0.03, 0.998, 192.0, 0.0, 0.0, 0.0, 0.0, 0.0, 0.0, 0.0, 0.0, 0.0, 1.676047365076844E9, 0.0, 2023-02-10 11:42:45.076
188.0, 6088.458727414457, 187500.0, 187500.0, 187500.0, -187500.02235174447, 187500.0, -187500.02235174447, -187500.02235174447, -0.028, 0.03, 0.998, 192.0, 0.0, 0.0, 0.0, 0.0, 0.0, 0.0, 0.0, 0.0, 0.0, 1.676047365083397E9, 0.0, 2023-02-10 11:42:45.083
189.0, 6259.248406797458, 187500.0, 187500.0, 187500.0, -187500.02235174447, 187500.0, -187500.02235174447, -187500.02235174447, -0.028, 0.03, 0.998, 192.0, 0.0, 0.0, 0.0, 0.0, 0.0, 0.0, 0.0, 0.0, 0.0, 1.676047365083415E9, 0.0, 2023-02-10 11:42:45.083
190.0, 6135.4420942595125, 187500.0, 187500.0, 187500.0, -187500.02235174447, 187500.0, -187500.02235174447, -187500.02235174447, -0.028, 0.03, 0.998, 192.0, 0.0, 0.0, 0.0, 0.0, 0.0, 0.0, 0.0, 0.0, 0.0, 1.676047365091397E9, 0.0, 2023-02-10 11:42:45.091
191.0, 6152.340013067725, 187500.0, 187500.0, 187500.0, -187500.02235174447, 187500.0, -187500.02235174447, -187500.02235174447, -0.028, 0.03, 0.998, 192.0, 0.0, 0.0, 0.0, 0.0, 0.0, 0.0, 0.0, 0.0, 0.0, 1.676047365091414E9, 0.0, 2023-02-10 11:42:45.091
192.0, 6216.735388843464, 187500.0, 187500.0, 187500.0, -187500.02235174447, 187500.0, -187500.02235174447, -187500.02235174447, -0.028, 0.03, 0.998, 192.0, 0.0, 0.0, 0.0, 0.0, 0.0, 0.0, 0.0, 0.0, 0.0, 1.676047365098498E9, 0.0, 2023-02-10 11:42:45.098
193.0, 6040.4695320689125, 187500.0, 187500.0, 187500.0, -187500.02235174447, 187500.0, -187500.02235174447, -187500.02235174447, -0.026000000000000002, 0.028, 0.998, 192.0, 255.0, 48.0, 0.0, 224.0, 31.0, 48.0, 0.0, 0.0, 0.0, 1.676047365098521E9, 0.0, 2023-02-10 11:42:45.098
194.0, 6232.292202984358, 187500.0, 187500.0, 187500.0, -187500.02235174447, 187500.0, -187500.02235174447, -187500.02235174447, -0.026000000000000002, 0.028, 0.998, 192.0, 0.0, 0.0, 0.0, 0.0, 0.0, 0.0, 0.0, 0.0, 0.0, 1.676047365106821E9, 0.0, 2023-02-10 11:42:45.106
195.0, 6206.252420693925, 187500.0, 187500.0, 187500.0, -187500.02235174447, 187500.0, -187500.02235174447, -187500.02235174447, -0.026000000000000002, 0.028, 0.998, 192.0, 0.0, 0.0, 0.0, 0.0, 0.0, 0.0, 0.0, 0.0, 0.0, 1.676047365113169E9, 0.0, 2023-02-10 11:42:45.113
196.0, 6165.929873696551, 187500.0, 187500.0, 187500.0, -187500.02235174447, 187500.0, -187500.02235174447, -187500.02235174447, -0.026000000000000002, 0.028, 0.998, 192.0, 0.0, 0.0, 0.0, 0.0, 0.0, 0.0, 0.0, 0.0, 0.0, 1.676047365113193E9, 0.0, 2023-02-10 11:42:45.113
197.0, 6113.336218993213, 187500.0, 187500.0, 187500.0, -187500.02235174447, 187500.0, -187500.02235174447, -187500.02235174447, -0.026000000000000002, 0.028, 0.998, 192.0, 0.0, 0.0, 0.0, 0.0, 0.0, 0.0, 0.0, 0.0, 0.0, 1.676047365121255E9, 0.0, 2023-02-10 11:42:45.121
198.0, 6129.585937212221, 187500.0, 187500.0, 187500.0, -187500.02235174447, 187500.0, -187500.02235174447, -187500.02235174447, -0.026000000000000002, 0.028, 0.998, 192.0, 0.0, 0.0, 0.0, 0.0, 0.0, 0.0, 0.0, 0.0, 0.0, 1.676047365121279E9, 0.0, 2023-02-10 11:42:45.121
199.0, 6183.5206965828775, 187500.0, 187500.0, 187500.0, -187500.02235174447, 187500.0, -187500.02235174447, -187500.02235174447, -0.026000000000000002, 0.028, 0.998, 192.0, 0.0, 0.0, 0.0, 0.0, 0.0, 0.0, 0.0, 0.0, 0.0, 1.676047365129917E9, 0.0, 2023-02-10 11:42:45.129
