%OpenBCI Raw EEG Data
%Number of channels = 8
%Sample Rate = 250 Hz
%Board = OpenBCI_GUI$BoardCytonSerial
Sample Index, EXG Channel 0, EXG Channel 1, EXG Channel 2, EXG Channel 3, EXG Channel 4, EXG Channel 5, EXG Channel 6, EXG Channel 7, Accel Channel 0, Accel Channel 1, Accel Channel 2, Other, Other, Other, Other, Other, Other, Other, Analog Channel 0, Analog Channel 1, Analog Channel 2, Timestamp, Other, Timestamp (Formatted)
107.0, 8139.074818977692, 187500.0, 187500.0, 187500.0, -187500.02235174447, 187500.0, -187500.02235174447, -187500.02235174447, -0.016, 0.024, 0.996, 192.0, 255.0, 128.0, 0.0, 192.0, 31.0, 32.0, 0.0, 0.0, 0.0, 1.67604752172256E9, 0.0, 2023-02-10 11:45:21.722
108.0, 8292.11721326318, 187500.0, 187500.0, 187500.0, -187500.02235174447, 187500.0, -187500.02235174447, -187500.02235174447, -0.016, 0.024, 0.996, 192.0, 0.0, 0.0, 0.0, 0.0, 0.0, 0.0, 0.0, 0.0, 0.0, 1.676047521722598E9, 0.0, 2023-02-10 11:45:21.722
109.0, 8259.282500658333, 187500.0, 187500.0, 187500.0, -187500.02235174447, 187500.0, -187500.02235174447, -187500.02235174447, -0.016, 0.024, 0.996, 192.0, 0.0, 0.0, 0.0, 0.0, 0.0, 0.0, 0.0, 0.0, 0.0, 1.676047521722613E9, 0.0, 2023-02-10 11:45:21.722
110.0, 8160.4877901658765, 187500.0, 187500.0, 187500.0, -187500.02235174447, 187500.0, -187500.02235174447, -187500.02235174447, -0.016, 0.024, 0.996, 192.0, 0.0, 0.0, 0.0, 0.0, 0.0, 0.0, 0.0, 0.0, 0.0, 1.676047521722627E9, 0.0, 2023-02-10 11:45:21.722
111.0, 8169.85317109265, 187500.0, 187500.0, 187500.0, -187500.02235174447, 187500.0, -187500.02235174447, -187500.02235174447, -0.016, 0.024, 0.996, 192.0, 0.0, 0.0, 0.0, 0.0, 0.0, 0.0, 0.0, 0.0, 0.0, 1.676047521722642E9, 0.0, 2023-02-10 11:45:21.722
0.0, 0.0, 0.0, 0.0, 0.0, 0.0, 0.0, 0.0, 0.0, -0.018000000000000002, 0.032, 1.0, 192.0, 255.0, 112.0, 1.0, 0.0, 31.0, 64.0, 0.0, 0.0, 0.0, 1.676047521826362E9, 0.0, 2023-02-10 11:45:21.826
1.0, 6986.663578350971, 187500.0, 187500.0, 187500.0, -187500.02235174447, 187500.0, -187500.02235174447, -187500.02235174447, -0.018000000000000002, 0.032, 1.0, 192.0, 0.0, 0.0, 0.0, 0.0, 0.0, 0.0, 0.0, 0.0, 0.0, 1.676047521842623E9, 0.0, 2023-02-10 11:45:21.842
2.0, 7076.294073616752, 187500.0, 187500.0, 187500.0, -187500.02235174447, 187500.0, -187500.02235174447, -187500.02235174447, -0.018000000000000002, 0.032, 1.0, 192.0, 0.0, 0.0, 0.0, 0.0, 0.0, 0.0, 0.0, 0.0, 0.0, 1.676047521848441E9, 0.0, 2023-02-10 11:45:21.848
3.0, 6914.735664693793, 187500.0, 187500.0, 187500.0, -187500.02235174447, 187500.0, -187500.02235174447, -187500.02235174447, -0.018000000000000002, 0.032, 1.0, 192.0, 0.0, 0.0, 0.0, 0.0, 0.0, 0.0, 0.0, 0.0, 0.0, 1.676047521848467E9, 0.0, 2023-02-10 11:45:21.848
4.0, 6829.888442741447, 187500.0, 187500.0, 187500.0, -187500.02235174447, 187500.0, -187500.02235174447, -187500.02235174447, -0.018000000000000002, 0.032, 1.0, 192.0, 0.0, 0.0, 0.0, 0.0, 0.0, 0.0, 0.0, 0.0, 0.0, 1.676047521855468E9, 0.0, 2023-02-10 11:45:21.855
5.0, 6923.98928689829, 187500.0, 187500.0, 187500.0, -187500.02235174447, 187500.0, -187500.02235174447, -187500.02235174447, -0.018000000000000002, 0.032, 1.0, 192.0, 0.0, 0.0, 0.0, 0.0, 0.0, 0.0, 0.0, 0.0, 0.0, 1.676047521862572E9, 0.0, 2023-02-10 11:45:21.862
6.0, 6992.4973836538065, 187500.0, 187500.0, 187500.0, -187500.02235174447, 187500.0, -187500.02235174447, -187500.02235174447, -0.018000000000000002, 0.032, 1.0, 192.0, 0.0, 0.0, 0.0, 0.0, 0.0, 0.0, 0.0, 0.0, 0.0, 1.676047521862602E9, 0.0, 2023-02-10 11:45:21.862
7.0, 6853.223663952788, 187500.0, 187500.0, 187500.0, -187500.02235174447, 187500.0, -187500.02235174447, -187500.02235174447, -0.016, 0.028, 0.996, 192.0, 255.0, 128.0, 0.0, 224.0, 31.0, 32.0, 0.0, 0.0, 0.0, 1.676047521869951E9, 0.0, 2023-02-10 11:45:21.869
8.0, 6782.212171818277, 187500.0, 187500.0, 187500.0, -187500.02235174447, 187500.0, -187500.02235174447, -187500.02235174447, -0.016, 0.028, 0.996, 192.0, 0.0, 0.0, 0.0, 0.0, 0.0, 0.0, 0.0, 0.0, 0.0, 1.676047521869998E9, 0.0, 2023-02-10 11:45:21.869
9.0, 6977.90169452449, 187500.0, 187500.0, 187500.0, -187500.02235174447, 187500.0, -187500.02235174447, -187500.02235174447, -0.016, 0.028, 0.996, 192.0, 0.0, 0.0, 0.0, 0.0, 0.0, 0.0, 0.0, 0.0, 0.0, 1.676047521879575E9, 0.0, 2023-02-10 11:45:21.879
10.0, 7079.333910862674, 187500.0, 187500.0, 187500.0, -187500.02235174447, 187500.0, -187500.02235174447, -187500.02235174447, -0.016, 0.028, 0.996, 192.0, 0.0, 0.0, 0.0, 0.0, 0.0, 0.0, 0.0, 0.0, 0.0, 1.676047521879608E9, 0.0, 2023-02-10 11:45:21.879
11.0, 6962.18841817241, 187500.0, 187500.0, 187500.0, -187500.02235174447, 187500.0, -187500.02235174447, -187500.02235174447, -0.016, 0.028, 0.996, 192.0, 0.0, 0.0, 0.0, 0.0, 0.0, 0.0, 0.0, 0.0, 0.0, 1.676047521885693E9, 0.0, 2023-02-10 11:45:21.885
12.0, 6727.249232202677, 187500.0, 187500.0, 187500.0, -187500.02235174447, 187500.0, -187500.02235174447, -187500.02235174447, -0.016, 0.028, 0.996, 192.0, 0.0, 0.0, 0.0, 0.0, 0.0, 0.0, 0.0, 0.0, 0.0, 1.676047521885722E9, 0.0, 2023-02-10 11:45:21.885
13.0, 6840.326707402076, 187500.0, 187500.0, 187500.0, -187500.02235174447, 187500.0, -187500.02235174447, -187500.02235174447, -0.016, 0.028, 0.996, 192.0, 0.0, 0.0, 0.0, 0.0, 0.0, 0.0, 0.0, 0.0, 0.0, 1.676047521892784E9, 0.0, 2023-02-10 11:45:21.892
14.0, 7072.583684037171, 187500.0, 187500.0, 187500.0, -187500.02235174447, 187500.0, -187500.02235174447, -187500.02235174447, -0.016, 0.028, 0.996, 192.0, 0.0, 0.0, 0.0, 0.0, 0.0, 0.0, 0.0, 0.0, 0.0, 1.676047521892821E9, 0.0, 2023-02-10 11:45:21.892
15.0, 7079.043338184755, 187500.0, 187500.0, 187500.0, -187500.02235174447, 187500.0, -187500.02235174447, -187500.02235174447, -0.016, 0.028, 0.996, 192.0, 0.0, 0.0, 0.0, 0.0, 0.0, 0.0, 0.0, 0.0, 0.0, 1.676047521900595E9, 0.0, 2023-02-10 11:45:21.900
16.0, 6901.79400465417, 187500.0, 187500.0, 187500.0, -187500.02235174447, 187500.0, -187500.02235174447, -187500.02235174447, -0.016, 0.028, 0.996, 192.0, 0.0, 0.0, 0.0, 0.0, 0.0, 0.0, 0.0, 0.0, 0.0, 1.676047521900623E9, 0.0, 2023-02-10 11:45:21.900
17.0, 6788.135384098934, 187500.0, 187500.0, 187500.0, -187500.02235174447, 187500.0, -187500.02235174447, -187500.02235174447, -0.016, 0.026000000000000002, 0.998, 192.0, 255.0, 128.0, 0.0, 208.0, 31.0, 48.0, 0.0, 0.0, 0.0, 1.676047521907866E9, 0.0, 2023-02-10 11:45:21.907
18.0, 6977.879342780036, 187500.0, 187500.0, 187500.0, -187500.02235174447, 187500.0, -187500.02235174447, -187500.02235174447, -0.016, 0.026000000000000002, 0.998, 192.0, 0.0, 0.0, 0.0, 0.0, 0.0, 0.0, 0.0, 0.0, 0.0, 1.676047521907898E9, 0.0, 2023-02-10 11:45:21.907
19.0, 6969.184514186921, 187500.0, 187500.0, 187500.0, -187500.02235174447, 187500.0, -187500.02235174447, -187500.02235174447, -0.016, 0.026000000000000002, 0.998, 192.0, 0.0, 0.0, 0.0, 0.0, 0.0, 0.0, 0.0, 0.0, 0.0, 1.676047521914138E9, 0.0, 2023-02-10 11:45:21.914
20.0, 6846.83106503857, 187500.0, 187500.0, 187500.0, -187500.02235174447, 187500.0, -187500.02235174447, -187500.02235174447, -0.016, 0.026000000000000002, 0.998, 192.0, 0.0, 0.0, 0.0, 0.0, 0.0, 0.0, 0.0, 0.0, 0.0, 1.676047521922157E9, 0.0, 2023-02-10 11:45:21.922
21.0, 6865.248902469743, 187500.0, 187500.0, 187500.0, -187500.02235174447, 187500.0, -187500.02235174447, -187500.02235174447, -0.016, 0.026000000000000002, 0.998, 192.0, 0.0, 0.0, 0.0, 0.0, 0.0, 0.0, 0.0, 0.0, 0.0, 1.676047521922184E9, 0.0, 2023-02-10 11:45:21.922
22.0, 7056.579835007172, 187500.0, 187500.0, 187500.0, -187500.02235174447, 187500.0, -187500.02235174447, -187500.02235174447, -0.016, 0.026000000000000002, 0.998, 192.0, 0.0, 0.0, 0.0, 0.0, 0.0, 0.0, 0.0, 0.0, 0.0, 1.676047521930382E9, 0.0, 2023-02-10 11:45:21.930
23.0, 7027.634325937549, 187500.0, 187500.0, 187500.0, -187500.02235174447, 187500.0, -187500.02235174447, -187500.02235174447, -0.016, 0.026000000000000002, 0.998, 192.0, 0.0, 0.0, 0.0, 0.0, 0.0, 0.0, 0.0, 0.0, 0.0, 1.676047521930413E9, 0.0, 2023-02-10 11:45:21.930
24.0, 6872.1108880175225, 187500.0, 187500.0, 187500.0, -187500.02235174447, 187500.0, -187500.02235174447, -187500.02235174447, -0.016, 0.026000000000000002, 0.998, 192.0, 0.0, 0.0, 0.0, 0.0, 0.0, 0.0, 0.0, 0.0, 0.0, 1.676047521937473E9, 0.0, 2023-02-10 11:45:21.937
25.0, 6849.0438877396455, 187500.0, 187500.0, 187500.0, -187500.02235174447, 187500.0, -187500.02235174447, -187500.02235174447, -0.016, 0.026000000000000002, 0.998, 192.0, 0.0, 0.0, 0.0, 0.0, 0.0, 0.0, 0.0, 0.0, 0.0, 1.676047521937518E9, 0.0, 2023-02-10 11:45:21.937
26.0, 6969.788011287214, 187500.0, 187500.0, 187500.0, -187500.02235174447, 187500.0, -187500.02235174447, -187500.02235174447, -0.016, 0.026000000000000002, 0.998, 192.0, 0.0, 0.0, 0.0, 0.0, 0.0, 0.0, 0.0, 0.0, 0.0, 1.676047521944853E9, 0.0, 2023-02-10 11:45:21.944
27.0, 7038.340811531641, 187500.0, 187500.0, 187500.0, -187500.02235174447, 187500.0, -187500.02235174447, -187500.02235174447, -0.012, 0.022, 1.0, 192.0, 255.0, 160.0, 0.0, 176.0, 31.0, 64.0, 0.0, 0.0, 0.0, 1.676047521944882E9, 0.0, 2023-02-10 11:45:21.944
28.0, 6887.645350413961, 187500.0, 187500.0, 187500.0, -187500.02235174447, 187500.0, -187500.02235174447, -187500.02235174447, -0.012, 0.022, 1.0, 192.0, 0.0, 0.0, 0.0, 0.0, 0.0, 0.0, 0.0, 0.0, 0.0, 1.676047521952848E9, 0.0, 2023-02-10 11:45:21.952
29.0, 6811.403550076909, 187500.0, 187500.0, 187500.0, -187500.02235174447, 187500.0, -187500.02235174447, -187500.02235174447, -0.012, 0.022, 1.0, 192.0, 0.0, 0.0, 0.0, 0.0, 0.0, 0.0, 0.0, 0.0, 0.0, 1.676047521952897E9, 0.0, 2023-02-10 11:45:21.952
30.0, 6946.497493564784, 187500.0, 187500.0, 187500.0, -187500.02235174447, 187500.0, -187500.02235174447, -187500.02235174447, -0.012, 0.022, 1.0, 192.0, 0.0, 0.0, 0.0, 0.0, 0.0, 0.0, 0.0, 0.0, 0.0, 1.676047521962477E9, 0.0, 2023-02-10 11:45:21.962
31.0, 7024.952116602912, 187500.0, 187500.0, 187500.0, -187500.02235174447, 187500.0, -187500.02235174447, -187500.02235174447, -0.012, 0.022, 1.0, 192.0, 0.0, 0.0, 0.0, 0.0, 0.0, 0.0, 0.0, 0.0, 0.0, 1.676047521962532E9, 0.0, 2023-02-10 11:45:21.962
32.0, 6899.670588930916, 187500.0, 187500.0, 187500.0, -187500.02235174447, 187500.0, -187500.02235174447, -187500.02235174447, -0.012, 0.022, 1.0, 192.0, 0.0, 0.0, 0.0, 0.0, 0.0, 0.0, 0.0, 0.0, 0.0, 1.676047521968576E9, 0.0, 2023-02-10 11:45:21.968
33.0, 6848.283928428165, 187500.0, 187500.0, 187500.0, -187500.02235174447, 187500.0, -187500.02235174447, -187500.02235174447, -0.012, 0.022, 1.0, 192.0, 0.0, 0.0, 0.0, 0.0, 0.0, 0.0, 0.0, 0.0, 0.0, 1.67604752196861E9, 0.0, 2023-02-10 11:45:21.968
34.0, 6951.191359900398, 187500.0, 187500.0, 187500.0, -187500.02235174447, 187500.0, -187500.02235174447, -187500.02235174447, -0.012, 0.022, 1.0, 192.0, 0.0, 0.0, 0.0, 0.0, 0.0, 0.0, 0.0, 0.0, 0.0, 1.676047521974773E9, 0.0, 2023-02-10 11:45:21.974
35.0, 7057.429201296473, 187500.0, 187500.0, 187500.0, -187500.02235174447, 187500.0, -187500.02235174447, -187500.02235174447, -0.012, 0.022, 1.0, 192.0, 0.0, 0.0, 0.0, 0.0, 0.0, 0.0, 0.0, 0.0, 0.0, 1.676047521982519E9, 0.0, 2023-02-10 11:45:21.982
36.0, 6940.931909195413, 187500.0, 187500.0, 187500.0, -187500.02235174447, 187500.0, -187500.02235174447, -187500.02235174447, -0.012, 0.022, 1.0, 192.0, 0.0, 0.0, 0.0, 0.0, 0.0, 0.0, 0.0, 0.0, 0.0, 1.676047521982547E9, 0.0, 2023-02-10 11:45:21.982
37.0, 6808.0731401530675, 187500.0, 187500.0, 187500.0, -187500.02235174447, 187500.0, -187500.02235174447, -187500.02235174447, -0.012, 0.028, 1.0, 192.0, 255.0, 160.0, 0.0, 224.0, 31.0, 64.0, 0.0, 0.0, 0.0, 1.676047521989591E9, 0.0, 2023-02-10 11:45:21.989
38.0, 6924.928060165413, 187500.0, 187500.0, 187500.0, -187500.02235174447, 187500.0, -187500.02235174447, -187500.02235174447, -0.012, 0.028, 1.0, 192.0, 0.0, 0.0, 0.0, 0.0, 0.0, 0.0, 0.0, 0.0, 0.0, 1.676047521989623E9, 0.0, 2023-02-10 11:45:21.989
39.0, 7092.677902302493, 187500.0, 187500.0, 187500.0, -187500.02235174447, 187500.0, -187500.02235174447, -187500.02235174447, -0.012, 0.028, 1.0, 192.0, 0.0, 0.0, 0.0, 0.0, 0.0, 0.0, 0.0, 0.0, 0.0, 1.67604752199708E9, 0.0, 2023-02-10 11:45:21.997
40.0, 7002.488613425328, 187500.0, 187500.0, 187500.0, -187500.02235174447, 187500.0, -187500.02235174447, -187500.02235174447, -0.012, 0.028, 1.0, 192.0, 0.0, 0.0, 0.0, 0.0, 0.0, 0.0, 0.0, 0.0, 0.0, 1.676047521997108E9, 0.0, 2023-02-10 11:45:21.997
41.0, 6853.894216286447, 187500.0, 187500.0, 187500.0, -187500.02235174447, 187500.0, -187500.02235174447, -187500.02235174447, -0.012, 0.028, 1.0, 192.0, 0.0, 0.0, 0.0, 0.0, 0.0, 0.0, 0.0, 0.0, 0.0, 1.676047522005196E9, 0.0, 2023-02-10 11:45:22.005
42.0, 6832.235375909255, 187500.0, 187500.0, 187500.0, -187500.02235174447, 187500.0, -187500.02235174447, -187500.02235174447, -0.012, 0.028, 1.0, 192.0, 0.0, 0.0, 0.0, 0.0, 0.0, 0.0, 0.0, 0.0, 0.0, 1.676047522005236E9, 0.0, 2023-02-10 11:45:22.005
43.0, 6981.925008526446, 187500.0, 187500.0, 187500.0, -187500.02235174447, 187500.0, -187500.02235174447, -187500.02235174447, -0.012, 0.028, 1.0, 192.0, 0.0, 0.0, 0.0, 0.0, 0.0, 0.0, 0.0, 0.0, 0.0, 1.676047522013157E9, 0.0, 2023-02-10 11:45:22.013
44.0, 7021.085264812144, 187500.0, 187500.0, 187500.0, -187500.02235174447, 187500.0, -187500.02235174447, -187500.02235174447, -0.012, 0.028, 1.0, 192.0, 0.0, 0.0, 0.0, 0.0, 0.0, 0.0, 0.0, 0.0, 0.0, 1.676047522013192E9, 0.0, 2023-02-10 11:45:22.013
45.0, 6851.748448818737, 187500.0, 187500.0, 187500.0, -187500.02235174447, 187500.0, -187500.02235174447, -187500.02235174447, -0.012, 0.028, 1.0, 192.0, 0.0, 0.0, 0.0, 0.0, 0.0, 0.0, 0.0, 0.0, 0.0, 1.676047522019862E9, 0.0, 2023-02-10 11:45:22.019
46.0, 6838.203291678821, 187500.0, 187500.0, 187500.0, -187500.02235174447, 187500.0, -187500.02235174447, -187500.02235174447, -0.012, 0.028, 1.0, 192.0, 0.0, 0.0, 0.0, 0.0, 0.0, 0.0, 0.0, 0.0, 0.0, 1.676047522019896E9, 0.0, 2023-02-10 11:45:22.019
47.0, 6963.596578073094, 187500.0, 187500.0, 187500.0, -187500.02235174447, 187500.0, -187500.02235174447, -187500.02235174447, -0.014, 0.026000000000000002, 1.004, 192.0, 255.0, 144.0, 0.0, 208.0, 31.0, 96.0, 0.0, 0.0, 0.0, 1.6760475220278E9, 0.0, 2023-02-10 11:45:22.027
48.0, 7003.002703547801, 187500.0, 187500.0, 187500.0, -187500.02235174447, 187500.0, -187500.02235174447, -187500.02235174447, -0.014, 0.026000000000000002, 1.004, 192.0, 0.0, 0.0, 0.0, 0.0, 0.0, 0.0, 0.0, 0.0, 0.0, 1.676047522027833E9, 0.0, 2023-02-10 11:45:22.027
49.0, 6870.389803694464, 187500.0, 187500.0, 187500.0, -187500.02235174447, 187500.0, -187500.02235174447, -187500.02235174447, -0.014, 0.026000000000000002, 1.004, 192.0, 0.0, 0.0, 0.0, 0.0, 0.0, 0.0, 0.0, 0.0, 0.0, 1.676047522034927E9, 0.0, 2023-02-10 11:45:22.034
50.0, 6872.043832784157, 187500.0, 187500.0, 187500.0, -187500.02235174447, 187500.0, -187500.02235174447, -187500.02235174447, -0.014, 0.026000000000000002, 1.004, 192.0, 0.0, 0.0, 0.0, 0.0, 0.0, 0.0, 0.0, 0.0, 0.0, 1.676047522042904E9, 0.0, 2023-02-10 11:45:22.042
51.0, 7022.895756113024, 187500.0, 187500.0, 187500.0, -187500.02235174447, 187500.0, -187500.02235174447, -187500.02235174447, -0.014, 0.026000000000000002, 1.004, 192.0, 0.0, 0.0, 0.0, 0.0, 0.0, 0.0, 0.0, 0.0, 0.0, 1.676047522042935E9, 0.0, 2023-02-10 11:45:22.042
52.0, 7121.958687538945, 187500.0, 187500.0, 187500.0, -187500.02235174447, 187500.0, -187500.02235174447, -187500.02235174447, -0.014, 0.026000000000000002, 1.004, 192.0, 0.0, 0.0, 0.0, 0.0, 0.0, 0.0, 0.0, 0.0, 0.0, 1.676047522049319E9, 0.0, 2023-02-10 11:45:22.049
53.0, 6975.66652007896, 187500.0, 187500.0, 187500.0, -187500.02235174447, 187500.0, -187500.02235174447, -187500.02235174447, -0.014, 0.026000000000000002, 1.004, 192.0, 0.0, 0.0, 0.0, 0.0, 0.0, 0.0, 0.0, 0.0, 0.0, 1.67604752204935E9, 0.0, 2023-02-10 11:45:22.049
54.0, 6785.386119530931, 187500.0, 187500.0, 187500.0, -187500.02235174447, 187500.0, -187500.02235174447, -187500.02235174447, -0.014, 0.026000000000000002, 1.004, 192.0, 0.0, 0.0, 0.0, 0.0, 0.0, 0.0, 0.0, 0.0, 0.0, 1.676047522057533E9, 0.0, 2023-02-10 11:45:22.057
55.0, 6902.308094776642, 187500.0, 187500.0, 187500.0, -187500.02235174447, 187500.0, -187500.02235174447, -187500.02235174447, -0.014, 0.026000000000000002, 1.004, 192.0, 0.0, 0.0, 0.0, 0.0, 0.0, 0.0, 0.0, 0.0, 0.0, 1.676047522057574E9, 0.0, 2023-02-10 11:45:22.057
56.0, 7052.265948327297, 187500.0, 187500.0, 187500.0, -187500.02235174447, 187500.0, -187500.02235174447, -187500.02235174447, -0.014, 0.026000000000000002, 1.004, 192.0, 0.0, 0.0, 0.0, 0.0, 0.0, 0.0, 0.0, 0.0, 0.0, 1.67604752206536E9, 0.0, 2023-02-10 11:45:22.065
57.0, 6934.472255047829, 187500.0, 187500.0, 187500.0, -187500.02235174447, 187500.0, -187500.02235174447, -187500.02235174447, -0.012, 0.028, 1.0, 192.0, 255.0, 160.0, 0.0, 224.0, 31.0, 64.0, 0.0, 0.0, 0.0, 1.676047522065389E9, 0.0, 2023-02-10 11:45:22.065
58.0, 6820.835986237048, 187500.0, 187500.0, 187500.0, -187500.02235174447, 187500.0, -187500.02235174447, -187500.02235174447, -0.012, 0.028, 1.0, 192.0, 0.0, 0.0, 0.0, 0.0, 0.0, 0.0, 0.0, 0.0, 0.0, 1.676047522073326E9, 0.0, 2023-02-10 11:45:22.073
59.0, 6977.521714868751, 187500.0, 187500.0, 187500.0, -187500.02235174447, 187500.0, -187500.02235174447, -187500.02235174447, -0.012, 0.028, 1.0, 192.0, 0.0, 0.0, 0.0, 0.0, 0.0, 0.0, 0.0, 0.0, 0.0, 1.676047522073369E9, 0.0, 2023-02-10 11:45:22.073
60.0, 7124.596193384671, 187500.0, 187500.0, 187500.0, -187500.02235174447, 187500.0, -187500.02235174447, -187500.02235174447, -0.012, 0.028, 1.0, 192.0, 0.0, 0.0, 0.0, 0.0, 0.0, 0.0, 0.0, 0.0, 0.0, 1.676047522079948E9, 0.0, 2023-02-10 11:45:22.079
61.0, 6972.581979344128, 187500.0, 187500.0, 187500.0, -187500.02235174447, 187500.0, -187500.02235174447, -187500.02235174447, -0.012, 0.028, 1.0, 192.0, 0.0, 0.0, 0.0, 0.0, 0.0, 0.0, 0.0, 0.0, 0.0, 1.676047522079973E9, 0.0, 2023-02-10 11:45:22.079
62.0, 6866.880579814981, 187500.0, 187500.0, 187500.0, -187500.02235174447, 187500.0, -187500.02235174447, -187500.02235174447, -0.012, 0.028, 1.0, 192.0, 0.0, 0.0, 0.0, 0.0, 0.0, 0.0, 0.0, 0.0, 0.0, 1.676047522088014E9, 0.0, 2023-02-10 11:45:22.088
63.0, 6930.583051512605, 187500.0, 187500.0, 187500.0, -187500.02235174447, 187500.0, -187500.02235174447, -187500.02235174447, -0.012, 0.028, 1.0, 192.0, 0.0, 0.0, 0.0, 0.0, 0.0, 0.0, 0.0, 0.0, 0.0, 1.676047522088075E9, 0.0, 2023-02-10 11:45:22.088
64.0, 7015.0055903203, 187500.0, 187500.0, 187500.0, -187500.02235174447, 187500.0, -187500.02235174447, -187500.02235174447, -0.012, 0.028, 1.0, 192.0, 0.0, 0.0, 0.0, 0.0, 0.0, 0.0, 0.0, 0.0, 0.0, 1.676047522096618E9, 0.0, 2023-02-10 11:45:22.096
65.0, 7022.068741568178, 187500.0, 187500.0, 187500.0, -187500.02235174447, 187500.0, -187500.02235174447, -187500.02235174447, -0.012, 0.028, 1.0, 192.0, 0.0, 0.0, 0.0, 0.0, 0.0, 0.0, 0.0, 0.0, 0.0, 1.676047522096652E9, 0.0, 2023-02-10 11:45:22.096
66.0, 6971.397336887996, 187500.0, 187500.0, 187500.0, -187500.02235174447, 187500.0, -187500.02235174447, -187500.02235174447, -0.014, 0.024, 1.0, 192.0, 255.0, 144.0, 0.0, 192.0, 31.0, 64.0, 0.0, 0.0, 0.0, 1.676047522102591E9, 0.0, 2023-02-10 11:45:22.102
67.0, 6865.047736769645, 187500.0, 187500.0, 187500.0, -187500.02235174447, 187500.0, -187500.02235174447, -187500.02235174447, -0.014, 0.024, 1.0, 192.0, 0.0, 0.0, 0.0, 0.0, 0.0, 0.0, 0.0, 0.0, 0.0, 1.676047522109813E9, 0.0, 2023-02-10 11:45:22.109
68.0, 6967.575188586139, 187500.0, 187500.0, 187500.0, -187500.02235174447, 187500.0, -187500.02235174447, -187500.02235174447, -0.014, 0.024, 1.0, 192.0, 0.0, 0.0, 0.0, 0.0, 0.0, 0.0, 0.0, 0.0, 0.0, 1.676047522109866E9, 0.0, 2023-02-10 11:45:22.109
69.0, 6974.727746811837, 187500.0, 187500.0, 187500.0, -187500.02235174447, 187500.0, -187500.02235174447, -187500.02235174447, -0.014, 0.024, 1.0, 192.0, 0.0, 0.0, 0.0, 0.0, 0.0, 0.0, 0.0, 0.0, 0.0, 1.676047522117712E9, 0.0, 2023-02-10 11:45:22.117
70.0, 6856.755239576726, 187500.0, 187500.0, 187500.0, -187500.02235174447, 187500.0, -187500.02235174447, -187500.02235174447, -0.014, 0.024, 1.0, 192.0, 0.0, 0.0, 0.0, 0.0, 0.0, 0.0, 0.0, 0.0, 0.0, 1.676047522117741E9, 0.0, 2023-02-10 11:45:22.117
71.0, 6900.497603475762, 187500.0, 187500.0, 187500.0, -187500.02235174447, 187500.0, -187500.02235174447, -187500.02235174447, -0.014, 0.024, 1.0, 192.0, 0.0, 0.0, 0.0, 0.0, 0.0, 0.0, 0.0, 0.0, 0.0, 1.676047522125685E9, 0.0, 2023-02-10 11:45:22.125
72.0, 7066.280492100775, 187500.0, 187500.0, 187500.0, -187500.02235174447, 187500.0, -187500.02235174447, -187500.02235174447, -0.014, 0.024, 1.0, 192.0, 0.0, 0.0, 0.0, 0.0, 0.0, 0.0, 0.0, 0.0, 0.0, 1.676047522125717E9, 0.0, 2023-02-10 11:45:22.125
73.0, 7009.127081528554, 187500.0, 187500.0, 187500.0, -187500.02235174447, 187500.0, -187500.02235174447, -187500.02235174447, -0.014, 0.024, 1.0, 192.0, 0.0, 0.0, 0.0, 0.0, 0.0, 0.0, 0.0, 0.0, 0.0, 1.676047522132287E9, 0.0, 2023-02-10 11:45:22.132
74.0, 6873.496696173751, 187500.0, 187500.0, 187500.0, -187500.02235174447, 187500.0, -187500.02235174447, -187500.02235174447, -0.014, 0.024, 1.0, 192.0, 0.0, 0.0, 0.0, 0.0, 0.0, 0.0, 0.0, 0.0, 0.0, 1.676047522132316E9, 0.0, 2023-02-10 11:45:22.132
75.0, 6859.817428567104, 187500.0, 187500.0, 187500.0, -187500.02235174447, 187500.0, -187500.02235174447, -187500.02235174447, -0.014, 0.024, 1.0, 192.0, 0.0, 0.0, 0.0, 0.0, 0.0, 0.0, 0.0, 0.0, 0.0, 1.676047522140333E9, 0.0, 2023-02-10 11:45:22.140
76.0, 7043.660526712004, 187500.0, 187500.0, 187500.0, -187500.02235174447, 187500.0, -187500.02235174447, -187500.02235174447, -0.01, 0.03, 0.998, 192.0, 255.0, 176.0, 0.0, 240.0, 31.0, 48.0, 0.0, 0.0, 0.0, 1.676047522140363E9, 0.0, 2023-02-10 11:45:22.140
77.0, 7055.328137317674, 187500.0, 187500.0, 187500.0, -187500.02235174447, 187500.0, -187500.02235174447, -187500.02235174447, -0.01, 0.03, 0.998, 192.0, 0.0, 0.0, 0.0, 0.0, 0.0, 0.0, 0.0, 0.0, 0.0, 1.676047522148334E9, 0.0, 2023-02-10 11:45:22.148
78.0, 6932.75117072477, 187500.0, 187500.0, 187500.0, -187500.02235174447, 187500.0, -187500.02235174447, -187500.02235174447, -0.01, 0.03, 0.998, 192.0, 0.0, 0.0, 0.0, 0.0, 0.0, 0.0, 0.0, 0.0, 0.0, 1.676047522148365E9, 0.0, 2023-02-10 11:45:22.148
79.0, 6910.399426269463, 187500.0, 187500.0, 187500.0, -187500.02235174447, 187500.0, -187500.02235174447, -187500.02235174447, -0.01, 0.03, 0.998, 192.0, 0.0, 0.0, 0.0, 0.0, 0.0, 0.0, 0.0, 0.0, 0.0, 1.676047522154949E9, 0.0, 2023-02-10 11:45:22.154
80.0, 6985.501287639295, 187500.0, 187500.0, 187500.0, -187500.02235174447, 187500.0, -187500.02235174447, -187500.02235174447, -0.01, 0.03, 0.998, 192.0, 0.0, 0.0, 0.0, 0.0, 0.0, 0.0, 0.0, 0.0, 0.0, 1.676047522154978E9, 0.0, 2023-02-10 11:45:22.154
81.0, 7048.041468625244, 187500.0, 187500.0, 187500.0, -187500.02235174447, 187500.0, -187500.02235174447, -187500.02235174447, -0.01, 0.03, 0.998, 192.0, 0.0, 0.0, 0.0, 0.0, 0.0, 0.0, 0.0, 0.0, 0.0, 1.676047522161952E9, 0.0, 2023-02-10 11:45:22.161
82.0, 6921.061208374645, 187500.0, 187500.0, 187500.0, -187500.02235174447, 187500.0, -187500.02235174447, -187500.02235174447, -0.01, 0.03, 0.998, 192.0, 0.0, 0.0, 0.0, 0.0, 0.0, 0.0, 0.0, 0.0, 0.0, 1.676047522169931E9, 0.0, 2023-02-10 11:45:22.169
83.0, 6827.027419451168, 187500.0, 187500.0, 187500.0, -187500.02235174447, 187500.0, -187500.02235174447, -187500.02235174447, -0.01, 0.03, 0.998, 192.0, 0.0, 0.0, 0.0, 0.0, 0.0, 0.0, 0.0, 0.0, 0.0, 1.676047522169961E9, 0.0, 2023-02-10 11:45:22.169
84.0, 6965.317662396153, 187500.0, 187500.0, 187500.0, -187500.02235174447, 187500.0, -187500.02235174447, -187500.02235174447, -0.01, 0.03, 0.998, 192.0, 0.0, 0.0, 0.0, 0.0, 0.0, 0.0, 0.0, 0.0, 0.0, 1.676047522178001E9, 0.0, 2023-02-10 11:45:22.178
85.0, 7080.339739363163, 187500.0, 187500.0, 187500.0, -187500.02235174447, 187500.0, -187500.02235174447, -187500.02235174447, -0.01, 0.03, 0.998, 192.0, 0.0, 0.0, 0.0, 0.0, 0.0, 0.0, 0.0, 0.0, 0.0, 1.676047522178029E9, 0.0, 2023-02-10 11:45:22.178
86.0, 7052.802390194224, 187500.0, 187500.0, 187500.0, -187500.02235174447, 187500.0, -187500.02235174447, -187500.02235174447, -0.014, 0.03, 0.998, 192.0, 255.0, 144.0, 0.0, 240.0, 31.0, 48.0, 0.0, 0.0, 0.0, 1.676047522185021E9, 0.0, 2023-02-10 11:45:22.185
87.0, 6806.352055830009, 187500.0, 187500.0, 187500.0, -187500.02235174447, 187500.0, -187500.02235174447, -187500.02235174447, -0.014, 0.03, 0.998, 192.0, 0.0, 0.0, 0.0, 0.0, 0.0, 0.0, 0.0, 0.0, 0.0, 1.676047522185097E9, 0.0, 2023-02-10 11:45:22.185
88.0, 6894.50733596174, 187500.0, 187500.0, 187500.0, -187500.02235174447, 187500.0, -187500.02235174447, -187500.02235174447, -0.014, 0.03, 0.998, 192.0, 0.0, 0.0, 0.0, 0.0, 0.0, 0.0, 0.0, 0.0, 0.0, 1.676047522192617E9, 0.0, 2023-02-10 11:45:22.192
89.0, 7134.185091755998, 187500.0, 187500.0, 187500.0, -187500.02235174447, 187500.0, -187500.02235174447, -187500.02235174447, -0.014, 0.03, 0.998, 192.0, 0.0, 0.0, 0.0, 0.0, 0.0, 0.0, 0.0, 0.0, 0.0, 1.676047522192647E9, 0.0, 2023-02-10 11:45:22.192
90.0, 7031.948212617423, 187500.0, 187500.0, 187500.0, -187500.02235174447, 187500.0, -187500.02235174447, -187500.02235174447, -0.014, 0.03, 0.998, 192.0, 0.0, 0.0, 0.0, 0.0, 0.0, 0.0, 0.0, 0.0, 0.0, 1.676047522200657E9, 0.0, 2023-02-10 11:45:22.200
91.0, 6889.925228348402, 187500.0, 187500.0, 187500.0, -187500.02235174447, 187500.0, -187500.02235174447, -187500.02235174447, -0.014, 0.03, 0.998, 192.0, 0.0, 0.0, 0.0, 0.0, 0.0, 0.0, 0.0, 0.0, 0.0, 1.676047522200693E9, 0.0, 2023-02-10 11:45:22.200
92.0, 7010.915221084979, 187500.0, 187500.0, 187500.0, -187500.02235174447, 187500.0, -187500.02235174447, -187500.02235174447, -0.014, 0.03, 0.998, 192.0, 0.0, 0.0, 0.0, 0.0, 0.0, 0.0, 0.0, 0.0, 0.0, 1.676047522207835E9, 0.0, 2023-02-10 11:45:22.207
93.0, 7069.4544398134285, 187500.0, 187500.0, 187500.0, -187500.02235174447, 187500.0, -187500.02235174447, -187500.02235174447, -0.014, 0.03, 0.998, 192.0, 0.0, 0.0, 0.0, 0.0, 0.0, 0.0, 0.0, 0.0, 0.0, 1.676047522207867E9, 0.0, 2023-02-10 11:45:22.207
94.0, 7001.594543647117, 187500.0, 187500.0, 187500.0, -187500.02235174447, 187500.0, -187500.02235174447, -187500.02235174447, -0.014, 0.03, 0.998, 192.0, 0.0, 0.0, 0.0, 0.0, 0.0, 0.0, 0.0, 0.0, 0.0, 1.676047522215227E9, 0.0, 2023-02-10 11:45:22.215
95.0, 6848.1051144725225, 187500.0, 187500.0, 187500.0, -187500.02235174447, 187500.0, -187500.02235174447, -187500.02235174447, -0.014, 0.03, 0.998, 192.0, 0.0, 0.0, 0.0, 0.0, 0.0, 0.0, 0.0, 0.0, 0.0, 1.676047522215256E9, 0.0, 2023-02-10 11:45:22.215
96.0, 6884.024367812201, 187500.0, 187500.0, 187500.0, -187500.02235174447, 187500.0, -187500.02235174447, -187500.02235174447, -0.012, 0.028, 1.0, 192.0, 255.0, 160.0, 0.0, 224.0, 31.0, 64.0, 0.0, 0.0, 0.0, 1.676047522222293E9, 0.0, 2023-02-10 11:45:22.222
97.0, 7075.467059071906, 187500.0, 187500.0, 187500.0, -187500.02235174447, 187500.0, -187500.02235174447, -187500.02235174447, -0.012, 0.028, 1.0, 192.0, 0.0, 0.0, 0.0, 0.0, 0.0, 0.0, 0.0, 0.0, 0.0, 1.676047522230237E9, 0.0, 2023-02-10 11:45:22.230
98.0, 7066.660471756515, 187500.0, 187500.0, 187500.0, -187500.02235174447, 187500.0, -187500.02235174447, -187500.02235174447, -0.012, 0.028, 1.0, 192.0, 0.0, 0.0, 0.0, 0.0, 0.0, 0.0, 0.0, 0.0, 0.0, 1.676047522230266E9, 0.0, 2023-02-10 11:45:22.230
99.0, 6876.424774697397, 187500.0, 187500.0, 187500.0, -187500.02235174447, 187500.0, -187500.02235174447, -187500.02235174447, -0.012, 0.028, 1.0, 192.0, 0.0, 0.0, 0.0, 0.0, 0.0, 0.0, 0.0, 0.0, 0.0, 1.676047522237513E9, 0.0, 2023-02-10 11:45:22.237
100.0, 6865.0700885141005, 187500.0, 187500.0, 187500.0, -187500.02235174447, 187500.0, -187500.02235174447, -187500.02235174447, -0.012, 0.028, 1.0, 192.0, 0.0, 0.0, 0.0, 0.0, 0.0, 0.0, 0.0, 0.0, 0.0, 1.676047522237551E9, 0.0, 2023-02-10 11:45:22.237
101.0, 7073.947140448945, 187500.0, 187500.0, 187500.0, -187500.02235174447, 187500.0, -187500.02235174447, -187500.02235174447, -0.012, 0.028, 1.0, 192.0, 0.0, 0.0, 0.0, 0.0, 0.0, 0.0, 0.0, 0.0, 0.0, 1.676047522244947E9, 0.0, 2023-02-10 11:45:22.244
102.0, 7103.943181507967, 187500.0, 187500.0, 187500.0, -187500.02235174447, 187500.0, -187500.02235174447, -187500.02235174447, -0.012, 0.028, 1.0, 192.0, 0.0, 0.0, 0.0, 0.0, 0.0, 0.0, 0.0, 0.0, 0.0, 1.676047522245086E9, 0.0, 2023-02-10 11:45:22.245
103.0, 6946.743362753793, 187500.0, 187500.0, 187500.0, -187500.02235174447, 187500.0, -187500.02235174447, -187500.02235174447, -0.012, 0.028, 1.0, 192.0, 0.0, 0.0, 0.0, 0.0, 0.0, 0.0, 0.0, 0.0, 0.0, 1.676047522252911E9, 0.0, 2023-02-10 11:45:22.252
104.0, 6897.904801118947, 187500.0, 187500.0, 187500.0, -187500.02235174447, 187500.0, -187500.02235174447, -187500.02235174447, -0.012, 0.028, 1.0, 192.0, 0.0, 0.0, 0.0, 0.0, 0.0, 0.0, 0.0, 0.0, 0.0, 1.676047522252952E9, 0.0, 2023-02-10 11:45:22.252
105.0, 7071.0190619253, 187500.0, 187500.0, 187500.0, -187500.02235174447, 187500.0, -187500.02235174447, -187500.02235174447, -0.012, 0.028, 1.0, 192.0, 0.0, 0.0, 0.0, 0.0, 0.0, 0.0, 0.0, 0.0, 0.0, 1.676047522260972E9, 0.0, 2023-02-10 11:45:22.260
106.0, 7064.067669399699, 187500.0, 187500.0, 187500.0, -187500.02235174447, 187500.0, -187500.02235174447, -187500.02235174447, -0.018000000000000002, 0.028, 1.0, 192.0, 255.0, 112.0, 0.0, 224.0, 31.0, 64.0, 0.0, 0.0, 0.0, 1.676047522261013E9, 0.0, 2023-02-10 11:45:22.261
107.0, 6990.95511328639, 187500.0, 187500.0, 187500.0, -187500.02235174447, 187500.0, -187500.02235174447, -187500.02235174447, -0.018000000000000002, 0.028, 1.0, 192.0, 0.0, 0.0, 0.0, 0.0, 0.0, 0.0, 0.0, 0.0, 0.0, 1.676047522267487E9, 0.0, 2023-02-10 11:45:22.267
108.0, 6837.175111433878, 187500.0, 187500.0, 187500.0, -187500.02235174447, 187500.0, -187500.02235174447, -187500.02235174447, -0.018000000000000002, 0.028, 1.0, 192.0, 0.0, 0.0, 0.0, 0.0, 0.0, 0.0, 0.0, 0.0, 0.0, 1.676047522267517E9, 0.0, 2023-02-10 11:45:22.267
109.0, 6928.616098000539, 187500.0, 187500.0, 187500.0, -187500.02235174447, 187500.0, -187500.02235174447, -187500.02235174447, -0.018000000000000002, 0.028, 1.0, 192.0, 0.0, 0.0, 0.0, 0.0, 0.0, 0.0, 0.0, 0.0, 0.0, 1.676047522275436E9, 0.0, 2023-02-10 11:45:22.275
110.0, 7073.164829393009, 187500.0, 187500.0, 187500.0, -187500.02235174447, 187500.0, -187500.02235174447, -187500.02235174447, -0.018000000000000002, 0.028, 1.0, 192.0, 0.0, 0.0, 0.0, 0.0, 0.0, 0.0, 0.0, 0.0, 0.0, 1.676047522275472E9, 0.0, 2023-02-10 11:45:22.275
111.0, 7009.082378039644, 187500.0, 187500.0, 187500.0, -187500.02235174447, 187500.0, -187500.02235174447, -187500.02235174447, -0.018000000000000002, 0.028, 1.0, 192.0, 0.0, 0.0, 0.0, 0.0, 0.0, 0.0, 0.0, 0.0, 0.0, 1.676047522282457E9, 0.0, 2023-02-10 11:45:22.282
112.0, 6928.839615445092, 187500.0, 187500.0, 187500.0, -187500.02235174447, 187500.0, -187500.02235174447, -187500.02235174447, -0.018000000000000002, 0.028, 1.0, 192.0, 0.0, 0.0, 0.0, 0.0, 0.0, 0.0, 0.0, 0.0, 0.0, 1.676047522290732E9, 0.0, 2023-02-10 11:45:22.290
113.0, 6973.766621800259, 187500.0, 187500.0, 187500.0, -187500.02235174447, 187500.0, -187500.02235174447, -187500.02235174447, -0.018000000000000002, 0.028, 1.0, 192.0, 0.0, 0.0, 0.0, 0.0, 0.0, 0.0, 0.0, 0.0, 0.0, 1.676047522290763E9, 0.0, 2023-02-10 11:45:22.290
114.0, 7120.88580380509, 187500.0, 187500.0, 187500.0, -187500.02235174447, 187500.0, -187500.02235174447, -187500.02235174447, -0.018000000000000002, 0.028, 1.0, 192.0, 0.0, 0.0, 0.0, 0.0, 0.0, 0.0, 0.0, 0.0, 0.0, 1.67604752229726E9, 0.0, 2023-02-10 11:45:22.297
115.0, 7007.383645461041, 187500.0, 187500.0, 187500.0, -187500.02235174447, 187500.0, -187500.02235174447, -187500.02235174447, -0.016, 0.024, 0.998, 192.0, 255.0, 128.0, 0.0, 192.0, 31.0, 48.0, 0.0, 0.0, 0.0, 1.67604752229729E9, 0.0, 2023-02-10 11:45:22.297
116.0, 6846.2275679382765, 187500.0, 187500.0, 187500.0, -187500.02235174447, 187500.0, -187500.02235174447, -187500.02235174447, -0.016, 0.024, 0.998, 192.0, 0.0, 0.0, 0.0, 0.0, 0.0, 0.0, 0.0, 0.0, 0.0, 1.676047522306595E9, 0.0, 2023-02-10 11:45:22.306
117.0, 6930.471292790329, 187500.0, 187500.0, 187500.0, -187500.02235174447, 187500.0, -187500.02235174447, -187500.02235174447, -0.016, 0.024, 0.998, 192.0, 0.0, 0.0, 0.0, 0.0, 0.0, 0.0, 0.0, 0.0, 0.0, 1.676047522306891E9, 0.0, 2023-02-10 11:45:22.306
118.0, 7133.291021977785, 187500.0, 187500.0, 187500.0, -187500.02235174447, 187500.0, -187500.02235174447, -187500.02235174447, -0.016, 0.024, 0.998, 192.0, 0.0, 0.0, 0.0, 0.0, 0.0, 0.0, 0.0, 0.0, 0.0, 1.67604752231331E9, 0.0, 2023-02-10 11:45:22.313
119.0, 6997.750043600803, 187500.0, 187500.0, 187500.0, -187500.02235174447, 187500.0, -187500.02235174447, -187500.02235174447, -0.016, 0.024, 0.998, 192.0, 0.0, 0.0, 0.0, 0.0, 0.0, 0.0, 0.0, 0.0, 0.0, 1.67604752231334E9, 0.0, 2023-02-10 11:45:22.313
120.0, 6858.699841344338, 187500.0, 187500.0, 187500.0, -187500.02235174447, 187500.0, -187500.02235174447, -187500.02235174447, -0.016, 0.024, 0.998, 192.0, 0.0, 0.0, 0.0, 0.0, 0.0, 0.0, 0.0, 0.0, 0.0, 1.676047522319824E9, 0.0, 2023-02-10 11:45:22.319
121.0, 6917.84255717308, 187500.0, 187500.0, 187500.0, -187500.02235174447, 187500.0, -187500.02235174447, -187500.02235174447, -0.016, 0.024, 0.998, 192.0, 0.0, 0.0, 0.0, 0.0, 0.0, 0.0, 0.0, 0.0, 0.0, 1.676047522319868E9, 0.0, 2023-02-10 11:45:22.319
122.0, 7090.085099945677, 187500.0, 187500.0, 187500.0, -187500.02235174447, 187500.0, -187500.02235174447, -187500.02235174447, -0.016, 0.024, 0.998, 192.0, 0.0, 0.0, 0.0, 0.0, 0.0, 0.0, 0.0, 0.0, 0.0, 1.676047522327808E9, 0.0, 2023-02-10 11:45:22.327
123.0, 7037.737314431348, 187500.0, 187500.0, 187500.0, -187500.02235174447, 187500.0, -187500.02235174447, -187500.02235174447, -0.016, 0.024, 0.998, 192.0, 0.0, 0.0, 0.0, 0.0, 0.0, 0.0, 0.0, 0.0, 0.0, 1.676047522327839E9, 0.0, 2023-02-10 11:45:22.327
124.0, 6881.342158477564, 187500.0, 187500.0, 187500.0, -187500.02235174447, 187500.0, -187500.02235174447, -187500.02235174447, -0.016, 0.024, 0.998, 192.0, 0.0, 0.0, 0.0, 0.0, 0.0, 0.0, 0.0, 0.0, 0.0, 1.676047522336926E9, 0.0, 2023-02-10 11:45:22.336
125.0, 6886.974798080301, 187500.0, 187500.0, 187500.0, -187500.02235174447, 187500.0, -187500.02235174447, -187500.02235174447, -0.01, 0.022, 0.998, 192.0, 255.0, 176.0, 0.0, 176.0, 31.0, 48.0, 0.0, 0.0, 0.0, 1.676047522336965E9, 0.0, 2023-02-10 11:45:22.336
126.0, 7061.631329254071, 187500.0, 187500.0, 187500.0, -187500.02235174447, 187500.0, -187500.02235174447, -187500.02235174447, -0.01, 0.022, 0.998, 192.0, 0.0, 0.0, 0.0, 0.0, 0.0, 0.0, 0.0, 0.0, 0.0, 1.676047522342991E9, 0.0, 2023-02-10 11:45:22.342
127.0, 7133.469835933428, 187500.0, 187500.0, 187500.0, -187500.02235174447, 187500.0, -187500.02235174447, -187500.02235174447, -0.01, 0.022, 0.998, 192.0, 0.0, 0.0, 0.0, 0.0, 0.0, 0.0, 0.0, 0.0, 0.0, 1.676047522343021E9, 0.0, 2023-02-10 11:45:22.343
128.0, 6953.761810512759, 187500.0, 187500.0, 187500.0, -187500.02235174447, 187500.0, -187500.02235174447, -187500.02235174447, -0.01, 0.022, 0.998, 192.0, 0.0, 0.0, 0.0, 0.0, 0.0, 0.0, 0.0, 0.0, 0.0, 1.676047522350884E9, 0.0, 2023-02-10 11:45:22.350
129.0, 6908.276010546209, 187500.0, 187500.0, 187500.0, -187500.02235174447, 187500.0, -187500.02235174447, -187500.02235174447, -0.01, 0.022, 0.998, 192.0, 0.0, 0.0, 0.0, 0.0, 0.0, 0.0, 0.0, 0.0, 0.0, 1.676047522358033E9, 0.0, 2023-02-10 11:45:22.358
130.0, 7043.258195311809, 187500.0, 187500.0, 187500.0, -187500.02235174447, 187500.0, -187500.02235174447, -187500.02235174447, -0.01, 0.022, 0.998, 192.0, 0.0, 0.0, 0.0, 0.0, 0.0, 0.0, 0.0, 0.0, 0.0, 1.676047522358064E9, 0.0, 2023-02-10 11:45:22.358
131.0, 7209.599877548204, 187500.0, 187500.0, 187500.0, -187500.02235174447, 187500.0, -187500.02235174447, -187500.02235174447, -0.01, 0.022, 0.998, 192.0, 0.0, 0.0, 0.0, 0.0, 0.0, 0.0, 0.0, 0.0, 0.0, 1.676047522366852E9, 0.0, 2023-02-10 11:45:22.366
132.0, 7077.54577130625, 187500.0, 187500.0, 187500.0, -187500.02235174447, 187500.0, -187500.02235174447, -187500.02235174447, -0.01, 0.022, 0.998, 192.0, 0.0, 0.0, 0.0, 0.0, 0.0, 0.0, 0.0, 0.0, 0.0, 1.676047522367043E9, 0.0, 2023-02-10 11:45:22.367
133.0, 6796.696102225316, 187500.0, 187500.0, 187500.0, -187500.02235174447, 187500.0, -187500.02235174447, -187500.02235174447, -0.01, 0.022, 0.998, 192.0, 0.0, 0.0, 0.0, 0.0, 0.0, 0.0, 0.0, 0.0, 0.0, 1.676047522373021E9, 0.0, 2023-02-10 11:45:22.373
134.0, 6929.867795690036, 187500.0, 187500.0, 187500.0, -187500.02235174447, 187500.0, -187500.02235174447, -187500.02235174447, -0.01, 0.022, 0.998, 192.0, 0.0, 0.0, 0.0, 0.0, 0.0, 0.0, 0.0, 0.0, 0.0, 1.676047522373052E9, 0.0, 2023-02-10 11:45:22.373
135.0, 7099.226963427897, 187500.0, 187500.0, 187500.0, -187500.02235174447, 187500.0, -187500.02235174447, -187500.02235174447, -0.012, 0.026000000000000002, 1.002, 192.0, 255.0, 160.0, 0.0, 208.0, 31.0, 80.0, 0.0, 0.0, 0.0, 1.676047522380011E9, 0.0, 2023-02-10 11:45:22.380
136.0, 6980.42744164794, 187500.0, 187500.0, 187500.0, -187500.02235174447, 187500.0, -187500.02235174447, -187500.02235174447, -0.012, 0.026000000000000002, 1.002, 192.0, 0.0, 0.0, 0.0, 0.0, 0.0, 0.0, 0.0, 0.0, 0.0, 1.676047522380041E9, 0.0, 2023-02-10 11:45:22.380
137.0, 6848.619204594995, 187500.0, 187500.0, 187500.0, -187500.02235174447, 187500.0, -187500.02235174447, -187500.02235174447, -0.012, 0.026000000000000002, 1.002, 192.0, 0.0, 0.0, 0.0, 0.0, 0.0, 0.0, 0.0, 0.0, 0.0, 1.676047522388068E9, 0.0, 2023-02-10 11:45:22.388
138.0, 6974.9512642563905, 187500.0, 187500.0, 187500.0, -187500.02235174447, 187500.0, -187500.02235174447, -187500.02235174447, -0.012, 0.026000000000000002, 1.002, 192.0, 0.0, 0.0, 0.0, 0.0, 0.0, 0.0, 0.0, 0.0, 0.0, 1.676047522388097E9, 0.0, 2023-02-10 11:45:22.388
139.0, 7160.604853702171, 187500.0, 187500.0, 187500.0, -187500.02235174447, 187500.0, -187500.02235174447, -187500.02235174447, -0.012, 0.026000000000000002, 1.002, 192.0, 0.0, 0.0, 0.0, 0.0, 0.0, 0.0, 0.0, 0.0, 0.0, 1.676047522396034E9, 0.0, 2023-02-10 11:45:22.396
140.0, 7132.12873126611, 187500.0, 187500.0, 187500.0, -187500.02235174447, 187500.0, -187500.02235174447, -187500.02235174447, -0.012, 0.026000000000000002, 1.002, 192.0, 0.0, 0.0, 0.0, 0.0, 0.0, 0.0, 0.0, 0.0, 0.0, 1.676047522396059E9, 0.0, 2023-02-10 11:45:22.396
141.0, 6901.4587284873405, 187500.0, 187500.0, 187500.0, -187500.02235174447, 187500.0, -187500.02235174447, -187500.02235174447, -0.012, 0.026000000000000002, 1.002, 192.0, 0.0, 0.0, 0.0, 0.0, 0.0, 0.0, 0.0, 0.0, 0.0, 1.676047522402593E9, 0.0, 2023-02-10 11:45:22.402
142.0, 6858.49867564424, 187500.0, 187500.0, 187500.0, -187500.02235174447, 187500.0, -187500.02235174447, -187500.02235174447, -0.012, 0.026000000000000002, 1.002, 192.0, 0.0, 0.0, 0.0, 0.0, 0.0, 0.0, 0.0, 0.0, 0.0, 1.676047522402619E9, 0.0, 2023-02-10 11:45:22.402
143.0, 7118.449463659462, 187500.0, 187500.0, 187500.0, -187500.02235174447, 187500.0, -187500.02235174447, -187500.02235174447, -0.012, 0.026000000000000002, 1.002, 192.0, 0.0, 0.0, 0.0, 0.0, 0.0, 0.0, 0.0, 0.0, 0.0, 1.676047522409625E9, 0.0, 2023-02-10 11:45:22.409
144.0, 7134.855644089657, 187500.0, 187500.0, 187500.0, -187500.02235174447, 187500.0, -187500.02235174447, -187500.02235174447, -0.012, 0.026000000000000002, 1.002, 192.0, 0.0, 0.0, 0.0, 0.0, 0.0, 0.0, 0.0, 0.0, 0.0, 1.676047522417728E9, 0.0, 2023-02-10 11:45:22.417
145.0, 6895.714330162326, 187500.0, 187500.0, 187500.0, -187500.02235174447, 187500.0, -187500.02235174447, -187500.02235174447, -0.014, 0.026000000000000002, 1.004, 192.0, 255.0, 144.0, 0.0, 208.0, 31.0, 96.0, 0.0, 0.0, 0.0, 1.67604752241776E9, 0.0, 2023-02-10 11:45:22.417
146.0, 6930.292478834686, 187500.0, 187500.0, 187500.0, -187500.02235174447, 187500.0, -187500.02235174447, -187500.02235174447, -0.014, 0.026000000000000002, 1.004, 192.0, 0.0, 0.0, 0.0, 0.0, 0.0, 0.0, 0.0, 0.0, 0.0, 1.676047522425825E9, 0.0, 2023-02-10 11:45:22.425
147.0, 7117.756559581347, 187500.0, 187500.0, 187500.0, -187500.02235174447, 187500.0, -187500.02235174447, -187500.02235174447, -0.014, 0.026000000000000002, 1.004, 192.0, 0.0, 0.0, 0.0, 0.0, 0.0, 0.0, 0.0, 0.0, 0.0, 1.676047522426026E9, 0.0, 2023-02-10 11:45:22.426
148.0, 7100.478661117395, 187500.0, 187500.0, 187500.0, -187500.02235174447, 187500.0, -187500.02235174447, -187500.02235174447, -0.014, 0.026000000000000002, 1.004, 192.0, 0.0, 0.0, 0.0, 0.0, 0.0, 0.0, 0.0, 0.0, 0.0, 1.676047522432851E9, 0.0, 2023-02-10 11:45:22.432
149.0, 6969.676252564937, 187500.0, 187500.0, 187500.0, -187500.02235174447, 187500.0, -187500.02235174447, -187500.02235174447, -0.014, 0.026000000000000002, 1.004, 192.0, 0.0, 0.0, 0.0, 0.0, 0.0, 0.0, 0.0, 0.0, 0.0, 1.67604752243288E9, 0.0, 2023-02-10 11:45:22.432
150.0, 6877.1623822644215, 187500.0, 187500.0, 187500.0, -187500.02235174447, 187500.0, -187500.02235174447, -187500.02235174447, -0.014, 0.026000000000000002, 1.004, 192.0, 0.0, 0.0, 0.0, 0.0, 0.0, 0.0, 0.0, 0.0, 0.0, 1.676047522440584E9, 0.0, 2023-02-10 11:45:22.440
151.0, 7075.198838138443, 187500.0, 187500.0, 187500.0, -187500.02235174447, 187500.0, -187500.02235174447, -187500.02235174447, -0.014, 0.026000000000000002, 1.004, 192.0, 0.0, 0.0, 0.0, 0.0, 0.0, 0.0, 0.0, 0.0, 0.0, 1.676047522440627E9, 0.0, 2023-02-10 11:45:22.440
152.0, 7101.752710551347, 187500.0, 187500.0, 187500.0, -187500.02235174447, 187500.0, -187500.02235174447, -187500.02235174447, -0.014, 0.026000000000000002, 1.004, 192.0, 0.0, 0.0, 0.0, 0.0, 0.0, 0.0, 0.0, 0.0, 0.0, 1.676047522448314E9, 0.0, 2023-02-10 11:45:22.448
153.0, 6962.702508294882, 187500.0, 187500.0, 187500.0, -187500.02235174447, 187500.0, -187500.02235174447, -187500.02235174447, -0.014, 0.026000000000000002, 1.004, 192.0, 0.0, 0.0, 0.0, 0.0, 0.0, 0.0, 0.0, 0.0, 0.0, 1.676047522448343E9, 0.0, 2023-02-10 11:45:22.448
154.0, 6889.835821370581, 187500.0, 187500.0, 187500.0, -187500.02235174447, 187500.0, -187500.02235174447, -187500.02235174447, -0.014, 0.026000000000000002, 1.004, 192.0, 0.0, 0.0, 0.0, 0.0, 0.0, 0.0, 0.0, 0.0, 0.0, 1.676047522455405E9, 0.0, 2023-02-10 11:45:22.455
155.0, 7021.286430512242, 187500.0, 187500.0, 187500.0, -187500.02235174447, 187500.0, -187500.02235174447, -187500.02235174447, -0.012, 0.028, 0.996, 192.0, 255.0, 160.0, 0.0, 224.0, 31.0, 32.0, 0.0, 0.0, 0.0, 1.676047522455447E9, 0.0, 2023-02-10 11:45:22.455
156.0, 7132.016972543833, 187500.0, 187500.0, 187500.0, -187500.02235174447, 187500.0, -187500.02235174447, -187500.02235174447, -0.012, 0.028, 0.996, 192.0, 0.0, 0.0, 0.0, 0.0, 0.0, 0.0, 0.0, 0.0, 0.0, 1.676047522462887E9, 0.0, 2023-02-10 11:45:22.462
157.0, 7016.972543832368, 187500.0, 187500.0, 187500.0, -187500.02235174447, 187500.0, -187500.02235174447, -187500.02235174447, -0.012, 0.028, 0.996, 192.0, 0.0, 0.0, 0.0, 0.0, 0.0, 0.0, 0.0, 0.0, 0.0, 1.676047522462916E9, 0.0, 2023-02-10 11:45:22.462
158.0, 6860.733850089771, 187500.0, 187500.0, 187500.0, -187500.02235174447, 187500.0, -187500.02235174447, -187500.02235174447, -0.012, 0.028, 0.996, 192.0, 0.0, 0.0, 0.0, 0.0, 0.0, 0.0, 0.0, 0.0, 0.0, 1.676047522470283E9, 0.0, 2023-02-10 11:45:22.470
159.0, 7037.066762097688, 187500.0, 187500.0, 187500.0, -187500.02235174447, 187500.0, -187500.02235174447, -187500.02235174447, -0.012, 0.028, 0.996, 192.0, 0.0, 0.0, 0.0, 0.0, 0.0, 0.0, 0.0, 0.0, 0.0, 1.676047522477995E9, 0.0, 2023-02-10 11:45:22.477
160.0, 7305.354750794739, 187500.0, 187500.0, 187500.0, -187500.02235174447, 187500.0, -187500.02235174447, -187500.02235174447, -0.012, 0.028, 0.996, 192.0, 0.0, 0.0, 0.0, 0.0, 0.0, 0.0, 0.0, 0.0, 0.0, 1.676047522478024E9, 0.0, 2023-02-10 11:45:22.478
161.0, 6964.75886878477, 187500.0, 187500.0, 187500.0, -187500.02235174447, 187500.0, -187500.02235174447, -187500.02235174447, -0.012, 0.028, 0.996, 192.0, 0.0, 0.0, 0.0, 0.0, 0.0, 0.0, 0.0, 0.0, 0.0, 1.676047522485077E9, 0.0, 2023-02-10 11:45:22.485
162.0, 6836.817483522593, 187500.0, 187500.0, 187500.0, -187500.02235174447, 187500.0, -187500.02235174447, -187500.02235174447, -0.012, 0.028, 0.996, 192.0, 0.0, 0.0, 0.0, 0.0, 0.0, 0.0, 0.0, 0.0, 0.0, 1.676047522485227E9, 0.0, 2023-02-10 11:45:22.485
163.0, 6923.184624097899, 187500.0, 187500.0, 187500.0, -187500.02235174447, 187500.0, -187500.02235174447, -187500.02235174447, -0.012, 0.028, 0.996, 192.0, 0.0, 0.0, 0.0, 0.0, 0.0, 0.0, 0.0, 0.0, 0.0, 1.676047522492603E9, 0.0, 2023-02-10 11:45:22.492
164.0, 7125.087931762688, 187500.0, 187500.0, 187500.0, -187500.02235174447, 187500.0, -187500.02235174447, -187500.02235174447, -0.012, 0.028, 0.996, 192.0, 0.0, 0.0, 0.0, 0.0, 0.0, 0.0, 0.0, 0.0, 0.0, 1.67604752249264E9, 0.0, 2023-02-10 11:45:22.492
165.0, 7070.370861336096, 187500.0, 187500.0, 187500.0, -187500.02235174447, 187500.0, -187500.02235174447, -187500.02235174447, -0.016, 0.028, 0.998, 192.0, 255.0, 128.0, 0.0, 224.0, 31.0, 48.0, 0.0, 0.0, 0.0, 1.67604752250054E9, 0.0, 2023-02-10 11:45:22.500
166.0, 6899.938809864379, 187500.0, 187500.0, 187500.0, -187500.02235174447, 187500.0, -187500.02235174447, -187500.02235174447, -0.016, 0.028, 0.998, 192.0, 0.0, 0.0, 0.0, 0.0, 0.0, 0.0, 0.0, 0.0, 0.0, 1.67604752250057E9, 0.0, 2023-02-10 11:45:22.500
167.0, 6936.662726004449, 187500.0, 187500.0, 187500.0, -187500.02235174447, 187500.0, -187500.02235174447, -187500.02235174447, -0.016, 0.028, 0.998, 192.0, 0.0, 0.0, 0.0, 0.0, 0.0, 0.0, 0.0, 0.0, 0.0, 1.676047522507596E9, 0.0, 2023-02-10 11:45:22.507
168.0, 7099.115204705621, 187500.0, 187500.0, 187500.0, -187500.02235174447, 187500.0, -187500.02235174447, -187500.02235174447, -0.016, 0.028, 0.998, 192.0, 0.0, 0.0, 0.0, 0.0, 0.0, 0.0, 0.0, 0.0, 0.0, 1.676047522507624E9, 0.0, 2023-02-10 11:45:22.507
169.0, 7076.808163739224, 187500.0, 187500.0, 187500.0, -187500.02235174447, 187500.0, -187500.02235174447, -187500.02235174447, -0.016, 0.028, 0.998, 192.0, 0.0, 0.0, 0.0, 0.0, 0.0, 0.0, 0.0, 0.0, 0.0, 1.676047522515188E9, 0.0, 2023-02-10 11:45:22.515
170.0, 7000.901639569001, 187500.0, 187500.0, 187500.0, -187500.02235174447, 187500.0, -187500.02235174447, -187500.02235174447, -0.016, 0.028, 0.998, 192.0, 0.0, 0.0, 0.0, 0.0, 0.0, 0.0, 0.0, 0.0, 0.0, 1.676047522515227E9, 0.0, 2023-02-10 11:45:22.515
171.0, 6999.672293623959, 187500.0, 187500.0, 187500.0, -187500.02235174447, 187500.0, -187500.02235174447, -187500.02235174447, -0.016, 0.028, 0.998, 192.0, 0.0, 0.0, 0.0, 0.0, 0.0, 0.0, 0.0, 0.0, 0.0, 1.676047522523187E9, 0.0, 2023-02-10 11:45:22.523
172.0, 7120.595231127171, 187500.0, 187500.0, 187500.0, -187500.02235174447, 187500.0, -187500.02235174447, -187500.02235174447, -0.016, 0.028, 0.998, 192.0, 0.0, 0.0, 0.0, 0.0, 0.0, 0.0, 0.0, 0.0, 0.0, 1.676047522523234E9, 0.0, 2023-02-10 11:45:22.523
173.0, 7200.748586743902, 187500.0, 187500.0, 187500.0, -187500.02235174447, 187500.0, -187500.02235174447, -187500.02235174447, -0.016, 0.028, 0.998, 192.0, 0.0, 0.0, 0.0, 0.0, 0.0, 0.0, 0.0, 0.0, 0.0, 1.67604752253017E9, 0.0, 2023-02-10 11:45:22.530
174.0, 6930.828920701614, 187500.0, 187500.0, 187500.0, -187500.02235174447, 187500.0, -187500.02235174447, -187500.02235174447, -0.02, 0.028, 1.002, 192.0, 255.0, 96.0, 0.0, 224.0, 31.0, 80.0, 0.0, 0.0, 0.0, 1.676047522539427E9, 0.0, 2023-02-10 11:45:22.539
175.0, 6908.968914624324, 187500.0, 187500.0, 187500.0, -187500.02235174447, 187500.0, -187500.02235174447, -187500.02235174447, -0.02, 0.028, 1.002, 192.0, 0.0, 0.0, 0.0, 0.0, 0.0, 0.0, 0.0, 0.0, 0.0, 1.676047522539477E9, 0.0, 2023-02-10 11:45:22.539
176.0, 7041.693573199937, 187500.0, 187500.0, 187500.0, -187500.02235174447, 187500.0, -187500.02235174447, -187500.02235174447, -0.02, 0.028, 1.002, 192.0, 0.0, 0.0, 0.0, 0.0, 0.0, 0.0, 0.0, 0.0, 0.0, 1.676047522545073E9, 0.0, 2023-02-10 11:45:22.545
177.0, 7096.1647744375205, 187500.0, 187500.0, 187500.0, -187500.02235174447, 187500.0, -187500.02235174447, -187500.02235174447, -0.02, 0.028, 1.002, 192.0, 0.0, 0.0, 0.0, 0.0, 0.0, 0.0, 0.0, 0.0, 0.0, 1.676047522545223E9, 0.0, 2023-02-10 11:45:22.545
178.0, 6993.7937848322135, 187500.0, 187500.0, 187500.0, -187500.02235174447, 187500.0, -187500.02235174447, -187500.02235174447, -0.02, 0.028, 1.002, 192.0, 0.0, 0.0, 0.0, 0.0, 0.0, 0.0, 0.0, 0.0, 0.0, 1.676047522553452E9, 0.0, 2023-02-10 11:45:22.553
179.0, 6882.392690466963, 187500.0, 187500.0, 187500.0, -187500.02235174447, 187500.0, -187500.02235174447, -187500.02235174447, -0.02, 0.028, 1.002, 192.0, 0.0, 0.0, 0.0, 0.0, 0.0, 0.0, 0.0, 0.0, 0.0, 1.676047522553548E9, 0.0, 2023-02-10 11:45:22.553
180.0, 7015.050293809211, 187500.0, 187500.0, 187500.0, -187500.02235174447, 187500.0, -187500.02235174447, -187500.02235174447, -0.02, 0.028, 1.002, 192.0, 0.0, 0.0, 0.0, 0.0, 0.0, 0.0, 0.0, 0.0, 0.0, 1.676047522561004E9, 0.0, 2023-02-10 11:45:22.561
181.0, 7132.955745810956, 187500.0, 187500.0, 187500.0, -187500.02235174447, 187500.0, -187500.02235174447, -187500.02235174447, -0.02, 0.028, 1.002, 192.0, 0.0, 0.0, 0.0, 0.0, 0.0, 0.0, 0.0, 0.0, 0.0, 1.676047522561049E9, 0.0, 2023-02-10 11:45:22.561
182.0, 7018.917145599979, 187500.0, 187500.0, 187500.0, -187500.02235174447, 187500.0, -187500.02235174447, -187500.02235174447, -0.02, 0.028, 1.002, 192.0, 0.0, 0.0, 0.0, 0.0, 0.0, 0.0, 0.0, 0.0, 0.0, 1.676047522567502E9, 0.0, 2023-02-10 11:45:22.567
183.0, 6879.084632287578, 187500.0, 187500.0, 187500.0, -187500.02235174447, 187500.0, -187500.02235174447, -187500.02235174447, -0.02, 0.028, 1.002, 192.0, 0.0, 0.0, 0.0, 0.0, 0.0, 0.0, 0.0, 0.0, 0.0, 1.676047522567532E9, 0.0, 2023-02-10 11:45:22.567
184.0, 7055.35048906213, 187500.0, 187500.0, 187500.0, -187500.02235174447, 187500.0, -187500.02235174447, -187500.02235174447, -0.018000000000000002, 0.028, 1.004, 192.0, 255.0, 112.0, 0.0, 224.0, 31.0, 96.0, 0.0, 0.0, 0.0, 1.676047522575582E9, 0.0, 2023-02-10 11:45:22.575
185.0, 7237.114874972686, 187500.0, 187500.0, 187500.0, -187500.02235174447, 187500.0, -187500.02235174447, -187500.02235174447, -0.018000000000000002, 0.028, 1.004, 192.0, 0.0, 0.0, 0.0, 0.0, 0.0, 0.0, 0.0, 0.0, 0.0, 1.676047522575615E9, 0.0, 2023-02-10 11:45:22.575
186.0, 7064.917035689001, 187500.0, 187500.0, 187500.0, -187500.02235174447, 187500.0, -187500.02235174447, -187500.02235174447, -0.018000000000000002, 0.028, 1.004, 192.0, 0.0, 0.0, 0.0, 0.0, 0.0, 0.0, 0.0, 0.0, 0.0, 1.676047522583539E9, 0.0, 2023-02-10 11:45:22.583
187.0, 6979.265150936264, 187500.0, 187500.0, 187500.0, -187500.02235174447, 187500.0, -187500.02235174447, -187500.02235174447, -0.018000000000000002, 0.028, 1.004, 192.0, 0.0, 0.0, 0.0, 0.0, 0.0, 0.0, 0.0, 0.0, 0.0, 1.676047522583584E9, 0.0, 2023-02-10 11:45:22.583
188.0, 6991.022168519756, 187500.0, 187500.0, 187500.0, -187500.02235174447, 187500.0, -187500.02235174447, -187500.02235174447, -0.018000000000000002, 0.028, 1.004, 192.0, 0.0, 0.0, 0.0, 0.0, 0.0, 0.0, 0.0, 0.0, 0.0, 1.67604752259066E9, 0.0, 2023-02-10 11:45:22.590
189.0, 7063.39711706604, 187500.0, 187500.0, 187500.0, -187500.02235174447, 187500.0, -187500.02235174447, -187500.02235174447, -0.018000000000000002, 0.028, 1.004, 192.0, 0.0, 0.0, 0.0, 0.0, 0.0, 0.0, 0.0, 0.0, 0.0, 1.676047522590705E9, 0.0, 2023-02-10 11:45:22.590
190.0, 7043.213491822898, 187500.0, 187500.0, 187500.0, -187500.02235174447, 187500.0, -187500.02235174447, -187500.02235174447, -0.018000000000000002, 0.028, 1.004, 192.0, 0.0, 0.0, 0.0, 0.0, 0.0, 0.0, 0.0, 0.0, 0.0, 1.676047522597209E9, 0.0, 2023-02-10 11:45:22.597
191.0, 6898.910629619436, 187500.0, 187500.0, 187500.0, -187500.02235174447, 187500.0, -187500.02235174447, -187500.02235174447, -0.018000000000000002, 0.028, 1.004, 192.0, 0.0, 0.0, 0.0, 0.0, 0.0, 0.0, 0.0, 0.0, 0.0, 1.676047522605155E9, 0.0, 2023-02-10 11:45:22.605
192.0, 6960.802610016181, 187500.0, 187500.0, 187500.0, -187500.02235174447, 187500.0, -187500.02235174447, -187500.02235174447, -0.018000000000000002, 0.028, 1.004, 192.0, 0.0, 0.0, 0.0, 0.0, 0.0, 0.0, 0.0, 0.0, 0.0, 1.67604752260534E9, 0.0, 2023-02-10 11:45:22.605
193.0, 7141.784684870802, 187500.0, 187500.0, 187500.0, -187500.02235174447, 187500.0, -187500.02235174447, -187500.02235174447, -0.018000000000000002, 0.028, 1.004, 192.0, 0.0, 0.0, 0.0, 0.0, 0.0, 0.0, 0.0, 0.0, 0.0, 1.676047522613291E9, 0.0, 2023-02-10 11:45:22.613
194.0, 7182.017824890355, 187500.0, 187500.0, 187500.0, -187500.02235174447, 187500.0, -187500.02235174447, -187500.02235174447, -0.016, 0.028, 1.004, 192.0, 255.0, 128.0, 0.0, 224.0, 31.0, 96.0, 0.0, 0.0, 0.0, 1.67604752261333E9, 0.0, 2023-02-10 11:45:22.613
195.0, 6955.438191346907, 187500.0, 187500.0, 187500.0, -187500.02235174447, 187500.0, -187500.02235174447, -187500.02235174447, -0.016, 0.028, 1.004, 192.0, 0.0, 0.0, 0.0, 0.0, 0.0, 0.0, 0.0, 0.0, 0.0, 1.676047522621908E9, 0.0, 2023-02-10 11:45:22.621
196.0, 6897.770690652214, 187500.0, 187500.0, 187500.0, -187500.02235174447, 187500.0, -187500.02235174447, -187500.02235174447, -0.016, 0.028, 1.004, 192.0, 0.0, 0.0, 0.0, 0.0, 0.0, 0.0, 0.0, 0.0, 0.0, 1.676047522621973E9, 0.0, 2023-02-10 11:45:22.621
197.0, 7094.734262792381, 187500.0, 187500.0, 187500.0, -187500.02235174447, 187500.0, -187500.02235174447, -187500.02235174447, -0.016, 0.028, 1.004, 192.0, 0.0, 0.0, 0.0, 0.0, 0.0, 0.0, 0.0, 0.0, 0.0, 1.676047522627764E9, 0.0, 2023-02-10 11:45:22.627
198.0, 7173.211237574964, 187500.0, 187500.0, 187500.0, -187500.02235174447, 187500.0, -187500.02235174447, -187500.02235174447, -0.016, 0.028, 1.004, 192.0, 0.0, 0.0, 0.0, 0.0, 0.0, 0.0, 0.0, 0.0, 0.0, 1.676047522627802E9, 0.0, 2023-02-10 11:45:22.627
199.0, 7047.415619780496, 187500.0, 187500.0, 187500.0, -187500.02235174447, 187500.0, -187500.02235174447, -187500.02235174447, -0.016, 0.028, 1.004, 192.0, 0.0, 0.0, 0.0, 0.0, 0.0, 0.0, 0.0, 0.0, 0.0, 1.676047522635876E9, 0.0, 2023-02-10 11:45:22.635
200.0, 7016.413750220985, 187500.0, 187500.0, 187500.0, -187500.02235174447, 187500.0, -187500.02235174447, -187500.02235174447, -0.016, 0.028, 1.004, 192.0, 0.0, 0.0, 0.0, 0.0, 0.0, 0.0, 0.0, 0.0, 0.0, 1.676047522635915E9, 0.0, 2023-02-10 11:45:22.635
201.0, 7020.146491545021, 187500.0, 187500.0, 187500.0, -187500.02235174447, 187500.0, -187500.02235174447, -187500.02235174447, -0.016, 0.028, 1.004, 192.0, 0.0, 0.0, 0.0, 0.0, 0.0, 0.0, 0.0, 0.0, 0.0, 1.67604752264301E9, 0.0, 2023-02-10 11:45:22.643
202.0, 7073.634216026571, 187500.0, 187500.0, 187500.0, -187500.02235174447, 187500.0, -187500.02235174447, -187500.02235174447, -0.016, 0.028, 1.004, 192.0, 0.0, 0.0, 0.0, 0.0, 0.0, 0.0, 0.0, 0.0, 0.0, 1.67604752264305E9, 0.0, 2023-02-10 11:45:22.643
203.0, 6967.128153697033, 187500.0, 187500.0, 187500.0, -187500.02235174447, 187500.0, -187500.02235174447, -187500.02235174447, -0.016, 0.028, 1.004, 192.0, 0.0, 0.0, 0.0, 0.0, 0.0, 0.0, 0.0, 0.0, 0.0, 1.676047522650416E9, 0.0, 2023-02-10 11:45:22.650
204.0, 6867.640539126461, 187500.0, 187500.0, 187500.0, -187500.02235174447, 187500.0, -187500.02235174447, -187500.02235174447, -0.014, 0.028, 0.998, 192.0, 255.0, 144.0, 0.0, 224.0, 31.0, 48.0, 0.0, 0.0, 0.0, 1.676047522650483E9, 0.0, 2023-02-10 11:45:22.650
205.0, 7059.262044341808, 187500.0, 187500.0, 187500.0, -187500.02235174447, 187500.0, -187500.02235174447, -187500.02235174447, -0.014, 0.028, 0.998, 192.0, 0.0, 0.0, 0.0, 0.0, 0.0, 0.0, 0.0, 0.0, 0.0, 1.676047522657734E9, 0.0, 2023-02-10 11:45:22.657
206.0, 7181.5707900012485, 187500.0, 187500.0, 187500.0, -187500.02235174447, 187500.0, -187500.02235174447, -187500.02235174447, -0.014, 0.028, 0.998, 192.0, 0.0, 0.0, 0.0, 0.0, 0.0, 0.0, 0.0, 0.0, 0.0, 1.676047522665491E9, 0.0, 2023-02-10 11:45:22.665
207.0, 7081.5467335637495, 187500.0, 187500.0, 187500.0, -187500.02235174447, 187500.0, -187500.02235174447, -187500.02235174447, -0.014, 0.028, 0.998, 192.0, 0.0, 0.0, 0.0, 0.0, 0.0, 0.0, 0.0, 0.0, 0.0, 1.676047522665777E9, 0.0, 2023-02-10 11:45:22.665
208.0, 6893.635617927983, 187500.0, 187500.0, 187500.0, -187500.02235174447, 187500.0, -187500.02235174447, -187500.02235174447, -0.014, 0.028, 0.998, 192.0, 0.0, 0.0, 0.0, 0.0, 0.0, 0.0, 0.0, 0.0, 0.0, 1.676047522672698E9, 0.0, 2023-02-10 11:45:22.672
209.0, 7032.5293579732615, 187500.0, 187500.0, 187500.0, -187500.02235174447, 187500.0, -187500.02235174447, -187500.02235174447, -0.014, 0.028, 0.998, 192.0, 0.0, 0.0, 0.0, 0.0, 0.0, 0.0, 0.0, 0.0, 0.0, 1.676047522672733E9, 0.0, 2023-02-10 11:45:22.672
210.0, 7256.940872304544, 187500.0, 187500.0, 187500.0, -187500.02235174447, 187500.0, -187500.02235174447, -187500.02235174447, -0.014, 0.028, 0.998, 192.0, 0.0, 0.0, 0.0, 0.0, 0.0, 0.0, 0.0, 0.0, 0.0, 1.676047522680154E9, 0.0, 2023-02-10 11:45:22.680
211.0, 7162.75062116988, 187500.0, 187500.0, 187500.0, -187500.02235174447, 187500.0, -187500.02235174447, -187500.02235174447, -0.014, 0.028, 0.998, 192.0, 0.0, 0.0, 0.0, 0.0, 0.0, 0.0, 0.0, 0.0, 0.0, 1.676047522680183E9, 0.0, 2023-02-10 11:45:22.680
212.0, 6856.665832598906, 187500.0, 187500.0, 187500.0, -187500.02235174447, 187500.0, -187500.02235174447, -187500.02235174447, -0.014, 0.028, 0.998, 192.0, 0.0, 0.0, 0.0, 0.0, 0.0, 0.0, 0.0, 0.0, 0.0, 1.676047522688807E9, 0.0, 2023-02-10 11:45:22.688
213.0, 6909.572411724617, 187500.0, 187500.0, 187500.0, -187500.02235174447, 187500.0, -187500.02235174447, -187500.02235174447, -0.014, 0.028, 0.998, 192.0, 0.0, 0.0, 0.0, 0.0, 0.0, 0.0, 0.0, 0.0, 0.0, 1.676047522688861E9, 0.0, 2023-02-10 11:45:22.688
214.0, 7137.068466790733, 187500.0, 187500.0, 187500.0, -187500.02235174447, 187500.0, -187500.02235174447, -187500.02235174447, -0.014, 0.028, 1.002, 192.0, 255.0, 144.0, 0.0, 224.0, 31.0, 80.0, 0.0, 0.0, 0.0, 1.676047522696141E9, 0.0, 2023-02-10 11:45:22.696
215.0, 7129.401818442562, 187500.0, 187500.0, 187500.0, -187500.02235174447, 187500.0, -187500.02235174447, -187500.02235174447, -0.014, 0.028, 1.002, 192.0, 0.0, 0.0, 0.0, 0.0, 0.0, 0.0, 0.0, 0.0, 0.0, 1.676047522696174E9, 0.0, 2023-02-10 11:45:22.696
216.0, 6979.421613147451, 187500.0, 187500.0, 187500.0, -187500.02235174447, 187500.0, -187500.02235174447, -187500.02235174447, -0.014, 0.028, 1.002, 192.0, 0.0, 0.0, 0.0, 0.0, 0.0, 0.0, 0.0, 0.0, 0.0, 1.676047522702762E9, 0.0, 2023-02-10 11:45:22.702
217.0, 6995.961904044379, 187500.0, 187500.0, 187500.0, -187500.02235174447, 187500.0, -187500.02235174447, -187500.02235174447, -0.014, 0.028, 1.002, 192.0, 0.0, 0.0, 0.0, 0.0, 0.0, 0.0, 0.0, 0.0, 0.0, 1.6760475227028E9, 0.0, 2023-02-10 11:45:22.702
218.0, 7104.859603030634, 187500.0, 187500.0, 187500.0, -187500.02235174447, 187500.0, -187500.02235174447, -187500.02235174447, -0.014, 0.028, 1.002, 192.0, 0.0, 0.0, 0.0, 0.0, 0.0, 0.0, 0.0, 0.0, 0.0, 1.676047522710724E9, 0.0, 2023-02-10 11:45:22.710
219.0, 7145.495074450383, 187500.0, 187500.0, 187500.0, -187500.02235174447, 187500.0, -187500.02235174447, -187500.02235174447, -0.014, 0.028, 1.002, 192.0, 0.0, 0.0, 0.0, 0.0, 0.0, 0.0, 0.0, 0.0, 0.0, 1.676047522710763E9, 0.0, 2023-02-10 11:45:22.710
220.0, 6954.119438424044, 187500.0, 187500.0, 187500.0, -187500.02235174447, 187500.0, -187500.02235174447, -187500.02235174447, -0.014, 0.028, 1.002, 192.0, 0.0, 0.0, 0.0, 0.0, 0.0, 0.0, 0.0, 0.0, 0.0, 1.676047522718508E9, 0.0, 2023-02-10 11:45:22.718
221.0, 6918.378999040008, 187500.0, 187500.0, 187500.0, -187500.02235174447, 187500.0, -187500.02235174447, -187500.02235174447, -0.014, 0.028, 1.002, 192.0, 0.0, 0.0, 0.0, 0.0, 0.0, 0.0, 0.0, 0.0, 0.0, 1.676047522725732E9, 0.0, 2023-02-10 11:45:22.725
222.0, 7109.039379243777, 187500.0, 187500.0, 187500.0, -187500.02235174447, 187500.0, -187500.02235174447, -187500.02235174447, -0.014, 0.028, 1.002, 192.0, 0.0, 0.0, 0.0, 0.0, 0.0, 0.0, 0.0, 0.0, 0.0, 1.676047522725891E9, 0.0, 2023-02-10 11:45:22.725
223.0, 7208.012903691877, 187500.0, 187500.0, 187500.0, -187500.02235174447, 187500.0, -187500.02235174447, -187500.02235174447, -0.012, 0.026000000000000002, 1.008, 192.0, 255.0, 160.0, 0.0, 208.0, 31.0, 128.0, 0.0, 0.0, 0.0, 1.676047522732407E9, 0.0, 2023-02-10 11:45:22.732
224.0, 7059.686727486459, 187500.0, 187500.0, 187500.0, -187500.02235174447, 187500.0, -187500.02235174447, -187500.02235174447, -0.012, 0.026000000000000002, 1.008, 192.0, 0.0, 0.0, 0.0, 0.0, 0.0, 0.0, 0.0, 0.0, 0.0, 1.676047522732437E9, 0.0, 2023-02-10 11:45:22.732
225.0, 6898.88827787498, 187500.0, 187500.0, 187500.0, -187500.02235174447, 187500.0, -187500.02235174447, -187500.02235174447, -0.012, 0.026000000000000002, 1.008, 192.0, 0.0, 0.0, 0.0, 0.0, 0.0, 0.0, 0.0, 0.0, 0.0, 1.676047522740352E9, 0.0, 2023-02-10 11:45:22.740
226.0, 7064.537056033261, 187500.0, 187500.0, 187500.0, -187500.02235174447, 187500.0, -187500.02235174447, -187500.02235174447, -0.012, 0.026000000000000002, 1.008, 192.0, 0.0, 0.0, 0.0, 0.0, 0.0, 0.0, 0.0, 0.0, 0.0, 1.676047522740423E9, 0.0, 2023-02-10 11:45:22.740
227.0, 7173.434755019517, 187500.0, 187500.0, 187500.0, -187500.02235174447, 187500.0, -187500.02235174447, -187500.02235174447, -0.012, 0.026000000000000002, 1.008, 192.0, 0.0, 0.0, 0.0, 0.0, 0.0, 0.0, 0.0, 0.0, 0.0, 1.676047522748361E9, 0.0, 2023-02-10 11:45:22.748
228.0, 7024.594488691627, 187500.0, 187500.0, 187500.0, -187500.02235174447, 187500.0, -187500.02235174447, -187500.02235174447, -0.012, 0.026000000000000002, 1.008, 192.0, 0.0, 0.0, 0.0, 0.0, 0.0, 0.0, 0.0, 0.0, 0.0, 1.676047522748388E9, 0.0, 2023-02-10 11:45:22.748
229.0, 6907.2701820457205, 187500.0, 187500.0, 187500.0, -187500.02235174447, 187500.0, -187500.02235174447, -187500.02235174447, -0.012, 0.026000000000000002, 1.008, 192.0, 0.0, 0.0, 0.0, 0.0, 0.0, 0.0, 0.0, 0.0, 0.0, 1.676047522755729E9, 0.0, 2023-02-10 11:45:22.755
230.0, 7030.160073060999, 187500.0, 187500.0, 187500.0, -187500.02235174447, 187500.0, -187500.02235174447, -187500.02235174447, -0.012, 0.026000000000000002, 1.008, 192.0, 0.0, 0.0, 0.0, 0.0, 0.0, 0.0, 0.0, 0.0, 0.0, 1.676047522755785E9, 0.0, 2023-02-10 11:45:22.755
231.0, 7178.352138799684, 187500.0, 187500.0, 187500.0, -187500.02235174447, 187500.0, -187500.02235174447, -187500.02235174447, -0.012, 0.026000000000000002, 1.008, 192.0, 0.0, 0.0, 0.0, 0.0, 0.0, 0.0, 0.0, 0.0, 0.0, 1.676047522762954E9, 0.0, 2023-02-10 11:45:22.762
232.0, 7101.439786128973, 187500.0, 187500.0, 187500.0, -187500.02235174447, 187500.0, -187500.02235174447, -187500.02235174447, -0.012, 0.026000000000000002, 1.008, 192.0, 0.0, 0.0, 0.0, 0.0, 0.0, 0.0, 0.0, 0.0, 0.0, 1.676047522763019E9, 0.0, 2023-02-10 11:45:22.763
233.0, 7007.4730524388615, 187500.0, 187500.0, 187500.0, -187500.02235174447, 187500.0, -187500.02235174447, -187500.02235174447, -0.014, 0.026000000000000002, 1.004, 192.0, 255.0, 144.0, 0.0, 208.0, 31.0, 96.0, 0.0, 0.0, 0.0, 1.676047522771516E9, 0.0, 2023-02-10 11:45:22.771
234.0, 7078.775117251292, 187500.0, 187500.0, 187500.0, -187500.02235174447, 187500.0, -187500.02235174447, -187500.02235174447, -0.014, 0.026000000000000002, 1.004, 192.0, 0.0, 0.0, 0.0, 0.0, 0.0, 0.0, 0.0, 0.0, 0.0, 1.676047522771562E9, 0.0, 2023-02-10 11:45:22.771
235.0, 7099.78575703928, 187500.0, 187500.0, 187500.0, -187500.02235174447, 187500.0, -187500.02235174447, -187500.02235174447, -0.014, 0.026000000000000002, 1.004, 192.0, 0.0, 0.0, 0.0, 0.0, 0.0, 0.0, 0.0, 0.0, 0.0, 1.676047522778597E9, 0.0, 2023-02-10 11:45:22.778
236.0, 7098.087024460677, 187500.0, 187500.0, 187500.0, -187500.02235174447, 187500.0, -187500.02235174447, -187500.02235174447, -0.014, 0.026000000000000002, 1.004, 192.0, 0.0, 0.0, 0.0, 0.0, 0.0, 0.0, 0.0, 0.0, 0.0, 1.676047522786192E9, 0.0, 2023-02-10 11:45:22.786
237.0, 6947.27980462072, 187500.0, 187500.0, 187500.0, -187500.02235174447, 187500.0, -187500.02235174447, -187500.02235174447, -0.014, 0.026000000000000002, 1.004, 192.0, 0.0, 0.0, 0.0, 0.0, 0.0, 0.0, 0.0, 0.0, 0.0, 1.676047522786547E9, 0.0, 2023-02-10 11:45:22.786
238.0, 6988.138793485021, 187500.0, 187500.0, 187500.0, -187500.02235174447, 187500.0, -187500.02235174447, -187500.02235174447, -0.014, 0.026000000000000002, 1.004, 192.0, 0.0, 0.0, 0.0, 0.0, 0.0, 0.0, 0.0, 0.0, 0.0, 1.676047522792847E9, 0.0, 2023-02-10 11:45:22.792
239.0, 7177.748641699392, 187500.0, 187500.0, 187500.0, -187500.02235174447, 187500.0, -187500.02235174447, -187500.02235174447, -0.014, 0.026000000000000002, 1.004, 192.0, 0.0, 0.0, 0.0, 0.0, 0.0, 0.0, 0.0, 0.0, 0.0, 1.676047522792891E9, 0.0, 2023-02-10 11:45:22.792
240.0, 7216.7300840294465, 187500.0, 187500.0, 187500.0, -187500.02235174447, 187500.0, -187500.02235174447, -187500.02235174447, -0.014, 0.026000000000000002, 1.004, 192.0, 0.0, 0.0, 0.0, 0.0, 0.0, 0.0, 0.0, 0.0, 0.0, 1.676047522804E9, 0.0, 2023-02-10 11:45:22.804
241.0, 6947.883301721014, 187500.0, 187500.0, 187500.0, -187500.02235174447, 187500.0, -187500.02235174447, -187500.02235174447, -0.014, 0.026000000000000002, 1.004, 192.0, 0.0, 0.0, 0.0, 0.0, 0.0, 0.0, 0.0, 0.0, 0.0, 1.676047522804042E9, 0.0, 2023-02-10 11:45:22.804
242.0, 6918.870737418025, 187500.0, 187500.0, 187500.0, -187500.02235174447, 187500.0, -187500.02235174447, -187500.02235174447, -0.014, 0.026000000000000002, 1.004, 192.0, 0.0, 0.0, 0.0, 0.0, 0.0, 0.0, 0.0, 0.0, 0.0, 1.676047522809653E9, 0.0, 2023-02-10 11:45:22.809
243.0, 7133.3804289556065, 187500.0, 187500.0, 187500.0, -187500.02235174447, 187500.0, -187500.02235174447, -187500.02235174447, -0.014, 0.026000000000000002, 1.0, 192.0, 255.0, 144.0, 0.0, 208.0, 31.0, 64.0, 0.0, 0.0, 0.0, 1.676047522809686E9, 0.0, 2023-02-10 11:45:22.809
244.0, 7232.264546425885, 187500.0, 187500.0, 187500.0, -187500.02235174447, 187500.0, -187500.02235174447, -187500.02235174447, -0.014, 0.026000000000000002, 1.0, 192.0, 0.0, 0.0, 0.0, 0.0, 0.0, 0.0, 0.0, 0.0, 0.0, 1.676047522815407E9, 0.0, 2023-02-10 11:45:22.815
245.0, 7052.310651816208, 187500.0, 187500.0, 187500.0, -187500.02235174447, 187500.0, -187500.02235174447, -187500.02235174447, -0.014, 0.026000000000000002, 1.0, 192.0, 0.0, 0.0, 0.0, 0.0, 0.0, 0.0, 0.0, 0.0, 0.0, 1.67604752281545E9, 0.0, 2023-02-10 11:45:22.815
246.0, 6924.548080509673, 187500.0, 187500.0, 187500.0, -187500.02235174447, 187500.0, -187500.02235174447, -187500.02235174447, -0.014, 0.026000000000000002, 1.0, 192.0, 0.0, 0.0, 0.0, 0.0, 0.0, 0.0, 0.0, 0.0, 0.0, 1.676047522823321E9, 0.0, 2023-02-10 11:45:22.823
247.0, 7042.788808678247, 187500.0, 187500.0, 187500.0, -187500.02235174447, 187500.0, -187500.02235174447, -187500.02235174447, -0.014, 0.026000000000000002, 1.0, 192.0, 0.0, 0.0, 0.0, 0.0, 0.0, 0.0, 0.0, 0.0, 0.0, 1.676047522823367E9, 0.0, 2023-02-10 11:45:22.823
248.0, 7172.138353841109, 187500.0, 187500.0, 187500.0, -187500.02235174447, 187500.0, -187500.02235174447, -187500.02235174447, -0.014, 0.026000000000000002, 1.0, 192.0, 0.0, 0.0, 0.0, 0.0, 0.0, 0.0, 0.0, 0.0, 0.0, 1.676047522831258E9, 0.0, 2023-02-10 11:45:22.831
249.0, 7042.140608089043, 187500.0, 187500.0, 187500.0, -187500.02235174447, 187500.0, -187500.02235174447, -187500.02235174447, -0.014, 0.026000000000000002, 1.0, 192.0, 0.0, 0.0, 0.0, 0.0, 0.0, 0.0, 0.0, 0.0, 0.0, 1.676047522831289E9, 0.0, 2023-02-10 11:45:22.831
250.0, 6906.9796093678015, 187500.0, 187500.0, 187500.0, -187500.02235174447, 187500.0, -187500.02235174447, -187500.02235174447, -0.014, 0.026000000000000002, 1.0, 192.0, 0.0, 0.0, 0.0, 0.0, 0.0, 0.0, 0.0, 0.0, 0.0, 1.676047522838333E9, 0.0, 2023-02-10 11:45:22.838
251.0, 7029.86950038308, 187500.0, 187500.0, 187500.0, -187500.02235174447, 187500.0, -187500.02235174447, -187500.02235174447, -0.014, 0.026000000000000002, 1.0, 192.0, 0.0, 0.0, 0.0, 0.0, 0.0, 0.0, 0.0, 0.0, 0.0, 1.67604752283837E9, 0.0, 2023-02-10 11:45:22.838
252.0, 7155.888635622101, 187500.0, 187500.0, 187500.0, -187500.02235174447, 187500.0, -187500.02235174447, -187500.02235174447, -0.014, 0.026000000000000002, 1.0, 192.0, 0.0, 0.0, 0.0, 0.0, 0.0, 0.0, 0.0, 0.0, 0.0, 1.676047522844899E9, 0.0, 2023-02-10 11:45:22.844
253.0, 7047.482675013862, 187500.0, 187500.0, 187500.0, -187500.02235174447, 187500.0, -187500.02235174447, -187500.02235174447, -0.014, 0.034, 1.0, 192.0, 255.0, 144.0, 1.0, 16.0, 31.0, 64.0, 0.0, 0.0, 0.0, 1.676047522852983E9, 0.0, 2023-02-10 11:45:22.852
254.0, 7026.695552670426, 187500.0, 187500.0, 187500.0, -187500.02235174447, 187500.0, -187500.02235174447, -187500.02235174447, -0.014, 0.034, 1.0, 192.0, 0.0, 0.0, 0.0, 0.0, 0.0, 0.0, 0.0, 0.0, 0.0, 1.676047522853052E9, 0.0, 2023-02-10 11:45:22.853
255.0, 7058.122105374588, 187500.0, 187500.0, 187500.0, -187500.02235174447, 187500.0, -187500.02235174447, -187500.02235174447, -0.014, 0.034, 1.0, 192.0, 0.0, 0.0, 0.0, 0.0, 0.0, 0.0, 0.0, 0.0, 0.0, 1.67604752286096E9, 0.0, 2023-02-10 11:45:22.860
0.0, 7158.950824612478, 187500.0, 187500.0, 187500.0, -187500.02235174447, 187500.0, -187500.02235174447, -187500.02235174447, -0.014, 0.034, 1.0, 192.0, 0.0, 0.0, 0.0, 0.0, 0.0, 0.0, 0.0, 0.0, 0.0, 1.676047522860992E9, 0.0, 2023-02-10 11:45:22.860
1.0, 7129.066542275732, 187500.0, 187500.0, 187500.0, -187500.02235174447, 187500.0, -187500.02235174447, -187500.02235174447, -0.014, 0.034, 1.0, 192.0, 0.0, 0.0, 0.0, 0.0, 0.0, 0.0, 0.0, 0.0, 0.0, 1.676047522867493E9, 0.0, 2023-02-10 11:45:22.867
2.0, 6977.745232313304, 187500.0, 187500.0, 187500.0, -187500.02235174447, 187500.0, -187500.02235174447, -187500.02235174447, -0.014, 0.034, 1.0, 192.0, 0.0, 0.0, 0.0, 0.0, 0.0, 0.0, 0.0, 0.0, 0.0, 1.67604752286752E9, 0.0, 2023-02-10 11:45:22.867
3.0, 6993.391453432018, 187500.0, 187500.0, 187500.0, -187500.02235174447, 187500.0, -187500.02235174447, -187500.02235174447, -0.014, 0.034, 1.0, 192.0, 0.0, 0.0, 0.0, 0.0, 0.0, 0.0, 0.0, 0.0, 0.0, 1.676047522875746E9, 0.0, 2023-02-10 11:45:22.875
4.0, 7169.679661951025, 187500.0, 187500.0, 187500.0, -187500.02235174447, 187500.0, -187500.02235174447, -187500.02235174447, -0.014, 0.034, 1.0, 192.0, 0.0, 0.0, 0.0, 0.0, 0.0, 0.0, 0.0, 0.0, 0.0, 1.676047522875859E9, 0.0, 2023-02-10 11:45:22.875
5.0, 7121.869280561124, 187500.0, 187500.0, 187500.0, -187500.02235174447, 187500.0, -187500.02235174447, -187500.02235174447, -0.014, 0.034, 1.0, 192.0, 0.0, 0.0, 0.0, 0.0, 0.0, 0.0, 0.0, 0.0, 0.0, 1.676047522883463E9, 0.0, 2023-02-10 11:45:22.883
6.0, 6943.815284230147, 187500.0, 187500.0, 187500.0, -187500.02235174447, 187500.0, -187500.02235174447, -187500.02235174447, -0.014, 0.034, 1.0, 192.0, 0.0, 0.0, 0.0, 0.0, 0.0, 0.0, 0.0, 0.0, 0.0, 1.67604752288349E9, 0.0, 2023-02-10 11:45:22.883
7.0, 7058.815009452702, 187500.0, 187500.0, 187500.0, -187500.02235174447, 187500.0, -187500.02235174447, -187500.02235174447, -0.018000000000000002, 0.03, 0.998, 192.0, 255.0, 112.0, 0.0, 240.0, 31.0, 48.0, 0.0, 0.0, 0.0, 1.676047522890647E9, 0.0, 2023-02-10 11:45:22.890
8.0, 7190.779708716836, 187500.0, 187500.0, 187500.0, -187500.02235174447, 187500.0, -187500.02235174447, -187500.02235174447, -0.018000000000000002, 0.03, 0.998, 192.0, 0.0, 0.0, 0.0, 0.0, 0.0, 0.0, 0.0, 0.0, 0.0, 1.676047522890676E9, 0.0, 2023-02-10 11:45:22.890
9.0, 7154.301661765774, 187500.0, 187500.0, 187500.0, -187500.02235174447, 187500.0, -187500.02235174447, -187500.02235174447, -0.018000000000000002, 0.03, 0.998, 192.0, 0.0, 0.0, 0.0, 0.0, 0.0, 0.0, 0.0, 0.0, 0.0, 1.676047522898139E9, 0.0, 2023-02-10 11:45:22.898
10.0, 6977.85699103558, 187500.0, 187500.0, 187500.0, -187500.02235174447, 187500.0, -187500.02235174447, -187500.02235174447, -0.018000000000000002, 0.03, 0.998, 192.0, 0.0, 0.0, 0.0, 0.0, 0.0, 0.0, 0.0, 0.0, 0.0, 1.676047522898165E9, 0.0, 2023-02-10 11:45:22.898
11.0, 6948.352688354575, 187500.0, 187500.0, 187500.0, -187500.02235174447, 187500.0, -187500.02235174447, -187500.02235174447, -0.018000000000000002, 0.03, 0.998, 192.0, 0.0, 0.0, 0.0, 0.0, 0.0, 0.0, 0.0, 0.0, 0.0, 1.67604752290519E9, 0.0, 2023-02-10 11:45:22.905
12.0, 7132.866338833134, 187500.0, 187500.0, 187500.0, -187500.02235174447, 187500.0, -187500.02235174447, -187500.02235174447, -0.018000000000000002, 0.03, 0.998, 192.0, 0.0, 0.0, 0.0, 0.0, 0.0, 0.0, 0.0, 0.0, 0.0, 1.676047522913176E9, 0.0, 2023-02-10 11:45:22.913
13.0, 7231.236366180941, 187500.0, 187500.0, 187500.0, -187500.02235174447, 187500.0, -187500.02235174447, -187500.02235174447, -0.018000000000000002, 0.03, 0.998, 192.0, 0.0, 0.0, 0.0, 0.0, 0.0, 0.0, 0.0, 0.0, 0.0, 1.676047522913205E9, 0.0, 2023-02-10 11:45:22.913
14.0, 7042.565291233694, 187500.0, 187500.0, 187500.0, -187500.02235174447, 187500.0, -187500.02235174447, -187500.02235174447, -0.018000000000000002, 0.03, 0.998, 192.0, 0.0, 0.0, 0.0, 0.0, 0.0, 0.0, 0.0, 0.0, 0.0, 1.67604752292147E9, 0.0, 2023-02-10 11:45:22.921
15.0, 6893.680321416894, 187500.0, 187500.0, 187500.0, -187500.02235174447, 187500.0, -187500.02235174447, -187500.02235174447, -0.018000000000000002, 0.03, 0.998, 192.0, 0.0, 0.0, 0.0, 0.0, 0.0, 0.0, 0.0, 0.0, 0.0, 1.676047522921512E9, 0.0, 2023-02-10 11:45:22.921
16.0, 7057.093925129643, 187500.0, 187500.0, 187500.0, -187500.02235174447, 187500.0, -187500.02235174447, -187500.02235174447, -0.018000000000000002, 0.03, 0.998, 192.0, 0.0, 0.0, 0.0, 0.0, 0.0, 0.0, 0.0, 0.0, 0.0, 1.67604752292779E9, 0.0, 2023-02-10 11:45:22.927
17.0, 7165.522237482338, 187500.0, 187500.0, 187500.0, -187500.02235174447, 187500.0, -187500.02235174447, -187500.02235174447, -0.016, 0.032, 0.998, 192.0, 255.0, 128.0, 1.0, 0.0, 31.0, 48.0, 0.0, 0.0, 0.0, 1.676047522927822E9, 0.0, 2023-02-10 11:45:22.927
18.0, 7046.409791280007, 187500.0, 187500.0, 187500.0, -187500.02235174447, 187500.0, -187500.02235174447, -187500.02235174447, -0.016, 0.032, 0.998, 192.0, 0.0, 0.0, 0.0, 0.0, 0.0, 0.0, 0.0, 0.0, 0.0, 1.676047522937241E9, 0.0, 2023-02-10 11:45:22.937
19.0, 6972.76079329977, 187500.0, 187500.0, 187500.0, -187500.02235174447, 187500.0, -187500.02235174447, -187500.02235174447, -0.016, 0.032, 0.998, 192.0, 0.0, 0.0, 0.0, 0.0, 0.0, 0.0, 0.0, 0.0, 0.0, 1.676047522937281E9, 0.0, 2023-02-10 11:45:22.937
20.0, 7135.50384467886, 187500.0, 187500.0, 187500.0, -187500.02235174447, 187500.0, -187500.02235174447, -187500.02235174447, -0.016, 0.032, 0.998, 192.0, 0.0, 0.0, 0.0, 0.0, 0.0, 0.0, 0.0, 0.0, 0.0, 1.676047522944426E9, 0.0, 2023-02-10 11:45:22.944
21.0, 7190.355025572184, 187500.0, 187500.0, 187500.0, -187500.02235174447, 187500.0, -187500.02235174447, -187500.02235174447, -0.016, 0.032, 0.998, 192.0, 0.0, 0.0, 0.0, 0.0, 0.0, 0.0, 0.0, 0.0, 0.0, 1.676047522944459E9, 0.0, 2023-02-10 11:45:22.944
22.0, 7053.674108227981, 187500.0, 187500.0, 187500.0, -187500.02235174447, 187500.0, -187500.02235174447, -187500.02235174447, -0.016, 0.032, 0.998, 192.0, 0.0, 0.0, 0.0, 0.0, 0.0, 0.0, 0.0, 0.0, 0.0, 1.676047522950584E9, 0.0, 2023-02-10 11:45:22.950
23.0, 6893.233286527788, 187500.0, 187500.0, 187500.0, -187500.02235174447, 187500.0, -187500.02235174447, -187500.02235174447, -0.016, 0.032, 0.998, 192.0, 0.0, 0.0, 0.0, 0.0, 0.0, 0.0, 0.0, 0.0, 0.0, 1.676047522950615E9, 0.0, 2023-02-10 11:45:22.950
24.0, 6988.0493865072, 187500.0, 187500.0, 187500.0, -187500.02235174447, 187500.0, -187500.02235174447, -187500.02235174447, -0.016, 0.032, 0.998, 192.0, 0.0, 0.0, 0.0, 0.0, 0.0, 0.0, 0.0, 0.0, 0.0, 1.676047522958457E9, 0.0, 2023-02-10 11:45:22.958
25.0, 7196.837031464223, 187500.0, 187500.0, 187500.0, -187500.02235174447, 187500.0, -187500.02235174447, -187500.02235174447, -0.016, 0.032, 0.998, 192.0, 0.0, 0.0, 0.0, 0.0, 0.0, 0.0, 0.0, 0.0, 0.0, 1.676047522958498E9, 0.0, 2023-02-10 11:45:22.958
26.0, 7158.481437978917, 187500.0, 187500.0, 187500.0, -187500.02235174447, 187500.0, -187500.02235174447, -187500.02235174447, -0.014, 0.024, 0.998, 192.0, 255.0, 144.0, 0.0, 192.0, 31.0, 48.0, 0.0, 0.0, 0.0, 1.676047522965505E9, 0.0, 2023-02-10 11:45:22.965
27.0, 6936.1486358819775, 187500.0, 187500.0, 187500.0, -187500.02235174447, 187500.0, -187500.02235174447, -187500.02235174447, -0.014, 0.024, 0.998, 192.0, 0.0, 0.0, 0.0, 0.0, 0.0, 0.0, 0.0, 0.0, 0.0, 1.676047522973592E9, 0.0, 2023-02-10 11:45:22.973
28.0, 7008.300066983708, 187500.0, 187500.0, 187500.0, -187500.02235174447, 187500.0, -187500.02235174447, -187500.02235174447, -0.014, 0.024, 0.998, 192.0, 0.0, 0.0, 0.0, 0.0, 0.0, 0.0, 0.0, 0.0, 0.0, 1.67604752297363E9, 0.0, 2023-02-10 11:45:22.973
29.0, 7134.36390571164, 187500.0, 187500.0, 187500.0, -187500.02235174447, 187500.0, -187500.02235174447, -187500.02235174447, -0.014, 0.024, 0.998, 192.0, 0.0, 0.0, 0.0, 0.0, 0.0, 0.0, 0.0, 0.0, 0.0, 1.676047522980078E9, 0.0, 2023-02-10 11:45:22.980
30.0, 7144.55630118326, 187500.0, 187500.0, 187500.0, -187500.02235174447, 187500.0, -187500.02235174447, -187500.02235174447, -0.014, 0.024, 0.998, 192.0, 0.0, 0.0, 0.0, 0.0, 0.0, 0.0, 0.0, 0.0, 0.0, 1.676047522980119E9, 0.0, 2023-02-10 11:45:22.980
31.0, 7025.957945103401, 187500.0, 187500.0, 187500.0, -187500.02235174447, 187500.0, -187500.02235174447, -187500.02235174447, -0.014, 0.024, 0.998, 192.0, 0.0, 0.0, 0.0, 0.0, 0.0, 0.0, 0.0, 0.0, 0.0, 1.676047522988578E9, 0.0, 2023-02-10 11:45:22.988
32.0, 7013.955058330901, 187500.0, 187500.0, 187500.0, -187500.02235174447, 187500.0, -187500.02235174447, -187500.02235174447, -0.014, 0.024, 0.998, 192.0, 0.0, 0.0, 0.0, 0.0, 0.0, 0.0, 0.0, 0.0, 0.0, 1.676047522988618E9, 0.0, 2023-02-10 11:45:22.988
33.0, 7186.354063314684, 187500.0, 187500.0, 187500.0, -187500.02235174447, 187500.0, -187500.02235174447, -187500.02235174447, -0.014, 0.024, 0.998, 192.0, 0.0, 0.0, 0.0, 0.0, 0.0, 0.0, 0.0, 0.0, 0.0, 1.676047522996094E9, 0.0, 2023-02-10 11:45:22.996
34.0, 7118.963553781933, 187500.0, 187500.0, 187500.0, -187500.02235174447, 187500.0, -187500.02235174447, -187500.02235174447, -0.014, 0.024, 0.998, 192.0, 0.0, 0.0, 0.0, 0.0, 0.0, 0.0, 0.0, 0.0, 0.0, 1.676047522996131E9, 0.0, 2023-02-10 11:45:22.996
35.0, 6958.18745591491, 187500.0, 187500.0, 187500.0, -187500.02235174447, 187500.0, -187500.02235174447, -187500.02235174447, -0.014, 0.024, 0.998, 192.0, 0.0, 0.0, 0.0, 0.0, 0.0, 0.0, 0.0, 0.0, 0.0, 1.676047523004192E9, 0.0, 2023-02-10 11:45:23.004
36.0, 6905.996132611768, 187500.0, 187500.0, 187500.0, -187500.02235174447, 187500.0, -187500.02235174447, -187500.02235174447, -0.014, 0.03, 1.002, 192.0, 255.0, 144.0, 0.0, 240.0, 31.0, 80.0, 0.0, 0.0, 0.0, 1.676047523004231E9, 0.0, 2023-02-10 11:45:23.004
37.0, 7081.524381819294, 187500.0, 187500.0, 187500.0, -187500.02235174447, 187500.0, -187500.02235174447, -187500.02235174447, -0.014, 0.03, 1.002, 192.0, 0.0, 0.0, 0.0, 0.0, 0.0, 0.0, 0.0, 0.0, 0.0, 1.676047523010741E9, 0.0, 2023-02-10 11:45:23.010
38.0, 7152.759391398357, 187500.0, 187500.0, 187500.0, -187500.02235174447, 187500.0, -187500.02235174447, -187500.02235174447, -0.014, 0.03, 1.002, 192.0, 0.0, 0.0, 0.0, 0.0, 0.0, 0.0, 0.0, 0.0, 0.0, 1.676047523010772E9, 0.0, 2023-02-10 11:45:23.010
39.0, 7020.079436311655, 187500.0, 187500.0, 187500.0, -187500.02235174447, 187500.0, -187500.02235174447, -187500.02235174447, -0.014, 0.03, 1.002, 192.0, 0.0, 0.0, 0.0, 0.0, 0.0, 0.0, 0.0, 0.0, 0.0, 1.676047523020068E9, 0.0, 2023-02-10 11:45:23.020
40.0, 6969.072755464645, 187500.0, 187500.0, 187500.0, -187500.02235174447, 187500.0, -187500.02235174447, -187500.02235174447, -0.014, 0.03, 1.002, 192.0, 0.0, 0.0, 0.0, 0.0, 0.0, 0.0, 0.0, 0.0, 0.0, 1.676047523020095E9, 0.0, 2023-02-10 11:45:23.020
41.0, 7131.681696377003, 187500.0, 187500.0, 187500.0, -187500.02235174447, 187500.0, -187500.02235174447, -187500.02235174447, -0.014, 0.03, 1.002, 192.0, 0.0, 0.0, 0.0, 0.0, 0.0, 0.0, 0.0, 0.0, 0.0, 1.676047523026291E9, 0.0, 2023-02-10 11:45:23.026
42.0, 7274.509343446415, 187500.0, 187500.0, 187500.0, -187500.02235174447, 187500.0, -187500.02235174447, -187500.02235174447, -0.014, 0.03, 1.002, 192.0, 0.0, 0.0, 0.0, 0.0, 0.0, 0.0, 0.0, 0.0, 0.0, 1.676047523032447E9, 0.0, 2023-02-10 11:45:23.032
43.0, 7068.6944805019475, 187500.0, 187500.0, 187500.0, -187500.02235174447, 187500.0, -187500.02235174447, -187500.02235174447, -0.014, 0.03, 1.002, 192.0, 0.0, 0.0, 0.0, 0.0, 0.0, 0.0, 0.0, 0.0, 0.0, 1.676047523032471E9, 0.0, 2023-02-10 11:45:23.032
44.0, 6917.730798450804, 187500.0, 187500.0, 187500.0, -187500.02235174447, 187500.0, -187500.02235174447, -187500.02235174447, -0.014, 0.03, 1.002, 192.0, 0.0, 0.0, 0.0, 0.0, 0.0, 0.0, 0.0, 0.0, 0.0, 1.676047523040282E9, 0.0, 2023-02-10 11:45:23.040
45.0, 7147.953766340467, 187500.0, 187500.0, 187500.0, -187500.02235174447, 187500.0, -187500.02235174447, -187500.02235174447, -0.014, 0.03, 1.002, 192.0, 0.0, 0.0, 0.0, 0.0, 0.0, 0.0, 0.0, 0.0, 0.0, 1.676047523040316E9, 0.0, 2023-02-10 11:45:23.040
46.0, 7344.716172780535, 187500.0, 187500.0, 187500.0, -187500.02235174447, 187500.0, -187500.02235174447, -187500.02235174447, -0.018000000000000002, 0.028, 1.002, 192.0, 255.0, 112.0, 0.0, 224.0, 31.0, 80.0, 0.0, 0.0, 0.0, 1.676047523048806E9, 0.0, 2023-02-10 11:45:23.048
47.0, 7036.731485930859, 187500.0, 187500.0, 187500.0, -187500.02235174447, 187500.0, -187500.02235174447, -187500.02235174447, -0.018000000000000002, 0.028, 1.002, 192.0, 0.0, 0.0, 0.0, 0.0, 0.0, 0.0, 0.0, 0.0, 0.0, 1.676047523048842E9, 0.0, 2023-02-10 11:45:23.048
48.0, 6848.194521450344, 187500.0, 187500.0, 187500.0, -187500.02235174447, 187500.0, -187500.02235174447, -187500.02235174447, -0.018000000000000002, 0.028, 1.002, 192.0, 0.0, 0.0, 0.0, 0.0, 0.0, 0.0, 0.0, 0.0, 0.0, 1.676047523055518E9, 0.0, 2023-02-10 11:45:23.055
49.0, 6993.927895298946, 187500.0, 187500.0, 187500.0, -187500.02235174447, 187500.0, -187500.02235174447, -187500.02235174447, -0.018000000000000002, 0.028, 1.002, 192.0, 0.0, 0.0, 0.0, 0.0, 0.0, 0.0, 0.0, 0.0, 0.0, 1.676047523055546E9, 0.0, 2023-02-10 11:45:23.055
50.0, 7146.456199461962, 187500.0, 187500.0, 187500.0, -187500.02235174447, 187500.0, -187500.02235174447, -187500.02235174447, -0.018000000000000002, 0.028, 1.002, 192.0, 0.0, 0.0, 0.0, 0.0, 0.0, 0.0, 0.0, 0.0, 0.0, 1.676047523062993E9, 0.0, 2023-02-10 11:45:23.062
51.0, 7096.276533159797, 187500.0, 187500.0, 187500.0, -187500.02235174447, 187500.0, -187500.02235174447, -187500.02235174447, -0.018000000000000002, 0.028, 1.002, 192.0, 0.0, 0.0, 0.0, 0.0, 0.0, 0.0, 0.0, 0.0, 0.0, 1.676047523063023E9, 0.0, 2023-02-10 11:45:23.063
52.0, 6943.569415041139, 187500.0, 187500.0, 187500.0, -187500.02235174447, 187500.0, -187500.02235174447, -187500.02235174447, -0.018000000000000002, 0.028, 1.002, 192.0, 0.0, 0.0, 0.0, 0.0, 0.0, 0.0, 0.0, 0.0, 0.0, 1.676047523071021E9, 0.0, 2023-02-10 11:45:23.071
53.0, 7021.4428927234285, 187500.0, 187500.0, 187500.0, -187500.02235174447, 187500.0, -187500.02235174447, -187500.02235174447, -0.018000000000000002, 0.028, 1.002, 192.0, 0.0, 0.0, 0.0, 0.0, 0.0, 0.0, 0.0, 0.0, 0.0, 1.676047523071055E9, 0.0, 2023-02-10 11:45:23.071
54.0, 7185.817621447757, 187500.0, 187500.0, 187500.0, -187500.02235174447, 187500.0, -187500.02235174447, -187500.02235174447, -0.018000000000000002, 0.028, 1.002, 192.0, 0.0, 0.0, 0.0, 0.0, 0.0, 0.0, 0.0, 0.0, 0.0, 1.676047523078973E9, 0.0, 2023-02-10 11:45:23.078
55.0, 7156.89446412259, 187500.0, 187500.0, 187500.0, -187500.02235174447, 187500.0, -187500.02235174447, -187500.02235174447, -0.018000000000000002, 0.028, 1.002, 192.0, 0.0, 0.0, 0.0, 0.0, 0.0, 0.0, 0.0, 0.0, 0.0, 1.676047523079004E9, 0.0, 2023-02-10 11:45:23.079
56.0, 6998.331188956641, 187500.0, 187500.0, 187500.0, -187500.02235174447, 187500.0, -187500.02235174447, -187500.02235174447, -0.018000000000000002, 0.026000000000000002, 1.004, 192.0, 255.0, 112.0, 0.0, 208.0, 31.0, 96.0, 0.0, 0.0, 0.0, 1.676047523085144E9, 0.0, 2023-02-10 11:45:23.085
57.0, 6934.360496325553, 187500.0, 187500.0, 187500.0, -187500.02235174447, 187500.0, -187500.02235174447, -187500.02235174447, -0.018000000000000002, 0.026000000000000002, 1.004, 192.0, 0.0, 0.0, 0.0, 0.0, 0.0, 0.0, 0.0, 0.0, 0.0, 1.67604752308529E9, 0.0, 2023-02-10 11:45:23.085
58.0, 7154.994565843888, 187500.0, 187500.0, 187500.0, -187500.02235174447, 187500.0, -187500.02235174447, -187500.02235174447, -0.018000000000000002, 0.026000000000000002, 1.004, 192.0, 0.0, 0.0, 0.0, 0.0, 0.0, 0.0, 0.0, 0.0, 0.0, 1.676047523092728E9, 0.0, 2023-02-10 11:45:23.092
59.0, 7221.848633509712, 187500.0, 187500.0, 187500.0, -187500.02235174447, 187500.0, -187500.02235174447, -187500.02235174447, -0.018000000000000002, 0.026000000000000002, 1.004, 192.0, 0.0, 0.0, 0.0, 0.0, 0.0, 0.0, 0.0, 0.0, 0.0, 1.676047523100765E9, 0.0, 2023-02-10 11:45:23.100
60.0, 7112.749768823358, 187500.0, 187500.0, 187500.0, -187500.02235174447, 187500.0, -187500.02235174447, -187500.02235174447, -0.018000000000000002, 0.026000000000000002, 1.004, 192.0, 0.0, 0.0, 0.0, 0.0, 0.0, 0.0, 0.0, 0.0, 0.0, 1.676047523100796E9, 0.0, 2023-02-10 11:45:23.100
61.0, 7068.895646202046, 187500.0, 187500.0, 187500.0, -187500.02235174447, 187500.0, -187500.02235174447, -187500.02235174447, -0.018000000000000002, 0.026000000000000002, 1.004, 192.0, 0.0, 0.0, 0.0, 0.0, 0.0, 0.0, 0.0, 0.0, 0.0, 1.676047523108722E9, 0.0, 2023-02-10 11:45:23.108
62.0, 7134.475664433917, 187500.0, 187500.0, 187500.0, -187500.02235174447, 187500.0, -187500.02235174447, -187500.02235174447, -0.018000000000000002, 0.026000000000000002, 1.004, 192.0, 0.0, 0.0, 0.0, 0.0, 0.0, 0.0, 0.0, 0.0, 0.0, 1.676047523108753E9, 0.0, 2023-02-10 11:45:23.108
63.0, 7115.722550835914, 187500.0, 187500.0, 187500.0, -187500.02235174447, 187500.0, -187500.02235174447, -187500.02235174447, -0.018000000000000002, 0.026000000000000002, 1.004, 192.0, 0.0, 0.0, 0.0, 0.0, 0.0, 0.0, 0.0, 0.0, 0.0, 1.67604752311527E9, 0.0, 2023-02-10 11:45:23.115
64.0, 6972.447868877396, 187500.0, 187500.0, 187500.0, -187500.02235174447, 187500.0, -187500.02235174447, -187500.02235174447, -0.018000000000000002, 0.026000000000000002, 1.004, 192.0, 0.0, 0.0, 0.0, 0.0, 0.0, 0.0, 0.0, 0.0, 0.0, 1.676047523115302E9, 0.0, 2023-02-10 11:45:23.115
65.0, 6913.41691177093, 187500.0, 187500.0, 187500.0, -187500.02235174447, 187500.0, -187500.02235174447, -187500.02235174447, -0.018000000000000002, 0.026000000000000002, 1.004, 192.0, 0.0, 0.0, 0.0, 0.0, 0.0, 0.0, 0.0, 0.0, 0.0, 1.676047523123296E9, 0.0, 2023-02-10 11:45:23.123
66.0, 7074.30476836023, 187500.0, 187500.0, 187500.0, -187500.02235174447, 187500.0, -187500.02235174447, -187500.02235174447, -0.018000000000000002, 0.024, 1.0, 192.0, 255.0, 112.0, 0.0, 192.0, 31.0, 64.0, 0.0, 0.0, 0.0, 1.676047523123325E9, 0.0, 2023-02-10 11:45:23.123
67.0, 7220.23930790893, 187500.0, 187500.0, 187500.0, -187500.02235174447, 187500.0, -187500.02235174447, -187500.02235174447, -0.018000000000000002, 0.024, 1.0, 192.0, 0.0, 0.0, 0.0, 0.0, 0.0, 0.0, 0.0, 0.0, 0.0, 1.676047523131259E9, 0.0, 2023-02-10 11:45:23.131
68.0, 7100.098681461654, 187500.0, 187500.0, 187500.0, -187500.02235174447, 187500.0, -187500.02235174447, -187500.02235174447, -0.018000000000000002, 0.024, 1.0, 192.0, 0.0, 0.0, 0.0, 0.0, 0.0, 0.0, 0.0, 0.0, 0.0, 1.676047523131287E9, 0.0, 2023-02-10 11:45:23.131
69.0, 6939.456694061362, 187500.0, 187500.0, 187500.0, -187500.02235174447, 187500.0, -187500.02235174447, -187500.02235174447, -0.018000000000000002, 0.024, 1.0, 192.0, 0.0, 0.0, 0.0, 0.0, 0.0, 0.0, 0.0, 0.0, 0.0, 1.676047523139091E9, 0.0, 2023-02-10 11:45:23.139
70.0, 7052.10948611611, 187500.0, 187500.0, 187500.0, -187500.02235174447, 187500.0, -187500.02235174447, -187500.02235174447, -0.018000000000000002, 0.024, 1.0, 192.0, 0.0, 0.0, 0.0, 0.0, 0.0, 0.0, 0.0, 0.0, 0.0, 1.676047523139129E9, 0.0, 2023-02-10 11:45:23.139
71.0, 7255.778581592868, 187500.0, 187500.0, 187500.0, -187500.02235174447, 187500.0, -187500.02235174447, -187500.02235174447, -0.018000000000000002, 0.024, 1.0, 192.0, 0.0, 0.0, 0.0, 0.0, 0.0, 0.0, 0.0, 0.0, 0.0, 1.67604752314591E9, 0.0, 2023-02-10 11:45:23.145
72.0, 7253.744572847435, 187500.0, 187500.0, 187500.0, -187500.02235174447, 187500.0, -187500.02235174447, -187500.02235174447, -0.018000000000000002, 0.024, 1.0, 192.0, 0.0, 0.0, 0.0, 0.0, 0.0, 0.0, 0.0, 0.0, 0.0, 1.676047523146059E9, 0.0, 2023-02-10 11:45:23.146
73.0, 7042.498236000328, 187500.0, 187500.0, 187500.0, -187500.02235174447, 187500.0, -187500.02235174447, -187500.02235174447, -0.018000000000000002, 0.024, 1.0, 192.0, 0.0, 0.0, 0.0, 0.0, 0.0, 0.0, 0.0, 0.0, 0.0, 1.676047523153023E9, 0.0, 2023-02-10 11:45:23.153
74.0, 7070.080288658177, 187500.0, 187500.0, 187500.0, -187500.02235174447, 187500.0, -187500.02235174447, -187500.02235174447, -0.018000000000000002, 0.024, 1.0, 192.0, 0.0, 0.0, 0.0, 0.0, 0.0, 0.0, 0.0, 0.0, 0.0, 1.676047523160873E9, 0.0, 2023-02-10 11:45:23.160
75.0, 7074.237713126864, 187500.0, 187500.0, 187500.0, -187500.02235174447, 187500.0, -187500.02235174447, -187500.02235174447, -0.014, 0.026000000000000002, 1.004, 192.0, 255.0, 144.0, 0.0, 208.0, 31.0, 96.0, 0.0, 0.0, 0.0, 1.676047523160923E9, 0.0, 2023-02-10 11:45:23.160
76.0, 7061.676032742982, 187500.0, 187500.0, 187500.0, -187500.02235174447, 187500.0, -187500.02235174447, -187500.02235174447, -0.014, 0.026000000000000002, 1.004, 192.0, 0.0, 0.0, 0.0, 0.0, 0.0, 0.0, 0.0, 0.0, 0.0, 1.676047523167565E9, 0.0, 2023-02-10 11:45:23.167
77.0, 6926.090350877089, 187500.0, 187500.0, 187500.0, -187500.02235174447, 187500.0, -187500.02235174447, -187500.02235174447, -0.014, 0.026000000000000002, 1.004, 192.0, 0.0, 0.0, 0.0, 0.0, 0.0, 0.0, 0.0, 0.0, 0.0, 1.676047523167591E9, 0.0, 2023-02-10 11:45:23.167
78.0, 6961.696679794393, 187500.0, 187500.0, 187500.0, -187500.02235174447, 187500.0, -187500.02235174447, -187500.02235174447, -0.014, 0.026000000000000002, 1.004, 192.0, 0.0, 0.0, 0.0, 0.0, 0.0, 0.0, 0.0, 0.0, 0.0, 1.676047523177039E9, 0.0, 2023-02-10 11:45:23.177
79.0, 7142.052905804266, 187500.0, 187500.0, 187500.0, -187500.02235174447, 187500.0, -187500.02235174447, -187500.02235174447, -0.014, 0.026000000000000002, 1.004, 192.0, 0.0, 0.0, 0.0, 0.0, 0.0, 0.0, 0.0, 0.0, 0.0, 1.676047523177078E9, 0.0, 2023-02-10 11:45:23.177
80.0, 7138.007240057856, 187500.0, 187500.0, 187500.0, -187500.02235174447, 187500.0, -187500.02235174447, -187500.02235174447, -0.014, 0.026000000000000002, 1.004, 192.0, 0.0, 0.0, 0.0, 0.0, 0.0, 0.0, 0.0, 0.0, 0.0, 1.676047523183626E9, 0.0, 2023-02-10 11:45:23.183
81.0, 7037.625555709071, 187500.0, 187500.0, 187500.0, -187500.02235174447, 187500.0, -187500.02235174447, -187500.02235174447, -0.014, 0.026000000000000002, 1.004, 192.0, 0.0, 0.0, 0.0, 0.0, 0.0, 0.0, 0.0, 0.0, 0.0, 1.676047523183694E9, 0.0, 2023-02-10 11:45:23.183
82.0, 7112.9509345234555, 187500.0, 187500.0, 187500.0, -187500.02235174447, 187500.0, -187500.02235174447, -187500.02235174447, -0.014, 0.026000000000000002, 1.004, 192.0, 0.0, 0.0, 0.0, 0.0, 0.0, 0.0, 0.0, 0.0, 0.0, 1.676047523190887E9, 0.0, 2023-02-10 11:45:23.190
83.0, 7226.833072523245, 187500.0, 187500.0, 187500.0, -187500.02235174447, 187500.0, -187500.02235174447, -187500.02235174447, -0.014, 0.026000000000000002, 1.004, 192.0, 0.0, 0.0, 0.0, 0.0, 0.0, 0.0, 0.0, 0.0, 0.0, 1.676047523190933E9, 0.0, 2023-02-10 11:45:23.190
84.0, 7100.992751239866, 187500.0, 187500.0, 187500.0, -187500.02235174447, 187500.0, -187500.02235174447, -187500.02235174447, -0.014, 0.026000000000000002, 1.004, 192.0, 0.0, 0.0, 0.0, 0.0, 0.0, 0.0, 0.0, 0.0, 0.0, 1.676047523198209E9, 0.0, 2023-02-10 11:45:23.198
85.0, 7007.875383839058, 187500.0, 187500.0, 187500.0, -187500.02235174447, 187500.0, -187500.02235174447, -187500.02235174447, -0.008, 0.032, 1.004, 192.0, 255.0, 192.0, 1.0, 0.0, 31.0, 96.0, 0.0, 0.0, 0.0, 1.676047523198239E9, 0.0, 2023-02-10 11:45:23.198
86.0, 7057.295090829742, 187500.0, 187500.0, 187500.0, -187500.02235174447, 187500.0, -187500.02235174447, -187500.02235174447, -0.008, 0.032, 1.004, 192.0, 0.0, 0.0, 0.0, 0.0, 0.0, 0.0, 0.0, 0.0, 0.0, 1.676047523206157E9, 0.0, 2023-02-10 11:45:23.206
87.0, 7131.7934550992795, 187500.0, 187500.0, 187500.0, -187500.02235174447, 187500.0, -187500.02235174447, -187500.02235174447, -0.008, 0.032, 1.004, 192.0, 0.0, 0.0, 0.0, 0.0, 0.0, 0.0, 0.0, 0.0, 0.0, 1.676047523206612E9, 0.0, 2023-02-10 11:45:23.206
88.0, 7118.561222381738, 187500.0, 187500.0, 187500.0, -187500.02235174447, 187500.0, -187500.02235174447, -187500.02235174447, -0.008, 0.032, 1.004, 192.0, 0.0, 0.0, 0.0, 0.0, 0.0, 0.0, 0.0, 0.0, 0.0, 1.67604752321318E9, 0.0, 2023-02-10 11:45:23.213
89.0, 7056.982166407367, 187500.0, 187500.0, 187500.0, -187500.02235174447, 187500.0, -187500.02235174447, -187500.02235174447, -0.008, 0.032, 1.004, 192.0, 0.0, 0.0, 0.0, 0.0, 0.0, 0.0, 0.0, 0.0, 0.0, 1.676047523220317E9, 0.0, 2023-02-10 11:45:23.220
90.0, 6930.89597593498, 187500.0, 187500.0, 187500.0, -187500.02235174447, 187500.0, -187500.02235174447, -187500.02235174447, -0.008, 0.032, 1.004, 192.0, 0.0, 0.0, 0.0, 0.0, 0.0, 0.0, 0.0, 0.0, 0.0, 1.676047523220344E9, 0.0, 2023-02-10 11:45:23.220
91.0, 7131.145254510076, 187500.0, 187500.0, 187500.0, -187500.02235174447, 187500.0, -187500.02235174447, -187500.02235174447, -0.008, 0.032, 1.004, 192.0, 0.0, 0.0, 0.0, 0.0, 0.0, 0.0, 0.0, 0.0, 0.0, 1.676047523227928E9, 0.0, 2023-02-10 11:45:23.227
92.0, 7209.018732192366, 187500.0, 187500.0, 187500.0, -187500.02235174447, 187500.0, -187500.02235174447, -187500.02235174447, -0.008, 0.032, 1.004, 192.0, 0.0, 0.0, 0.0, 0.0, 0.0, 0.0, 0.0, 0.0, 0.0, 1.676047523227959E9, 0.0, 2023-02-10 11:45:23.227
93.0, 7092.2308674133865, 187500.0, 187500.0, 187500.0, -187500.02235174447, 187500.0, -187500.02235174447, -187500.02235174447, -0.008, 0.032, 1.004, 192.0, 0.0, 0.0, 0.0, 0.0, 0.0, 0.0, 0.0, 0.0, 0.0, 1.676047523236287E9, 0.0, 2023-02-10 11:45:23.236
94.0, 6959.305043137675, 187500.0, 187500.0, 187500.0, -187500.02235174447, 187500.0, -187500.02235174447, -187500.02235174447, -0.008, 0.032, 1.004, 192.0, 0.0, 0.0, 0.0, 0.0, 0.0, 0.0, 0.0, 0.0, 0.0, 1.676047523236356E9, 0.0, 2023-02-10 11:45:23.236
95.0, 7060.603149009126, 187500.0, 187500.0, 187500.0, -187500.02235174447, 187500.0, -187500.02235174447, -187500.02235174447, -0.01, 0.028, 1.0, 192.0, 255.0, 176.0, 0.0, 224.0, 31.0, 64.0, 0.0, 0.0, 0.0, 1.67604752324379E9, 0.0, 2023-02-10 11:45:23.243
96.0, 7213.109101427687, 187500.0, 187500.0, 187500.0, -187500.02235174447, 187500.0, -187500.02235174447, -187500.02235174447, -0.01, 0.028, 1.0, 192.0, 0.0, 0.0, 0.0, 0.0, 0.0, 0.0, 0.0, 0.0, 0.0, 1.676047523243822E9, 0.0, 2023-02-10 11:45:23.243
97.0, 7148.870187863135, 187500.0, 187500.0, 187500.0, -187500.02235174447, 187500.0, -187500.02235174447, -187500.02235174447, -0.01, 0.028, 1.0, 192.0, 0.0, 0.0, 0.0, 0.0, 0.0, 0.0, 0.0, 0.0, 0.0, 1.676047523250461E9, 0.0, 2023-02-10 11:45:23.250
98.0, 6952.3536506120745, 187500.0, 187500.0, 187500.0, -187500.02235174447, 187500.0, -187500.02235174447, -187500.02235174447, -0.01, 0.028, 1.0, 192.0, 0.0, 0.0, 0.0, 0.0, 0.0, 0.0, 0.0, 0.0, 0.0, 1.676047523250492E9, 0.0, 2023-02-10 11:45:23.250
99.0, 7020.81704387868, 187500.0, 187500.0, 187500.0, -187500.02235174447, 187500.0, -187500.02235174447, -187500.02235174447, -0.01, 0.028, 1.0, 192.0, 0.0, 0.0, 0.0, 0.0, 0.0, 0.0, 0.0, 0.0, 0.0, 1.676047523258527E9, 0.0, 2023-02-10 11:45:23.258
100.0, 7270.10604978872, 187500.0, 187500.0, 187500.0, -187500.02235174447, 187500.0, -187500.02235174447, -187500.02235174447, -0.01, 0.028, 1.0, 192.0, 0.0, 0.0, 0.0, 0.0, 0.0, 0.0, 0.0, 0.0, 0.0, 1.676047523258556E9, 0.0, 2023-02-10 11:45:23.258
101.0, 7211.365665360173, 187500.0, 187500.0, 187500.0, -187500.02235174447, 187500.0, -187500.02235174447, -187500.02235174447, -0.01, 0.028, 1.0, 192.0, 0.0, 0.0, 0.0, 0.0, 0.0, 0.0, 0.0, 0.0, 0.0, 1.676047523266435E9, 0.0, 2023-02-10 11:45:23.266
102.0, 7007.160128016488, 187500.0, 187500.0, 187500.0, -187500.02235174447, 187500.0, -187500.02235174447, -187500.02235174447, -0.01, 0.028, 1.0, 192.0, 0.0, 0.0, 0.0, 0.0, 0.0, 0.0, 0.0, 0.0, 0.0, 1.676047523266573E9, 0.0, 2023-02-10 11:45:23.266
103.0, 6997.682988367437, 187500.0, 187500.0, 187500.0, -187500.02235174447, 187500.0, -187500.02235174447, -187500.02235174447, -0.01, 0.028, 1.0, 192.0, 0.0, 0.0, 0.0, 0.0, 0.0, 0.0, 0.0, 0.0, 0.0, 1.676047523273652E9, 0.0, 2023-02-10 11:45:23.273
104.0, 7225.491967855927, 187500.0, 187500.0, 187500.0, -187500.02235174447, 187500.0, -187500.02235174447, -187500.02235174447, -0.01, 0.028, 1.0, 192.0, 0.0, 0.0, 0.0, 0.0, 0.0, 0.0, 0.0, 0.0, 0.0, 1.676047523280103E9, 0.0, 2023-02-10 11:45:23.280
105.0, 7176.943978899, 187500.0, 187500.0, 187500.0, -187500.02235174447, 187500.0, -187500.02235174447, -187500.02235174447, -0.012, 0.026000000000000002, 0.998, 192.0, 255.0, 160.0, 0.0, 208.0, 31.0, 48.0, 0.0, 0.0, 0.0, 1.676047523280134E9, 0.0, 2023-02-10 11:45:23.280
106.0, 7010.915221084979, 187500.0, 187500.0, 187500.0, -187500.02235174447, 187500.0, -187500.02235174447, -187500.02235174447, -0.012, 0.026000000000000002, 0.998, 192.0, 0.0, 0.0, 0.0, 0.0, 0.0, 0.0, 0.0, 0.0, 0.0, 1.676047523288066E9, 0.0, 2023-02-10 11:45:23.288
107.0, 7056.289262329253, 187500.0, 187500.0, 187500.0, -187500.02235174447, 187500.0, -187500.02235174447, -187500.02235174447, -0.012, 0.026000000000000002, 0.998, 192.0, 0.0, 0.0, 0.0, 0.0, 0.0, 0.0, 0.0, 0.0, 0.0, 1.676047523288095E9, 0.0, 2023-02-10 11:45:23.288
108.0, 7222.027447465354, 187500.0, 187500.0, 187500.0, -187500.02235174447, 187500.0, -187500.02235174447, -187500.02235174447, -0.012, 0.026000000000000002, 0.998, 192.0, 0.0, 0.0, 0.0, 0.0, 0.0, 0.0, 0.0, 0.0, 0.0, 1.676047523296102E9, 0.0, 2023-02-10 11:45:23.296
109.0, 7222.675648054558, 187500.0, 187500.0, 187500.0, -187500.02235174447, 187500.0, -187500.02235174447, -187500.02235174447, -0.012, 0.026000000000000002, 0.998, 192.0, 0.0, 0.0, 0.0, 0.0, 0.0, 0.0, 0.0, 0.0, 0.0, 1.676047523296133E9, 0.0, 2023-02-10 11:45:23.296
110.0, 7061.363108320607, 187500.0, 187500.0, 187500.0, -187500.02235174447, 187500.0, -187500.02235174447, -187500.02235174447, -0.012, 0.026000000000000002, 0.998, 192.0, 0.0, 0.0, 0.0, 0.0, 0.0, 0.0, 0.0, 0.0, 0.0, 1.676047523303282E9, 0.0, 2023-02-10 11:45:23.303
111.0, 7011.094035040622, 187500.0, 187500.0, 187500.0, -187500.02235174447, 187500.0, -187500.02235174447, -187500.02235174447, -0.012, 0.026000000000000002, 0.998, 192.0, 0.0, 0.0, 0.0, 0.0, 0.0, 0.0, 0.0, 0.0, 0.0, 1.676047523303313E9, 0.0, 2023-02-10 11:45:23.303
112.0, 7164.449353748483, 187500.0, 187500.0, 187500.0, -187500.02235174447, 187500.0, -187500.02235174447, -187500.02235174447, -0.012, 0.026000000000000002, 0.998, 192.0, 0.0, 0.0, 0.0, 0.0, 0.0, 0.0, 0.0, 0.0, 0.0, 1.676047523311036E9, 0.0, 2023-02-10 11:45:23.311
113.0, 7195.227705863441, 187500.0, 187500.0, 187500.0, -187500.02235174447, 187500.0, -187500.02235174447, -187500.02235174447, -0.012, 0.026000000000000002, 0.998, 192.0, 0.0, 0.0, 0.0, 0.0, 0.0, 0.0, 0.0, 0.0, 0.0, 1.676047523311068E9, 0.0, 2023-02-10 11:45:23.311
114.0, 7037.357334775607, 187500.0, 187500.0, 187500.0, -187500.02235174447, 187500.0, -187500.02235174447, -187500.02235174447, -0.012, 0.026000000000000002, 0.998, 192.0, 0.0, 0.0, 0.0, 0.0, 0.0, 0.0, 0.0, 0.0, 0.0, 1.676047523318627E9, 0.0, 2023-02-10 11:45:23.318
115.0, 6983.981369016335, 187500.0, 187500.0, 187500.0, -187500.02235174447, 187500.0, -187500.02235174447, -187500.02235174447, -0.016, 0.026000000000000002, 1.004, 192.0, 255.0, 128.0, 0.0, 208.0, 31.0, 96.0, 0.0, 0.0, 0.0, 1.676047523318654E9, 0.0, 2023-02-10 11:45:23.318
116.0, 7081.658492286026, 187500.0, 187500.0, 187500.0, -187500.02235174447, 187500.0, -187500.02235174447, -187500.02235174447, -0.016, 0.026000000000000002, 1.004, 192.0, 0.0, 0.0, 0.0, 0.0, 0.0, 0.0, 0.0, 0.0, 0.0, 1.676047523325814E9, 0.0, 2023-02-10 11:45:23.325
117.0, 7211.320961871263, 187500.0, 187500.0, 187500.0, -187500.02235174447, 187500.0, -187500.02235174447, -187500.02235174447, -0.016, 0.026000000000000002, 1.004, 192.0, 0.0, 0.0, 0.0, 0.0, 0.0, 0.0, 0.0, 0.0, 0.0, 1.676047523325946E9, 0.0, 2023-02-10 11:45:23.325
118.0, 7101.730358806892, 187500.0, 187500.0, 187500.0, -187500.02235174447, 187500.0, -187500.02235174447, -187500.02235174447, -0.016, 0.026000000000000002, 1.004, 192.0, 0.0, 0.0, 0.0, 0.0, 0.0, 0.0, 0.0, 0.0, 0.0, 1.67604752333216E9, 0.0, 2023-02-10 11:45:23.332
119.0, 7001.505136669295, 187500.0, 187500.0, 187500.0, -187500.02235174447, 187500.0, -187500.02235174447, -187500.02235174447, -0.016, 0.026000000000000002, 1.004, 192.0, 0.0, 0.0, 0.0, 0.0, 0.0, 0.0, 0.0, 0.0, 0.0, 1.676047523332184E9, 0.0, 2023-02-10 11:45:23.332
120.0, 7127.188995741487, 187500.0, 187500.0, 187500.0, -187500.02235174447, 187500.0, -187500.02235174447, -187500.02235174447, -0.016, 0.026000000000000002, 1.004, 192.0, 0.0, 0.0, 0.0, 0.0, 0.0, 0.0, 0.0, 0.0, 0.0, 1.676047523340355E9, 0.0, 2023-02-10 11:45:23.340
121.0, 7257.589072893748, 187500.0, 187500.0, 187500.0, -187500.02235174447, 187500.0, -187500.02235174447, -187500.02235174447, -0.016, 0.026000000000000002, 1.004, 192.0, 0.0, 0.0, 0.0, 0.0, 0.0, 0.0, 0.0, 0.0, 0.0, 1.676047523349032E9, 0.0, 2023-02-10 11:45:23.349
122.0, 7158.928472868022, 187500.0, 187500.0, 187500.0, -187500.02235174447, 187500.0, -187500.02235174447, -187500.02235174447, -0.016, 0.026000000000000002, 1.004, 192.0, 0.0, 0.0, 0.0, 0.0, 0.0, 0.0, 0.0, 0.0, 0.0, 1.676047523349061E9, 0.0, 2023-02-10 11:45:23.349
123.0, 6941.647165017983, 187500.0, 187500.0, 187500.0, -187500.02235174447, 187500.0, -187500.02235174447, -187500.02235174447, -0.016, 0.026000000000000002, 1.004, 192.0, 0.0, 0.0, 0.0, 0.0, 0.0, 0.0, 0.0, 0.0, 0.0, 1.676047523355723E9, 0.0, 2023-02-10 11:45:23.355
124.0, 7054.098791372632, 187500.0, 187500.0, 187500.0, -187500.02235174447, 187500.0, -187500.02235174447, -187500.02235174447, -0.016, 0.026000000000000002, 1.004, 192.0, 0.0, 0.0, 0.0, 0.0, 0.0, 0.0, 0.0, 0.0, 0.0, 1.676047523355754E9, 0.0, 2023-02-10 11:45:23.355
125.0, 7208.482290325438, 187500.0, 187500.0, 187500.0, -187500.02235174447, 187500.0, -187500.02235174447, -187500.02235174447, -0.016, 0.03, 1.0, 192.0, 255.0, 128.0, 0.0, 240.0, 31.0, 64.0, 0.0, 0.0, 0.0, 1.67604752336368E9, 0.0, 2023-02-10 11:45:23.363
126.0, 7238.523034873371, 187500.0, 187500.0, 187500.0, -187500.02235174447, 187500.0, -187500.02235174447, -187500.02235174447, -0.016, 0.03, 1.0, 192.0, 0.0, 0.0, 0.0, 0.0, 0.0, 0.0, 0.0, 0.0, 0.0, 1.676047523363712E9, 0.0, 2023-02-10 11:45:23.363
127.0, 7079.110393418121, 187500.0, 187500.0, 187500.0, -187500.02235174447, 187500.0, -187500.02235174447, -187500.02235174447, -0.016, 0.03, 1.0, 192.0, 0.0, 0.0, 0.0, 0.0, 0.0, 0.0, 0.0, 0.0, 0.0, 1.676047523370946E9, 0.0, 2023-02-10 11:45:23.370
128.0, 7121.668114861026, 187500.0, 187500.0, 187500.0, -187500.02235174447, 187500.0, -187500.02235174447, -187500.02235174447, -0.016, 0.03, 1.0, 192.0, 0.0, 0.0, 0.0, 0.0, 0.0, 0.0, 0.0, 0.0, 0.0, 1.676047523370975E9, 0.0, 2023-02-10 11:45:23.370
129.0, 7216.327752629251, 187500.0, 187500.0, 187500.0, -187500.02235174447, 187500.0, -187500.02235174447, -187500.02235174447, -0.016, 0.03, 1.0, 192.0, 0.0, 0.0, 0.0, 0.0, 0.0, 0.0, 0.0, 0.0, 0.0, 1.676047523378396E9, 0.0, 2023-02-10 11:45:23.378
130.0, 7150.233644274908, 187500.0, 187500.0, 187500.0, -187500.02235174447, 187500.0, -187500.02235174447, -187500.02235174447, -0.016, 0.03, 1.0, 192.0, 0.0, 0.0, 0.0, 0.0, 0.0, 0.0, 0.0, 0.0, 0.0, 1.676047523378426E9, 0.0, 2023-02-10 11:45:23.378
131.0, 7029.981259105356, 187500.0, 187500.0, 187500.0, -187500.02235174447, 187500.0, -187500.02235174447, -187500.02235174447, -0.016, 0.03, 1.0, 192.0, 0.0, 0.0, 0.0, 0.0, 0.0, 0.0, 0.0, 0.0, 0.0, 1.676047523386482E9, 0.0, 2023-02-10 11:45:23.386
132.0, 6983.176706215943, 187500.0, 187500.0, 187500.0, -187500.02235174447, 187500.0, -187500.02235174447, -187500.02235174447, -0.016, 0.03, 1.0, 192.0, 0.0, 0.0, 0.0, 0.0, 0.0, 0.0, 0.0, 0.0, 0.0, 1.676047523386674E9, 0.0, 2023-02-10 11:45:23.386
133.0, 7158.6155484456485, 187500.0, 187500.0, 187500.0, -187500.02235174447, 187500.0, -187500.02235174447, -187500.02235174447, -0.016, 0.03, 1.0, 192.0, 0.0, 0.0, 0.0, 0.0, 0.0, 0.0, 0.0, 0.0, 0.0, 1.676047523394387E9, 0.0, 2023-02-10 11:45:23.394
134.0, 7230.319944658273, 187500.0, 187500.0, 187500.0, -187500.02235174447, 187500.0, -187500.02235174447, -187500.02235174447, -0.014, 0.03, 0.998, 192.0, 255.0, 144.0, 0.0, 240.0, 31.0, 48.0, 0.0, 0.0, 0.0, 1.676047523394417E9, 0.0, 2023-02-10 11:45:23.394
135.0, 7089.59336156766, 187500.0, 187500.0, 187500.0, -187500.02235174447, 187500.0, -187500.02235174447, -187500.02235174447, -0.014, 0.03, 0.998, 192.0, 0.0, 0.0, 0.0, 0.0, 0.0, 0.0, 0.0, 0.0, 0.0, 1.676047523400514E9, 0.0, 2023-02-10 11:45:23.400
136.0, 6953.2924238791975, 187500.0, 187500.0, 187500.0, -187500.02235174447, 187500.0, -187500.02235174447, -187500.02235174447, -0.014, 0.03, 0.998, 192.0, 0.0, 0.0, 0.0, 0.0, 0.0, 0.0, 0.0, 0.0, 0.0, 1.676047523408009E9, 0.0, 2023-02-10 11:45:23.408
137.0, 7204.458976323483, 187500.0, 187500.0, 187500.0, -187500.02235174447, 187500.0, -187500.02235174447, -187500.02235174447, -0.014, 0.03, 0.998, 192.0, 0.0, 0.0, 0.0, 0.0, 0.0, 0.0, 0.0, 0.0, 0.0, 1.676047523408053E9, 0.0, 2023-02-10 11:45:23.408
138.0, 7321.246841102463, 187500.0, 187500.0, 187500.0, -187500.02235174447, 187500.0, -187500.02235174447, -187500.02235174447, -0.014, 0.03, 0.998, 192.0, 0.0, 0.0, 0.0, 0.0, 0.0, 0.0, 0.0, 0.0, 0.0, 1.676047523416001E9, 0.0, 2023-02-10 11:45:23.416
139.0, 7170.350214284685, 187500.0, 187500.0, 187500.0, -187500.02235174447, 187500.0, -187500.02235174447, -187500.02235174447, -0.014, 0.03, 0.998, 192.0, 0.0, 0.0, 0.0, 0.0, 0.0, 0.0, 0.0, 0.0, 0.0, 1.676047523416051E9, 0.0, 2023-02-10 11:45:23.416
140.0, 6909.348894280064, 187500.0, 187500.0, 187500.0, -187500.02235174447, 187500.0, -187500.02235174447, -187500.02235174447, -0.014, 0.03, 0.998, 192.0, 0.0, 0.0, 0.0, 0.0, 0.0, 0.0, 0.0, 0.0, 0.0, 1.676047523423162E9, 0.0, 2023-02-10 11:45:23.423
141.0, 7072.7401462483585, 187500.0, 187500.0, 187500.0, -187500.02235174447, 187500.0, -187500.02235174447, -187500.02235174447, -0.014, 0.03, 0.998, 192.0, 0.0, 0.0, 0.0, 0.0, 0.0, 0.0, 0.0, 0.0, 0.0, 1.676047523423189E9, 0.0, 2023-02-10 11:45:23.423
142.0, 7242.278127941862, 187500.0, 187500.0, 187500.0, -187500.02235174447, 187500.0, -187500.02235174447, -187500.02235174447, -0.014, 0.03, 0.998, 192.0, 0.0, 0.0, 0.0, 0.0, 0.0, 0.0, 0.0, 0.0, 0.0, 1.676047523430543E9, 0.0, 2023-02-10 11:45:23.430
143.0, 7104.636085586082, 187500.0, 187500.0, 187500.0, -187500.02235174447, 187500.0, -187500.02235174447, -187500.02235174447, -0.014, 0.03, 0.998, 192.0, 0.0, 0.0, 0.0, 0.0, 0.0, 0.0, 0.0, 0.0, 0.0, 1.676047523430572E9, 0.0, 2023-02-10 11:45:23.430
144.0, 6979.4663166363625, 187500.0, 187500.0, 187500.0, -187500.02235174447, 187500.0, -187500.02235174447, -187500.02235174447, -0.014, 0.03, 0.998, 192.0, 255.0, 144.0, 0.0, 240.0, 31.0, 48.0, 0.0, 0.0, 0.0, 1.676047523440033E9, 0.0, 2023-02-10 11:45:23.440
145.0, 7122.495129405872, 187500.0, 187500.0, 187500.0, -187500.02235174447, 187500.0, -187500.02235174447, -187500.02235174447, -0.014, 0.03, 0.998, 192.0, 0.0, 0.0, 0.0, 0.0, 0.0, 0.0, 0.0, 0.0, 0.0, 1.676047523440065E9, 0.0, 2023-02-10 11:45:23.440
146.0, 7286.244009285451, 187500.0, 187500.0, 187500.0, -187500.02235174447, 187500.0, -187500.02235174447, -187500.02235174447, -0.014, 0.03, 0.998, 192.0, 0.0, 0.0, 0.0, 0.0, 0.0, 0.0, 0.0, 0.0, 0.0, 1.676047523446686E9, 0.0, 2023-02-10 11:45:23.446
147.0, 7218.250002652408, 187500.0, 187500.0, 187500.0, -187500.02235174447, 187500.0, -187500.02235174447, -187500.02235174447, -0.014, 0.03, 0.998, 192.0, 0.0, 0.0, 0.0, 0.0, 0.0, 0.0, 0.0, 0.0, 0.0, 1.676047523446823E9, 0.0, 2023-02-10 11:45:23.446
148.0, 7012.971581574868, 187500.0, 187500.0, 187500.0, -187500.02235174447, 187500.0, -187500.02235174447, -187500.02235174447, -0.014, 0.03, 0.998, 192.0, 0.0, 0.0, 0.0, 0.0, 0.0, 0.0, 0.0, 0.0, 0.0, 1.676047523453179E9, 0.0, 2023-02-10 11:45:23.453
149.0, 7115.856661302646, 187500.0, 187500.0, 187500.0, -187500.02235174447, 187500.0, -187500.02235174447, -187500.02235174447, -0.014, 0.03, 0.998, 192.0, 0.0, 0.0, 0.0, 0.0, 0.0, 0.0, 0.0, 0.0, 0.0, 1.676047523453207E9, 0.0, 2023-02-10 11:45:23.453
150.0, 7265.948625320033, 187500.0, 187500.0, 187500.0, -187500.02235174447, 187500.0, -187500.02235174447, -187500.02235174447, -0.014, 0.03, 0.998, 192.0, 0.0, 0.0, 0.0, 0.0, 0.0, 0.0, 0.0, 0.0, 0.0, 1.67604752346024E9, 0.0, 2023-02-10 11:45:23.460
151.0, 7221.692171298525, 187500.0, 187500.0, 187500.0, -187500.02235174447, 187500.0, -187500.02235174447, -187500.02235174447, -0.014, 0.03, 0.998, 192.0, 0.0, 0.0, 0.0, 0.0, 0.0, 0.0, 0.0, 0.0, 0.0, 1.676047523468131E9, 0.0, 2023-02-10 11:45:23.468
152.0, 7037.625555709071, 187500.0, 187500.0, 187500.0, -187500.02235174447, 187500.0, -187500.02235174447, -187500.02235174447, -0.014, 0.03, 0.998, 192.0, 0.0, 0.0, 0.0, 0.0, 0.0, 0.0, 0.0, 0.0, 0.0, 1.676047523468161E9, 0.0, 2023-02-10 11:45:23.468
153.0, 7017.397226977018, 187500.0, 187500.0, 187500.0, -187500.02235174447, 187500.0, -187500.02235174447, -187500.02235174447, -0.014, 0.03, 0.998, 192.0, 0.0, 0.0, 0.0, 0.0, 0.0, 0.0, 0.0, 0.0, 0.0, 1.676047523476305E9, 0.0, 2023-02-10 11:45:23.476
154.0, 7221.200432920508, 187500.0, 187500.0, 187500.0, -187500.02235174447, 187500.0, -187500.02235174447, -187500.02235174447, -0.014, 0.03, 0.996, 192.0, 255.0, 144.0, 0.0, 240.0, 31.0, 32.0, 0.0, 0.0, 0.0, 1.676047523476335E9, 0.0, 2023-02-10 11:45:23.476
155.0, 7225.693133556025, 187500.0, 187500.0, 187500.0, -187500.02235174447, 187500.0, -187500.02235174447, -187500.02235174447, -0.014, 0.03, 0.996, 192.0, 0.0, 0.0, 0.0, 0.0, 0.0, 0.0, 0.0, 0.0, 0.0, 1.67604752348282E9, 0.0, 2023-02-10 11:45:23.482
156.0, 7093.795489525258, 187500.0, 187500.0, 187500.0, -187500.02235174447, 187500.0, -187500.02235174447, -187500.02235174447, -0.014, 0.03, 0.996, 192.0, 0.0, 0.0, 0.0, 0.0, 0.0, 0.0, 0.0, 0.0, 0.0, 1.676047523482843E9, 0.0, 2023-02-10 11:45:23.482
157.0, 7122.428074172506, 187500.0, 187500.0, 187500.0, -187500.02235174447, 187500.0, -187500.02235174447, -187500.02235174447, -0.014, 0.03, 0.996, 192.0, 0.0, 0.0, 0.0, 0.0, 0.0, 0.0, 0.0, 0.0, 0.0, 1.676047523490987E9, 0.0, 2023-02-10 11:45:23.490
158.0, 7238.47833138446, 187500.0, 187500.0, 187500.0, -187500.02235174447, 187500.0, -187500.02235174447, -187500.02235174447, -0.014, 0.03, 0.996, 192.0, 0.0, 0.0, 0.0, 0.0, 0.0, 0.0, 0.0, 0.0, 0.0, 1.676047523491019E9, 0.0, 2023-02-10 11:45:23.491
159.0, 7293.754195422434, 187500.0, 187500.0, 187500.0, -187500.02235174447, 187500.0, -187500.02235174447, -187500.02235174447, -0.014, 0.03, 0.996, 192.0, 0.0, 0.0, 0.0, 0.0, 0.0, 0.0, 0.0, 0.0, 0.0, 1.676047523498869E9, 0.0, 2023-02-10 11:45:23.498
160.0, 7050.701326215426, 187500.0, 187500.0, 187500.0, -187500.02235174447, 187500.0, -187500.02235174447, -187500.02235174447, -0.014, 0.03, 0.996, 192.0, 0.0, 0.0, 0.0, 0.0, 0.0, 0.0, 0.0, 0.0, 0.0, 1.676047523498898E9, 0.0, 2023-02-10 11:45:23.498
161.0, 6985.545991128206, 187500.0, 187500.0, 187500.0, -187500.02235174447, 187500.0, -187500.02235174447, -187500.02235174447, -0.014, 0.03, 0.996, 192.0, 0.0, 0.0, 0.0, 0.0, 0.0, 0.0, 0.0, 0.0, 0.0, 1.676047523506084E9, 0.0, 2023-02-10 11:45:23.506
162.0, 7169.634958462115, 187500.0, 187500.0, 187500.0, -187500.02235174447, 187500.0, -187500.02235174447, -187500.02235174447, -0.014, 0.03, 0.996, 192.0, 0.0, 0.0, 0.0, 0.0, 0.0, 0.0, 0.0, 0.0, 0.0, 1.67604752350622E9, 0.0, 2023-02-10 11:45:23.506
163.0, 7248.514264644893, 187500.0, 187500.0, 187500.0, -187500.02235174447, 187500.0, -187500.02235174447, -187500.02235174447, -0.014, 0.03, 0.996, 192.0, 0.0, 0.0, 0.0, 0.0, 0.0, 0.0, 0.0, 0.0, 0.0, 1.676047523513481E9, 0.0, 2023-02-10 11:45:23.513
164.0, 7109.1958414549645, 187500.0, 187500.0, 187500.0, -187500.02235174447, 187500.0, -187500.02235174447, -187500.02235174447, -0.016, 0.03, 0.994, 192.0, 255.0, 128.0, 0.0, 240.0, 31.0, 16.0, 0.0, 0.0, 0.0, 1.676047523513509E9, 0.0, 2023-02-10 11:45:23.513
165.0, 6994.419633676963, 187500.0, 187500.0, 187500.0, -187500.02235174447, 187500.0, -187500.02235174447, -187500.02235174447, -0.016, 0.03, 0.994, 192.0, 0.0, 0.0, 0.0, 0.0, 0.0, 0.0, 0.0, 0.0, 0.0, 1.676047523521404E9, 0.0, 2023-02-10 11:45:23.521
166.0, 7136.55437666826, 187500.0, 187500.0, 187500.0, -187500.02235174447, 187500.0, -187500.02235174447, -187500.02235174447, -0.016, 0.03, 0.994, 192.0, 0.0, 0.0, 0.0, 0.0, 0.0, 0.0, 0.0, 0.0, 0.0, 1.676047523528532E9, 0.0, 2023-02-10 11:45:23.528
167.0, 7266.10508753122, 187500.0, 187500.0, 187500.0, -187500.02235174447, 187500.0, -187500.02235174447, -187500.02235174447, -0.016, 0.03, 0.994, 192.0, 0.0, 0.0, 0.0, 0.0, 0.0, 0.0, 0.0, 0.0, 0.0, 1.676047523528562E9, 0.0, 2023-02-10 11:45:23.528
168.0, 7196.837031464223, 187500.0, 187500.0, 187500.0, -187500.02235174447, 187500.0, -187500.02235174447, -187500.02235174447, -0.016, 0.03, 0.994, 192.0, 0.0, 0.0, 0.0, 0.0, 0.0, 0.0, 0.0, 0.0, 0.0, 1.676047523535811E9, 0.0, 2023-02-10 11:45:23.535
169.0, 7096.991788982366, 187500.0, 187500.0, 187500.0, -187500.02235174447, 187500.0, -187500.02235174447, -187500.02235174447, -0.016, 0.03, 0.994, 192.0, 0.0, 0.0, 0.0, 0.0, 0.0, 0.0, 0.0, 0.0, 0.0, 1.67604752353584E9, 0.0, 2023-02-10 11:45:23.535
170.0, 7153.251129776375, 187500.0, 187500.0, 187500.0, -187500.02235174447, 187500.0, -187500.02235174447, -187500.02235174447, -0.016, 0.03, 0.994, 192.0, 0.0, 0.0, 0.0, 0.0, 0.0, 0.0, 0.0, 0.0, 0.0, 1.676047523543123E9, 0.0, 2023-02-10 11:45:23.543
171.0, 7191.740833728413, 187500.0, 187500.0, 187500.0, -187500.02235174447, 187500.0, -187500.02235174447, -187500.02235174447, -0.016, 0.03, 0.994, 192.0, 0.0, 0.0, 0.0, 0.0, 0.0, 0.0, 0.0, 0.0, 0.0, 1.676047523543154E9, 0.0, 2023-02-10 11:45:23.543
172.0, 7177.27925506583, 187500.0, 187500.0, 187500.0, -187500.02235174447, 187500.0, -187500.02235174447, -187500.02235174447, -0.016, 0.03, 0.994, 192.0, 0.0, 0.0, 0.0, 0.0, 0.0, 0.0, 0.0, 0.0, 0.0, 1.676047523551147E9, 0.0, 2023-02-10 11:45:23.551
173.0, 7046.119218602088, 187500.0, 187500.0, 187500.0, -187500.02235174447, 187500.0, -187500.02235174447, -187500.02235174447, -0.016, 0.03, 0.994, 192.0, 0.0, 0.0, 0.0, 0.0, 0.0, 0.0, 0.0, 0.0, 0.0, 1.676047523551177E9, 0.0, 2023-02-10 11:45:23.551
174.0, 7104.636085586082, 187500.0, 187500.0, 187500.0, -187500.02235174447, 187500.0, -187500.02235174447, -187500.02235174447, -0.014, 0.024, 0.996, 192.0, 255.0, 144.0, 0.0, 192.0, 31.0, 32.0, 0.0, 0.0, 0.0, 1.676047523559295E9, 0.0, 2023-02-10 11:45:23.559
175.0, 7318.341114323272, 187500.0, 187500.0, 187500.0, -187500.02235174447, 187500.0, -187500.02235174447, -187500.02235174447, -0.014, 0.024, 0.996, 192.0, 0.0, 0.0, 0.0, 0.0, 0.0, 0.0, 0.0, 0.0, 0.0, 1.676047523559332E9, 0.0, 2023-02-10 11:45:23.559
176.0, 7206.872964724656, 187500.0, 187500.0, 187500.0, -187500.02235174447, 187500.0, -187500.02235174447, -187500.02235174447, -0.014, 0.024, 0.996, 192.0, 0.0, 0.0, 0.0, 0.0, 0.0, 0.0, 0.0, 0.0, 0.0, 1.676047523567157E9, 0.0, 2023-02-10 11:45:23.567
177.0, 6994.106709254588, 187500.0, 187500.0, 187500.0, -187500.02235174447, 187500.0, -187500.02235174447, -187500.02235174447, -0.014, 0.024, 0.996, 192.0, 0.0, 0.0, 0.0, 0.0, 0.0, 0.0, 0.0, 0.0, 0.0, 1.676047523567314E9, 0.0, 2023-02-10 11:45:23.567
178.0, 7039.860730154602, 187500.0, 187500.0, 187500.0, -187500.02235174447, 187500.0, -187500.02235174447, -187500.02235174447, -0.014, 0.024, 0.996, 192.0, 0.0, 0.0, 0.0, 0.0, 0.0, 0.0, 0.0, 0.0, 0.0, 1.67604752357377E9, 0.0, 2023-02-10 11:45:23.573
179.0, 7236.578433105759, 187500.0, 187500.0, 187500.0, -187500.02235174447, 187500.0, -187500.02235174447, -187500.02235174447, -0.014, 0.024, 0.996, 192.0, 0.0, 0.0, 0.0, 0.0, 0.0, 0.0, 0.0, 0.0, 0.0, 1.676047523573799E9, 0.0, 2023-02-10 11:45:23.573
180.0, 7289.417956998105, 187500.0, 187500.0, 187500.0, -187500.02235174447, 187500.0, -187500.02235174447, -187500.02235174447, -0.014, 0.024, 0.996, 192.0, 0.0, 0.0, 0.0, 0.0, 0.0, 0.0, 0.0, 0.0, 0.0, 1.676047523580816E9, 0.0, 2023-02-10 11:45:23.580
181.0, 7149.741905896892, 187500.0, 187500.0, 187500.0, -187500.02235174447, 187500.0, -187500.02235174447, -187500.02235174447, -0.014, 0.024, 0.996, 192.0, 0.0, 0.0, 0.0, 0.0, 0.0, 0.0, 0.0, 0.0, 0.0, 1.676047523580846E9, 0.0, 2023-02-10 11:45:23.580
182.0, 7078.953931206934, 187500.0, 187500.0, 187500.0, -187500.02235174447, 187500.0, -187500.02235174447, -187500.02235174447, -0.014, 0.024, 0.996, 192.0, 0.0, 0.0, 0.0, 0.0, 0.0, 0.0, 0.0, 0.0, 0.0, 1.676047523588939E9, 0.0, 2023-02-10 11:45:23.588
183.0, 7151.5747489422265, 187500.0, 187500.0, 187500.0, -187500.02235174447, 187500.0, -187500.02235174447, -187500.02235174447, -0.016, 0.022, 0.998, 192.0, 255.0, 128.0, 0.0, 176.0, 31.0, 48.0, 0.0, 0.0, 0.0, 1.676047523595405E9, 0.0, 2023-02-10 11:45:23.595
184.0, 7228.308287657295, 187500.0, 187500.0, 187500.0, -187500.02235174447, 187500.0, -187500.02235174447, -187500.02235174447, -0.016, 0.022, 0.998, 192.0, 0.0, 0.0, 0.0, 0.0, 0.0, 0.0, 0.0, 0.0, 0.0, 1.67604752359544E9, 0.0, 2023-02-10 11:45:23.595
185.0, 7089.4145476120175, 187500.0, 187500.0, 187500.0, -187500.02235174447, 187500.0, -187500.02235174447, -187500.02235174447, -0.016, 0.022, 0.998, 192.0, 0.0, 0.0, 0.0, 0.0, 0.0, 0.0, 0.0, 0.0, 0.0, 1.676047523603364E9, 0.0, 2023-02-10 11:45:23.603
186.0, 7013.709189141892, 187500.0, 187500.0, 187500.0, -187500.02235174447, 187500.0, -187500.02235174447, -187500.02235174447, -0.016, 0.022, 0.998, 192.0, 0.0, 0.0, 0.0, 0.0, 0.0, 0.0, 0.0, 0.0, 0.0, 1.676047523603393E9, 0.0, 2023-02-10 11:45:23.603
187.0, 7188.723348226947, 187500.0, 187500.0, 187500.0, -187500.02235174447, 187500.0, -187500.02235174447, -187500.02235174447, -0.016, 0.022, 0.998, 192.0, 0.0, 0.0, 0.0, 0.0, 0.0, 0.0, 0.0, 0.0, 0.0, 1.676047523611491E9, 0.0, 2023-02-10 11:45:23.611
188.0, 7354.819161274334, 187500.0, 187500.0, 187500.0, -187500.02235174447, 187500.0, -187500.02235174447, -187500.02235174447, -0.016, 0.022, 0.998, 192.0, 0.0, 0.0, 0.0, 0.0, 0.0, 0.0, 0.0, 0.0, 0.0, 1.676047523611525E9, 0.0, 2023-02-10 11:45:23.611
189.0, 7211.656238038092, 187500.0, 187500.0, 187500.0, -187500.02235174447, 187500.0, -187500.02235174447, -187500.02235174447, -0.016, 0.022, 0.998, 192.0, 0.0, 0.0, 0.0, 0.0, 0.0, 0.0, 0.0, 0.0, 0.0, 1.676047523618103E9, 0.0, 2023-02-10 11:45:23.618
190.0, 7008.970619317368, 187500.0, 187500.0, 187500.0, -187500.02235174447, 187500.0, -187500.02235174447, -187500.02235174447, -0.016, 0.022, 0.998, 192.0, 0.0, 0.0, 0.0, 0.0, 0.0, 0.0, 0.0, 0.0, 0.0, 1.676047523618133E9, 0.0, 2023-02-10 11:45:23.618
191.0, 7116.437806658484, 187500.0, 187500.0, 187500.0, -187500.02235174447, 187500.0, -187500.02235174447, -187500.02235174447, -0.016, 0.022, 0.998, 192.0, 0.0, 0.0, 0.0, 0.0, 0.0, 0.0, 0.0, 0.0, 0.0, 1.67604752362604E9, 0.0, 2023-02-10 11:45:23.626
192.0, 7267.401488709627, 187500.0, 187500.0, 187500.0, -187500.02235174447, 187500.0, -187500.02235174447, -187500.02235174447, -0.016, 0.022, 0.998, 192.0, 0.0, 0.0, 0.0, 0.0, 0.0, 0.0, 0.0, 0.0, 0.0, 1.67604752362607E9, 0.0, 2023-02-10 11:45:23.626
193.0, 7204.23545887893, 187500.0, 187500.0, 187500.0, -187500.02235174447, 187500.0, -187500.02235174447, -187500.02235174447, -0.018000000000000002, 0.024, 1.0, 192.0, 255.0, 112.0, 0.0, 192.0, 31.0, 64.0, 0.0, 0.0, 0.0, 1.676047523633991E9, 0.0, 2023-02-10 11:45:23.633
194.0, 7007.651866394504, 187500.0, 187500.0, 187500.0, -187500.02235174447, 187500.0, -187500.02235174447, -187500.02235174447, -0.018000000000000002, 0.024, 1.0, 192.0, 0.0, 0.0, 0.0, 0.0, 0.0, 0.0, 0.0, 0.0, 0.0, 1.676047523634021E9, 0.0, 2023-02-10 11:45:23.634
195.0, 7075.243541627353, 187500.0, 187500.0, 187500.0, -187500.02235174447, 187500.0, -187500.02235174447, -187500.02235174447, -0.018000000000000002, 0.024, 1.0, 192.0, 0.0, 0.0, 0.0, 0.0, 0.0, 0.0, 0.0, 0.0, 0.0, 1.676047523641238E9, 0.0, 2023-02-10 11:45:23.641
196.0, 7270.4413259555495, 187500.0, 187500.0, 187500.0, -187500.02235174447, 187500.0, -187500.02235174447, -187500.02235174447, -0.018000000000000002, 0.024, 1.0, 192.0, 0.0, 0.0, 0.0, 0.0, 0.0, 0.0, 0.0, 0.0, 0.0, 1.676047523641269E9, 0.0, 2023-02-10 11:45:23.641
197.0, 7243.4404186535385, 187500.0, 187500.0, 187500.0, -187500.02235174447, 187500.0, -187500.02235174447, -187500.02235174447, -0.018000000000000002, 0.024, 1.0, 192.0, 0.0, 0.0, 0.0, 0.0, 0.0, 0.0, 0.0, 0.0, 0.0, 1.676047523647657E9, 0.0, 2023-02-10 11:45:23.647
198.0, 7051.885968671557, 187500.0, 187500.0, 187500.0, -187500.02235174447, 187500.0, -187500.02235174447, -187500.02235174447, -0.018000000000000002, 0.024, 1.0, 192.0, 0.0, 0.0, 0.0, 0.0, 0.0, 0.0, 0.0, 0.0, 0.0, 1.676047523656292E9, 0.0, 2023-02-10 11:45:23.656
199.0, 7089.548658078749, 187500.0, 187500.0, 187500.0, -187500.02235174447, 187500.0, -187500.02235174447, -187500.02235174447, -0.018000000000000002, 0.024, 1.0, 192.0, 0.0, 0.0, 0.0, 0.0, 0.0, 0.0, 0.0, 0.0, 0.0, 1.676047523656322E9, 0.0, 2023-02-10 11:45:23.656
200.0, 7298.448061758049, 187500.0, 187500.0, 187500.0, -187500.02235174447, 187500.0, -187500.02235174447, -187500.02235174447, -0.018000000000000002, 0.024, 1.0, 192.0, 0.0, 0.0, 0.0, 0.0, 0.0, 0.0, 0.0, 0.0, 0.0, 1.676047523663716E9, 0.0, 2023-02-10 11:45:23.663
201.0, 7292.971884366499, 187500.0, 187500.0, 187500.0, -187500.02235174447, 187500.0, -187500.02235174447, -187500.02235174447, -0.018000000000000002, 0.024, 1.0, 192.0, 0.0, 0.0, 0.0, 0.0, 0.0, 0.0, 0.0, 0.0, 0.0, 1.676047523663747E9, 0.0, 2023-02-10 11:45:23.663
