%OpenBCI Raw EEG Data
%Number of channels = 8
%Sample Rate = 250 Hz
%Board = OpenBCI_GUI$BoardCytonSerial
Sample Index, EXG Channel 0, EXG Channel 1, EXG Channel 2, EXG Channel 3, EXG Channel 4, EXG Channel 5, EXG Channel 6, EXG Channel 7, Accel Channel 0, Accel Channel 1, Accel Channel 2, Other, Other, Other, Other, Other, Other, Other, Analog Channel 0, Analog Channel 1, Analog Channel 2, Timestamp, Other, Timestamp (Formatted)
71.0, 14324.674227794914, 187500.0, 187500.0, 187500.0, -187500.02235174447, 187500.0, -187500.02235174447, -187500.02235174447, 0.0, 0.0, 0.0, 192.0, 0.0, 0.0, 0.0, 0.0, 0.0, 0.0, 0.0, 0.0, 0.0, 1.676047278440121E9, 0.0, 2023-02-10 11:41:18.440
72.0, 14241.481034932262, 187500.0, 187500.0, 187500.0, -187500.02235174447, 187500.0, -187500.02235174447, -187500.02235174447, 0.0, 0.0, 0.0, 192.0, 0.0, 0.0, 0.0, 0.0, 0.0, 0.0, 0.0, 0.0, 0.0, 1.676047278440164E9, 0.0, 2023-02-10 11:41:18.440
73.0, 14086.248169690154, 187500.0, 187500.0, 187500.0, -187500.02235174447, 187500.0, -187500.02235174447, -187500.02235174447, 0.0, 0.0, 0.0, 192.0, 0.0, 0.0, 0.0, 0.0, 0.0, 0.0, 0.0, 0.0, 0.0, 1.676047278440179E9, 0.0, 2023-02-10 11:41:18.440
74.0, 14157.796103691591, 187500.0, 187500.0, 187500.0, -187500.02235174447, 187500.0, -187500.02235174447, -187500.02235174447, -0.022, 0.026000000000000002, 0.992, 192.0, 255.0, 80.0, 0.0, 208.0, 31.0, 0.0, 0.0, 0.0, 0.0, 1.676047278440193E9, 0.0, 2023-02-10 11:41:18.440
75.0, 14328.339913885584, 187500.0, 187500.0, 187500.0, -187500.02235174447, 187500.0, -187500.02235174447, -187500.02235174447, -0.022, 0.026000000000000002, 0.992, 192.0, 0.0, 0.0, 0.0, 0.0, 0.0, 0.0, 0.0, 0.0, 0.0, 1.67604727844021E9, 0.0, 2023-02-10 11:41:18.440
0.0, 0.0, 0.0, 0.0, 0.0, 0.0, 0.0, 0.0, 0.0, -0.022, 0.026000000000000002, 0.992, 192.0, 0.0, 0.0, 0.0, 0.0, 0.0, 0.0, 0.0, 0.0, 0.0, 1.676047278523448E9, 0.0, 2023-02-10 11:41:18.523
1.0, 9517.797472214399, 187500.0, 187500.0, 187500.0, -187500.02235174447, 187500.0, -187500.02235174447, -187500.02235174447, -0.02, 0.026000000000000002, 0.996, 192.0, 255.0, 96.0, 0.0, 208.0, 31.0, 32.0, 0.0, 0.0, 0.0, 1.676047278538726E9, 0.0, 2023-02-10 11:41:18.538
2.0, 9528.571013041856, 187500.0, 187500.0, 187500.0, -187500.02235174447, 187500.0, -187500.02235174447, -187500.02235174447, -0.02, 0.026000000000000002, 0.996, 192.0, 0.0, 0.0, 0.0, 0.0, 0.0, 0.0, 0.0, 0.0, 0.0, 1.676047278546364E9, 0.0, 2023-02-10 11:41:18.546
3.0, 9237.618355467124, 187500.0, 187500.0, 187500.0, -187500.02235174447, 187500.0, -187500.02235174447, -187500.02235174447, -0.02, 0.026000000000000002, 0.996, 192.0, 0.0, 0.0, 0.0, 0.0, 0.0, 0.0, 0.0, 0.0, 0.0, 1.676047278546386E9, 0.0, 2023-02-10 11:41:18.546
4.0, 9348.818284132276, 187500.0, 187500.0, 187500.0, -187500.02235174447, 187500.0, -187500.02235174447, -187500.02235174447, -0.02, 0.026000000000000002, 0.996, 192.0, 0.0, 0.0, 0.0, 0.0, 0.0, 0.0, 0.0, 0.0, 0.0, 1.67604727855285E9, 0.0, 2023-02-10 11:41:18.552
5.0, 9242.06635261373, 187500.0, 187500.0, 187500.0, -187500.02235174447, 187500.0, -187500.02235174447, -187500.02235174447, -0.02, 0.026000000000000002, 0.996, 192.0, 0.0, 0.0, 0.0, 0.0, 0.0, 0.0, 0.0, 0.0, 0.0, 1.676047278552871E9, 0.0, 2023-02-10 11:41:18.552
6.0, 9189.897381055043, 187500.0, 187500.0, 187500.0, -187500.02235174447, 187500.0, -187500.02235174447, -187500.02235174447, -0.02, 0.026000000000000002, 0.996, 192.0, 0.0, 0.0, 0.0, 0.0, 0.0, 0.0, 0.0, 0.0, 0.0, 1.676047278560926E9, 0.0, 2023-02-10 11:41:18.560
7.0, 9556.644804077721, 187500.0, 187500.0, 187500.0, -187500.02235174447, 187500.0, -187500.02235174447, -187500.02235174447, -0.02, 0.026000000000000002, 0.996, 192.0, 0.0, 0.0, 0.0, 0.0, 0.0, 0.0, 0.0, 0.0, 0.0, 1.676047278560958E9, 0.0, 2023-02-10 11:41:18.560
8.0, 9785.325501599968, 187500.0, 187500.0, 187500.0, -187500.02235174447, 187500.0, -187500.02235174447, -187500.02235174447, -0.018000000000000002, 0.026000000000000002, 0.994, 192.0, 255.0, 112.0, 0.0, 208.0, 31.0, 16.0, 0.0, 0.0, 0.0, 1.67604727856885E9, 0.0, 2023-02-10 11:41:18.568
9.0, 9450.96575629303, 187500.0, 187500.0, 187500.0, -187500.02235174447, 187500.0, -187500.02235174447, -187500.02235174447, -0.018000000000000002, 0.026000000000000002, 0.994, 192.0, 0.0, 0.0, 0.0, 0.0, 0.0, 0.0, 0.0, 0.0, 0.0, 1.676047278568872E9, 0.0, 2023-02-10 11:41:18.568
10.0, 9352.014583589385, 187500.0, 187500.0, 187500.0, -187500.02235174447, 187500.0, -187500.02235174447, -187500.02235174447, -0.018000000000000002, 0.026000000000000002, 0.994, 192.0, 0.0, 0.0, 0.0, 0.0, 0.0, 0.0, 0.0, 0.0, 0.0, 1.676047278575988E9, 0.0, 2023-02-10 11:41:18.575
11.0, 9292.536591593813, 187500.0, 187500.0, 187500.0, -187500.02235174447, 187500.0, -187500.02235174447, -187500.02235174447, -0.018000000000000002, 0.026000000000000002, 0.994, 192.0, 0.0, 0.0, 0.0, 0.0, 0.0, 0.0, 0.0, 0.0, 0.0, 1.67604727857616E9, 0.0, 2023-02-10 11:41:18.576
12.0, 9312.56375462577, 187500.0, 187500.0, 187500.0, -187500.02235174447, 187500.0, -187500.02235174447, -187500.02235174447, -0.018000000000000002, 0.026000000000000002, 0.994, 192.0, 0.0, 0.0, 0.0, 0.0, 0.0, 0.0, 0.0, 0.0, 0.0, 1.67604727858359E9, 0.0, 2023-02-10 11:41:18.583
13.0, 9362.296386038826, 187500.0, 187500.0, 187500.0, -187500.02235174447, 187500.0, -187500.02235174447, -187500.02235174447, -0.018000000000000002, 0.026000000000000002, 0.994, 192.0, 0.0, 0.0, 0.0, 0.0, 0.0, 0.0, 0.0, 0.0, 0.0, 1.676047278583614E9, 0.0, 2023-02-10 11:41:18.583
14.0, 9314.687170349023, 187500.0, 187500.0, 187500.0, -187500.02235174447, 187500.0, -187500.02235174447, -187500.02235174447, -0.018000000000000002, 0.026000000000000002, 0.994, 192.0, 0.0, 0.0, 0.0, 0.0, 0.0, 0.0, 0.0, 0.0, 0.0, 1.676047278591501E9, 0.0, 2023-02-10 11:41:18.591
15.0, 9382.658825237611, 187500.0, 187500.0, 187500.0, -187500.02235174447, 187500.0, -187500.02235174447, -187500.02235174447, -0.018000000000000002, 0.026000000000000002, 0.994, 192.0, 0.0, 0.0, 0.0, 0.0, 0.0, 0.0, 0.0, 0.0, 0.0, 1.676047278591523E9, 0.0, 2023-02-10 11:41:18.591
16.0, 9856.739325134675, 187500.0, 187500.0, 187500.0, -187500.02235174447, 187500.0, -187500.02235174447, -187500.02235174447, -0.018000000000000002, 0.026000000000000002, 0.994, 192.0, 0.0, 0.0, 0.0, 0.0, 0.0, 0.0, 0.0, 0.0, 0.0, 1.676047278598333E9, 0.0, 2023-02-10 11:41:18.598
17.0, 9355.166179557584, 187500.0, 187500.0, 187500.0, -187500.02235174447, 187500.0, -187500.02235174447, -187500.02235174447, -0.02, 0.03, 0.996, 192.0, 255.0, 96.0, 0.0, 240.0, 31.0, 32.0, 0.0, 0.0, 0.0, 1.676047278605407E9, 0.0, 2023-02-10 11:41:18.605
18.0, 9456.039602284385, 187500.0, 187500.0, 187500.0, -187500.02235174447, 187500.0, -187500.02235174447, -187500.02235174447, -0.02, 0.03, 0.996, 192.0, 0.0, 0.0, 0.0, 0.0, 0.0, 0.0, 0.0, 0.0, 0.0, 1.676047278605431E9, 0.0, 2023-02-10 11:41:18.605
19.0, 9348.237138776438, 187500.0, 187500.0, 187500.0, -187500.02235174447, 187500.0, -187500.02235174447, -187500.02235174447, -0.02, 0.03, 0.996, 192.0, 0.0, 0.0, 0.0, 0.0, 0.0, 0.0, 0.0, 0.0, 0.0, 1.676047278613136E9, 0.0, 2023-02-10 11:41:18.613
20.0, 9168.819686033688, 187500.0, 187500.0, 187500.0, -187500.02235174447, 187500.0, -187500.02235174447, -187500.02235174447, -0.02, 0.03, 0.996, 192.0, 0.0, 0.0, 0.0, 0.0, 0.0, 0.0, 0.0, 0.0, 0.0, 1.676047278613153E9, 0.0, 2023-02-10 11:41:18.613
21.0, 9447.30007020236, 187500.0, 187500.0, 187500.0, -187500.02235174447, 187500.0, -187500.02235174447, -187500.02235174447, -0.02, 0.03, 0.996, 192.0, 0.0, 0.0, 0.0, 0.0, 0.0, 0.0, 0.0, 0.0, 0.0, 1.676047278621192E9, 0.0, 2023-02-10 11:41:18.621
22.0, 9346.404295731103, 187500.0, 187500.0, 187500.0, -187500.02235174447, 187500.0, -187500.02235174447, -187500.02235174447, -0.02, 0.03, 0.996, 192.0, 0.0, 0.0, 0.0, 0.0, 0.0, 0.0, 0.0, 0.0, 0.0, 1.676047278621224E9, 0.0, 2023-02-10 11:41:18.621
23.0, 9420.545032089358, 187500.0, 187500.0, 187500.0, -187500.02235174447, 187500.0, -187500.02235174447, -187500.02235174447, -0.02, 0.03, 0.996, 192.0, 0.0, 0.0, 0.0, 0.0, 0.0, 0.0, 0.0, 0.0, 0.0, 1.67604727862926E9, 0.0, 2023-02-10 11:41:18.629
24.0, 9335.161368270084, 187500.0, 187500.0, 187500.0, -187500.02235174447, 187500.0, -187500.02235174447, -187500.02235174447, -0.02, 0.03, 0.996, 192.0, 0.0, 0.0, 0.0, 0.0, 0.0, 0.0, 0.0, 0.0, 0.0, 1.676047278629291E9, 0.0, 2023-02-10 11:41:18.629
25.0, 9448.44000916958, 187500.0, 187500.0, 187500.0, -187500.02235174447, 187500.0, -187500.02235174447, -187500.02235174447, -0.02, 0.03, 0.996, 192.0, 0.0, 0.0, 0.0, 0.0, 0.0, 0.0, 0.0, 0.0, 0.0, 1.676047278635822E9, 0.0, 2023-02-10 11:41:18.635
26.0, 9481.319425263337, 187500.0, 187500.0, 187500.0, -187500.02235174447, 187500.0, -187500.02235174447, -187500.02235174447, -0.02, 0.03, 0.996, 192.0, 0.0, 0.0, 0.0, 0.0, 0.0, 0.0, 0.0, 0.0, 0.0, 1.676047278635946E9, 0.0, 2023-02-10 11:41:18.635
27.0, 9213.232602266384, 187500.0, 187500.0, 187500.0, -187500.02235174447, 187500.0, -187500.02235174447, -187500.02235174447, -0.024, 0.034, 1.002, 192.0, 255.0, 64.0, 1.0, 16.0, 31.0, 80.0, 0.0, 0.0, 0.0, 1.676047278643971E9, 0.0, 2023-02-10 11:41:18.643
28.0, 9191.260837466818, 187500.0, 187500.0, 187500.0, -187500.02235174447, 187500.0, -187500.02235174447, -187500.02235174447, -0.024, 0.034, 1.002, 192.0, 0.0, 0.0, 0.0, 0.0, 0.0, 0.0, 0.0, 0.0, 0.0, 1.676047278644009E9, 0.0, 2023-02-10 11:41:18.644
29.0, 9436.10184623025, 187500.0, 187500.0, 187500.0, -187500.02235174447, 187500.0, -187500.02235174447, -187500.02235174447, -0.024, 0.034, 1.002, 192.0, 0.0, 0.0, 0.0, 0.0, 0.0, 0.0, 0.0, 0.0, 0.0, 1.67604727865191E9, 0.0, 2023-02-10 11:41:18.651
30.0, 9503.961742396563, 187500.0, 187500.0, 187500.0, -187500.02235174447, 187500.0, -187500.02235174447, -187500.02235174447, -0.024, 0.034, 1.002, 192.0, 0.0, 0.0, 0.0, 0.0, 0.0, 0.0, 0.0, 0.0, 0.0, 1.676047278651937E9, 0.0, 2023-02-10 11:41:18.651
31.0, 9578.057775265906, 187500.0, 187500.0, 187500.0, -187500.02235174447, 187500.0, -187500.02235174447, -187500.02235174447, -0.024, 0.034, 1.002, 192.0, 0.0, 0.0, 0.0, 0.0, 0.0, 0.0, 0.0, 0.0, 0.0, 1.676047278658096E9, 0.0, 2023-02-10 11:41:18.658
32.0, 9342.93977534053, 187500.0, 187500.0, 187500.0, -187500.02235174447, 187500.0, -187500.02235174447, -187500.02235174447, -0.024, 0.034, 1.002, 192.0, 0.0, 0.0, 0.0, 0.0, 0.0, 0.0, 0.0, 0.0, 0.0, 1.676047278665567E9, 0.0, 2023-02-10 11:41:18.665
33.0, 9211.757387132333, 187500.0, 187500.0, 187500.0, -187500.02235174447, 187500.0, -187500.02235174447, -187500.02235174447, -0.024, 0.034, 1.002, 192.0, 0.0, 0.0, 0.0, 0.0, 0.0, 0.0, 0.0, 0.0, 0.0, 1.676047278665589E9, 0.0, 2023-02-10 11:41:18.665
34.0, 9324.186661742528, 187500.0, 187500.0, 187500.0, -187500.02235174447, 187500.0, -187500.02235174447, -187500.02235174447, -0.024, 0.034, 1.002, 192.0, 0.0, 0.0, 0.0, 0.0, 0.0, 0.0, 0.0, 0.0, 0.0, 1.676047278673527E9, 0.0, 2023-02-10 11:41:18.673
35.0, 9192.221962478396, 187500.0, 187500.0, 187500.0, -187500.02235174447, 187500.0, -187500.02235174447, -187500.02235174447, -0.024, 0.034, 1.002, 192.0, 0.0, 0.0, 0.0, 0.0, 0.0, 0.0, 0.0, 0.0, 0.0, 1.676047278673561E9, 0.0, 2023-02-10 11:41:18.673
36.0, 9140.544729297726, 187500.0, 187500.0, 187500.0, -187500.02235174447, 187500.0, -187500.02235174447, -187500.02235174447, -0.024, 0.034, 1.002, 192.0, 0.0, 0.0, 0.0, 0.0, 0.0, 0.0, 0.0, 0.0, 0.0, 1.67604727868144E9, 0.0, 2023-02-10 11:41:18.681
37.0, 9551.07921970835, 187500.0, 187500.0, 187500.0, -187500.02235174447, 187500.0, -187500.02235174447, -187500.02235174447, -0.03, 0.032, 0.996, 192.0, 255.0, 16.0, 1.0, 0.0, 31.0, 32.0, 0.0, 0.0, 0.0, 1.676047278681461E9, 0.0, 2023-02-10 11:41:18.681
38.0, 9369.180723331061, 187500.0, 187500.0, 187500.0, -187500.02235174447, 187500.0, -187500.02235174447, -187500.02235174447, -0.03, 0.032, 0.996, 192.0, 0.0, 0.0, 0.0, 0.0, 0.0, 0.0, 0.0, 0.0, 0.0, 1.676047278688028E9, 0.0, 2023-02-10 11:41:18.688
39.0, 9273.090573917696, 187500.0, 187500.0, 187500.0, -187500.02235174447, 187500.0, -187500.02235174447, -187500.02235174447, -0.03, 0.032, 0.996, 192.0, 0.0, 0.0, 0.0, 0.0, 0.0, 0.0, 0.0, 0.0, 0.0, 1.676047278688047E9, 0.0, 2023-02-10 11:41:18.688
40.0, 9319.291629706817, 187500.0, 187500.0, 187500.0, -187500.02235174447, 187500.0, -187500.02235174447, -187500.02235174447, -0.03, 0.032, 0.996, 192.0, 0.0, 0.0, 0.0, 0.0, 0.0, 0.0, 0.0, 0.0, 0.0, 1.676047278696093E9, 0.0, 2023-02-10 11:41:18.696
41.0, 9455.30199471736, 187500.0, 187500.0, 187500.0, -187500.02235174447, 187500.0, -187500.02235174447, -187500.02235174447, -0.03, 0.032, 0.996, 192.0, 0.0, 0.0, 0.0, 0.0, 0.0, 0.0, 0.0, 0.0, 0.0, 1.6760472786962E9, 0.0, 2023-02-10 11:41:18.696
42.0, 9355.680269680057, 187500.0, 187500.0, 187500.0, -187500.02235174447, 187500.0, -187500.02235174447, -187500.02235174447, -0.03, 0.032, 0.996, 192.0, 0.0, 0.0, 0.0, 0.0, 0.0, 0.0, 0.0, 0.0, 0.0, 1.676047278704174E9, 0.0, 2023-02-10 11:41:18.704
43.0, 9133.794502472223, 187500.0, 187500.0, 187500.0, -187500.02235174447, 187500.0, -187500.02235174447, -187500.02235174447, -0.03, 0.032, 0.996, 192.0, 0.0, 0.0, 0.0, 0.0, 0.0, 0.0, 0.0, 0.0, 0.0, 1.676047278704197E9, 0.0, 2023-02-10 11:41:18.704
44.0, 9066.068716772643, 187500.0, 187500.0, 187500.0, -187500.02235174447, 187500.0, -187500.02235174447, -187500.02235174447, -0.03, 0.032, 0.996, 192.0, 0.0, 0.0, 0.0, 0.0, 0.0, 0.0, 0.0, 0.0, 0.0, 1.67604727871136E9, 0.0, 2023-02-10 11:41:18.711
45.0, 9452.485674915992, 187500.0, 187500.0, 187500.0, -187500.02235174447, 187500.0, -187500.02235174447, -187500.02235174447, -0.03, 0.032, 0.996, 192.0, 0.0, 0.0, 0.0, 0.0, 0.0, 0.0, 0.0, 0.0, 0.0, 1.676047278711382E9, 0.0, 2023-02-10 11:41:18.711
46.0, 9912.81985197304, 187500.0, 187500.0, 187500.0, -187500.02235174447, 187500.0, -187500.02235174447, -187500.02235174447, -0.03, 0.032, 0.996, 192.0, 0.0, 0.0, 0.0, 0.0, 0.0, 0.0, 0.0, 0.0, 0.0, 1.676047278717819E9, 0.0, 2023-02-10 11:41:18.717
47.0, 9382.815287448799, 187500.0, 187500.0, 187500.0, -187500.02235174447, 187500.0, -187500.02235174447, -187500.02235174447, -0.032, 0.03, 0.998, 192.0, 255.0, 0.0, 0.0, 240.0, 31.0, 48.0, 0.0, 0.0, 0.0, 1.676047278727395E9, 0.0, 2023-02-10 11:41:18.727
48.0, 8935.020439031177, 187500.0, 187500.0, 187500.0, -187500.02235174447, 187500.0, -187500.02235174447, -187500.02235174447, -0.032, 0.03, 0.998, 192.0, 0.0, 0.0, 0.0, 0.0, 0.0, 0.0, 0.0, 0.0, 0.0, 1.676047278727423E9, 0.0, 2023-02-10 11:41:18.727
49.0, 8913.76393005418, 187500.0, 187500.0, 187500.0, -187500.02235174447, 187500.0, -187500.02235174447, -187500.02235174447, -0.032, 0.03, 0.998, 192.0, 0.0, 0.0, 0.0, 0.0, 0.0, 0.0, 0.0, 0.0, 0.0, 1.676047278733736E9, 0.0, 2023-02-10 11:41:18.733
50.0, 9333.999077558408, 187500.0, 187500.0, 187500.0, -187500.02235174447, 187500.0, -187500.02235174447, -187500.02235174447, -0.032, 0.03, 0.998, 192.0, 0.0, 0.0, 0.0, 0.0, 0.0, 0.0, 0.0, 0.0, 0.0, 1.676047278733758E9, 0.0, 2023-02-10 11:41:18.733
51.0, 9626.650467711743, 187500.0, 187500.0, 187500.0, -187500.02235174447, 187500.0, -187500.02235174447, -187500.02235174447, -0.032, 0.03, 0.998, 192.0, 0.0, 0.0, 0.0, 0.0, 0.0, 0.0, 0.0, 0.0, 0.0, 1.676047278740895E9, 0.0, 2023-02-10 11:41:18.740
52.0, 9210.282171998284, 187500.0, 187500.0, 187500.0, -187500.02235174447, 187500.0, -187500.02235174447, -187500.02235174447, -0.032, 0.03, 0.998, 192.0, 0.0, 0.0, 0.0, 0.0, 0.0, 0.0, 0.0, 0.0, 0.0, 1.676047278740917E9, 0.0, 2023-02-10 11:41:18.740
53.0, 9501.97243714004, 187500.0, 187500.0, 187500.0, -187500.02235174447, 187500.0, -187500.02235174447, -187500.02235174447, -0.032, 0.03, 0.998, 192.0, 0.0, 0.0, 0.0, 0.0, 0.0, 0.0, 0.0, 0.0, 0.0, 1.676047278748405E9, 0.0, 2023-02-10 11:41:18.748
54.0, 9536.17060615666, 187500.0, 187500.0, 187500.0, -187500.02235174447, 187500.0, -187500.02235174447, -187500.02235174447, -0.032, 0.03, 0.998, 192.0, 0.0, 0.0, 0.0, 0.0, 0.0, 0.0, 0.0, 0.0, 0.0, 1.676047278748428E9, 0.0, 2023-02-10 11:41:18.748
55.0, 9168.618520333592, 187500.0, 187500.0, 187500.0, -187500.02235174447, 187500.0, -187500.02235174447, -187500.02235174447, -0.032, 0.03, 0.998, 192.0, 0.0, 0.0, 0.0, 0.0, 0.0, 0.0, 0.0, 0.0, 0.0, 1.676047278757134E9, 0.0, 2023-02-10 11:41:18.757
56.0, 9126.150205868507, 187500.0, 187500.0, 187500.0, -187500.02235174447, 187500.0, -187500.02235174447, -187500.02235174447, -0.032, 0.03, 0.998, 192.0, 0.0, 0.0, 0.0, 0.0, 0.0, 0.0, 0.0, 0.0, 0.0, 1.676047278757255E9, 0.0, 2023-02-10 11:41:18.757
57.0, 9514.511765779467, 187500.0, 187500.0, 187500.0, -187500.02235174447, 187500.0, -187500.02235174447, -187500.02235174447, -0.028, 0.026000000000000002, 1.004, 192.0, 255.0, 32.0, 0.0, 208.0, 31.0, 96.0, 0.0, 0.0, 0.0, 1.676047278763666E9, 0.0, 2023-02-10 11:41:18.763
58.0, 9490.863620145754, 187500.0, 187500.0, 187500.0, -187500.02235174447, 187500.0, -187500.02235174447, -187500.02235174447, -0.028, 0.026000000000000002, 1.004, 192.0, 0.0, 0.0, 0.0, 0.0, 0.0, 0.0, 0.0, 0.0, 0.0, 1.676047278763686E9, 0.0, 2023-02-10 11:41:18.763
59.0, 9124.943211667922, 187500.0, 187500.0, 187500.0, -187500.02235174447, 187500.0, -187500.02235174447, -187500.02235174447, -0.028, 0.026000000000000002, 1.004, 192.0, 0.0, 0.0, 0.0, 0.0, 0.0, 0.0, 0.0, 0.0, 0.0, 1.676047278772194E9, 0.0, 2023-02-10 11:41:18.772
60.0, 9194.72535785739, 187500.0, 187500.0, 187500.0, -187500.02235174447, 187500.0, -187500.02235174447, -187500.02235174447, -0.028, 0.026000000000000002, 1.004, 192.0, 0.0, 0.0, 0.0, 0.0, 0.0, 0.0, 0.0, 0.0, 0.0, 1.676047278772208E9, 0.0, 2023-02-10 11:41:18.772
61.0, 9204.426014950994, 187500.0, 187500.0, 187500.0, -187500.02235174447, 187500.0, -187500.02235174447, -187500.02235174447, -0.028, 0.026000000000000002, 1.004, 192.0, 0.0, 0.0, 0.0, 0.0, 0.0, 0.0, 0.0, 0.0, 0.0, 1.676047278778722E9, 0.0, 2023-02-10 11:41:18.778
62.0, 9342.336278240238, 187500.0, 187500.0, 187500.0, -187500.02235174447, 187500.0, -187500.02235174447, -187500.02235174447, -0.028, 0.026000000000000002, 1.004, 192.0, 0.0, 0.0, 0.0, 0.0, 0.0, 0.0, 0.0, 0.0, 0.0, 1.676047278778739E9, 0.0, 2023-02-10 11:41:18.778
63.0, 9231.292811786272, 187500.0, 187500.0, 187500.0, -187500.02235174447, 187500.0, -187500.02235174447, -187500.02235174447, -0.028, 0.026000000000000002, 1.004, 192.0, 0.0, 0.0, 0.0, 0.0, 0.0, 0.0, 0.0, 0.0, 0.0, 1.676047278785282E9, 0.0, 2023-02-10 11:41:18.785
64.0, 9212.293828999262, 187500.0, 187500.0, 187500.0, -187500.02235174447, 187500.0, -187500.02235174447, -187500.02235174447, -0.028, 0.026000000000000002, 1.004, 192.0, 0.0, 0.0, 0.0, 0.0, 0.0, 0.0, 0.0, 0.0, 0.0, 1.676047278793303E9, 0.0, 2023-02-10 11:41:18.793
65.0, 9243.58627123669, 187500.0, 187500.0, 187500.0, -187500.02235174447, 187500.0, -187500.02235174447, -187500.02235174447, -0.028, 0.026000000000000002, 1.004, 192.0, 0.0, 0.0, 0.0, 0.0, 0.0, 0.0, 0.0, 0.0, 0.0, 1.676047278793326E9, 0.0, 2023-02-10 11:41:18.793
66.0, 9153.464037592894, 187500.0, 187500.0, 187500.0, -187500.02235174447, 187500.0, -187500.02235174447, -187500.02235174447, -0.028, 0.026000000000000002, 1.004, 192.0, 0.0, 0.0, 0.0, 0.0, 0.0, 0.0, 0.0, 0.0, 0.0, 1.676047278801316E9, 0.0, 2023-02-10 11:41:18.801
67.0, 9257.332594076704, 187500.0, 187500.0, 187500.0, -187500.02235174447, 187500.0, -187500.02235174447, -187500.02235174447, -0.024, 0.026000000000000002, 1.002, 192.0, 255.0, 64.0, 0.0, 208.0, 31.0, 80.0, 0.0, 0.0, 0.0, 1.676047278801341E9, 0.0, 2023-02-10 11:41:18.801
68.0, 9437.644116597667, 187500.0, 187500.0, 187500.0, -187500.02235174447, 187500.0, -187500.02235174447, -187500.02235174447, -0.024, 0.026000000000000002, 1.002, 192.0, 0.0, 0.0, 0.0, 0.0, 0.0, 0.0, 0.0, 0.0, 0.0, 1.676047278808613E9, 0.0, 2023-02-10 11:41:18.808
69.0, 9336.61423165968, 187500.0, 187500.0, 187500.0, -187500.02235174447, 187500.0, -187500.02235174447, -187500.02235174447, -0.024, 0.026000000000000002, 1.002, 192.0, 0.0, 0.0, 0.0, 0.0, 0.0, 0.0, 0.0, 0.0, 0.0, 1.67604727880866E9, 0.0, 2023-02-10 11:41:18.808
70.0, 9217.524137201803, 187500.0, 187500.0, 187500.0, -187500.02235174447, 187500.0, -187500.02235174447, -187500.02235174447, -0.024, 0.026000000000000002, 1.002, 192.0, 0.0, 0.0, 0.0, 0.0, 0.0, 0.0, 0.0, 0.0, 0.0, 1.676047278816235E9, 0.0, 2023-02-10 11:41:18.816
71.0, 9413.079549441285, 187500.0, 187500.0, 187500.0, -187500.02235174447, 187500.0, -187500.02235174447, -187500.02235174447, -0.024, 0.026000000000000002, 1.002, 192.0, 0.0, 0.0, 0.0, 0.0, 0.0, 0.0, 0.0, 0.0, 0.0, 1.676047278816375E9, 0.0, 2023-02-10 11:41:18.816
72.0, 9546.564167328379, 187500.0, 187500.0, 187500.0, -187500.02235174447, 187500.0, -187500.02235174447, -187500.02235174447, -0.024, 0.026000000000000002, 1.002, 192.0, 0.0, 0.0, 0.0, 0.0, 0.0, 0.0, 0.0, 0.0, 0.0, 1.676047278824071E9, 0.0, 2023-02-10 11:41:18.824
73.0, 8969.576235959083, 187500.0, 187500.0, 187500.0, -187500.02235174447, 187500.0, -187500.02235174447, -187500.02235174447, -0.024, 0.026000000000000002, 1.002, 192.0, 0.0, 0.0, 0.0, 0.0, 0.0, 0.0, 0.0, 0.0, 0.0, 1.676047278824139E9, 0.0, 2023-02-10 11:41:18.824
74.0, 8910.344113152518, 187500.0, 187500.0, 187500.0, -187500.02235174447, 187500.0, -187500.02235174447, -187500.02235174447, -0.024, 0.026000000000000002, 1.002, 192.0, 0.0, 0.0, 0.0, 0.0, 0.0, 0.0, 0.0, 0.0, 0.0, 1.676047278832034E9, 0.0, 2023-02-10 11:41:18.832
75.0, 9116.47190051936, 187500.0, 187500.0, 187500.0, -187500.02235174447, 187500.0, -187500.02235174447, -187500.02235174447, -0.024, 0.026000000000000002, 1.002, 192.0, 0.0, 0.0, 0.0, 0.0, 0.0, 0.0, 0.0, 0.0, 0.0, 1.676047278832057E9, 0.0, 2023-02-10 11:41:18.832
76.0, 9432.972602006508, 187500.0, 187500.0, 187500.0, -187500.02235174447, 187500.0, -187500.02235174447, -187500.02235174447, -0.024, 0.03, 1.0, 192.0, 255.0, 64.0, 0.0, 240.0, 31.0, 64.0, 0.0, 0.0, 0.0, 1.676047278838639E9, 0.0, 2023-02-10 11:41:18.838
77.0, 9322.644391375112, 187500.0, 187500.0, 187500.0, -187500.02235174447, 187500.0, -187500.02235174447, -187500.02235174447, -0.024, 0.03, 1.0, 192.0, 0.0, 0.0, 0.0, 0.0, 0.0, 0.0, 0.0, 0.0, 0.0, 1.676047278838661E9, 0.0, 2023-02-10 11:41:18.838
78.0, 9269.335480849204, 187500.0, 187500.0, 187500.0, -187500.02235174447, 187500.0, -187500.02235174447, -187500.02235174447, -0.024, 0.03, 1.0, 192.0, 0.0, 0.0, 0.0, 0.0, 0.0, 0.0, 0.0, 0.0, 0.0, 1.676047278845685E9, 0.0, 2023-02-10 11:41:18.845
79.0, 9228.409436751537, 187500.0, 187500.0, 187500.0, -187500.02235174447, 187500.0, -187500.02235174447, -187500.02235174447, -0.024, 0.03, 1.0, 192.0, 0.0, 0.0, 0.0, 0.0, 0.0, 0.0, 0.0, 0.0, 0.0, 1.676047278853679E9, 0.0, 2023-02-10 11:41:18.853
80.0, 9242.423980525014, 187500.0, 187500.0, 187500.0, -187500.02235174447, 187500.0, -187500.02235174447, -187500.02235174447, -0.024, 0.03, 1.0, 192.0, 0.0, 0.0, 0.0, 0.0, 0.0, 0.0, 0.0, 0.0, 0.0, 1.6760472788537E9, 0.0, 2023-02-10 11:41:18.853
81.0, 9333.596746158213, 187500.0, 187500.0, 187500.0, -187500.02235174447, 187500.0, -187500.02235174447, -187500.02235174447, -0.024, 0.03, 1.0, 192.0, 0.0, 0.0, 0.0, 0.0, 0.0, 0.0, 0.0, 0.0, 0.0, 1.676047278861566E9, 0.0, 2023-02-10 11:41:18.861
82.0, 9539.635126547233, 187500.0, 187500.0, 187500.0, -187500.02235174447, 187500.0, -187500.02235174447, -187500.02235174447, -0.024, 0.03, 1.0, 192.0, 0.0, 0.0, 0.0, 0.0, 0.0, 0.0, 0.0, 0.0, 0.0, 1.676047278861586E9, 0.0, 2023-02-10 11:41:18.861
83.0, 9371.8629326657, 187500.0, 187500.0, 187500.0, -187500.02235174447, 187500.0, -187500.02235174447, -187500.02235174447, -0.024, 0.03, 1.0, 192.0, 0.0, 0.0, 0.0, 0.0, 0.0, 0.0, 0.0, 0.0, 0.0, 1.676047278868138E9, 0.0, 2023-02-10 11:41:18.868
84.0, 9044.32046941763, 187500.0, 187500.0, 187500.0, -187500.02235174447, 187500.0, -187500.02235174447, -187500.02235174447, -0.024, 0.03, 1.0, 192.0, 0.0, 0.0, 0.0, 0.0, 0.0, 0.0, 0.0, 0.0, 0.0, 1.676047278868152E9, 0.0, 2023-02-10 11:41:18.868
85.0, 9022.080483684598, 187500.0, 187500.0, 187500.0, -187500.02235174447, 187500.0, -187500.02235174447, -187500.02235174447, -0.024, 0.03, 1.0, 192.0, 0.0, 0.0, 0.0, 0.0, 0.0, 0.0, 0.0, 0.0, 0.0, 1.676047278876168E9, 0.0, 2023-02-10 11:41:18.876
86.0, 9279.17024840954, 187500.0, 187500.0, 187500.0, -187500.02235174447, 187500.0, -187500.02235174447, -187500.02235174447, -0.026000000000000002, 0.034, 0.998, 192.0, 255.0, 48.0, 1.0, 16.0, 31.0, 48.0, 0.0, 0.0, 0.0, 1.676047278876278E9, 0.0, 2023-02-10 11:41:18.876
87.0, 9208.337570230671, 187500.0, 187500.0, 187500.0, -187500.02235174447, 187500.0, -187500.02235174447, -187500.02235174447, -0.026000000000000002, 0.034, 0.998, 192.0, 0.0, 0.0, 0.0, 0.0, 0.0, 0.0, 0.0, 0.0, 0.0, 1.676047278884214E9, 0.0, 2023-02-10 11:41:18.884
88.0, 9159.409601618005, 187500.0, 187500.0, 187500.0, -187500.02235174447, 187500.0, -187500.02235174447, -187500.02235174447, -0.026000000000000002, 0.034, 0.998, 192.0, 0.0, 0.0, 0.0, 0.0, 0.0, 0.0, 0.0, 0.0, 0.0, 1.676047278884233E9, 0.0, 2023-02-10 11:41:18.884
89.0, 9286.725138035434, 187500.0, 187500.0, 187500.0, -187500.02235174447, 187500.0, -187500.02235174447, -187500.02235174447, -0.026000000000000002, 0.034, 0.998, 192.0, 0.0, 0.0, 0.0, 0.0, 0.0, 0.0, 0.0, 0.0, 0.0, 1.676047278890916E9, 0.0, 2023-02-10 11:41:18.890
90.0, 9162.404735375016, 187500.0, 187500.0, 187500.0, -187500.02235174447, 187500.0, -187500.02235174447, -187500.02235174447, -0.026000000000000002, 0.034, 0.998, 192.0, 0.0, 0.0, 0.0, 0.0, 0.0, 0.0, 0.0, 0.0, 0.0, 1.676047278890949E9, 0.0, 2023-02-10 11:41:18.890
91.0, 9162.114162697097, 187500.0, 187500.0, 187500.0, -187500.02235174447, 187500.0, -187500.02235174447, -187500.02235174447, -0.026000000000000002, 0.034, 0.998, 192.0, 0.0, 0.0, 0.0, 0.0, 0.0, 0.0, 0.0, 0.0, 0.0, 1.676047278898946E9, 0.0, 2023-02-10 11:41:18.898
92.0, 9238.914756645532, 187500.0, 187500.0, 187500.0, -187500.02235174447, 187500.0, -187500.02235174447, -187500.02235174447, -0.026000000000000002, 0.034, 0.998, 192.0, 0.0, 0.0, 0.0, 0.0, 0.0, 0.0, 0.0, 0.0, 0.0, 1.676047278898972E9, 0.0, 2023-02-10 11:41:18.898
93.0, 9207.376445219094, 187500.0, 187500.0, 187500.0, -187500.02235174447, 187500.0, -187500.02235174447, -187500.02235174447, -0.026000000000000002, 0.034, 0.998, 192.0, 0.0, 0.0, 0.0, 0.0, 0.0, 0.0, 0.0, 0.0, 0.0, 1.676047278905937E9, 0.0, 2023-02-10 11:41:18.905
94.0, 9012.804509735646, 187500.0, 187500.0, 187500.0, -187500.02235174447, 187500.0, -187500.02235174447, -187500.02235174447, -0.026000000000000002, 0.034, 0.998, 192.0, 0.0, 0.0, 0.0, 0.0, 0.0, 0.0, 0.0, 0.0, 0.0, 1.676047278914002E9, 0.0, 2023-02-10 11:41:18.914
95.0, 8973.688956938859, 187500.0, 187500.0, 187500.0, -187500.02235174447, 187500.0, -187500.02235174447, -187500.02235174447, -0.026000000000000002, 0.034, 0.998, 192.0, 0.0, 0.0, 0.0, 0.0, 0.0, 0.0, 0.0, 0.0, 0.0, 1.67604727891403E9, 0.0, 2023-02-10 11:41:18.914
96.0, 9286.211047912962, 187500.0, 187500.0, 187500.0, -187500.02235174447, 187500.0, -187500.02235174447, -187500.02235174447, -0.024, 0.034, 0.998, 192.0, 255.0, 64.0, 1.0, 16.0, 31.0, 48.0, 0.0, 0.0, 0.0, 1.676047278920504E9, 0.0, 2023-02-10 11:41:18.920
97.0, 9320.342161696215, 187500.0, 187500.0, 187500.0, -187500.02235174447, 187500.0, -187500.02235174447, -187500.02235174447, -0.024, 0.034, 0.998, 192.0, 0.0, 0.0, 0.0, 0.0, 0.0, 0.0, 0.0, 0.0, 0.0, 1.676047278920529E9, 0.0, 2023-02-10 11:41:18.920
98.0, 9036.184434435896, 187500.0, 187500.0, 187500.0, -187500.02235174447, 187500.0, -187500.02235174447, -187500.02235174447, -0.024, 0.034, 0.998, 192.0, 0.0, 0.0, 0.0, 0.0, 0.0, 0.0, 0.0, 0.0, 0.0, 1.676047278928556E9, 0.0, 2023-02-10 11:41:18.928
99.0, 9146.534996811748, 187500.0, 187500.0, 187500.0, -187500.02235174447, 187500.0, -187500.02235174447, -187500.02235174447, -0.024, 0.034, 0.998, 192.0, 0.0, 0.0, 0.0, 0.0, 0.0, 0.0, 0.0, 0.0, 0.0, 1.676047278928581E9, 0.0, 2023-02-10 11:41:18.928
100.0, 9088.219295527852, 187500.0, 187500.0, 187500.0, -187500.02235174447, 187500.0, -187500.02235174447, -187500.02235174447, -0.024, 0.034, 0.998, 192.0, 0.0, 0.0, 0.0, 0.0, 0.0, 0.0, 0.0, 0.0, 0.0, 1.676047278936563E9, 0.0, 2023-02-10 11:41:18.936
101.0, 9110.168708582964, 187500.0, 187500.0, 187500.0, -187500.02235174447, 187500.0, -187500.02235174447, -187500.02235174447, -0.024, 0.034, 0.998, 192.0, 0.0, 0.0, 0.0, 0.0, 0.0, 0.0, 0.0, 0.0, 0.0, 1.676047278936584E9, 0.0, 2023-02-10 11:41:18.936
102.0, 9152.994650959332, 187500.0, 187500.0, 187500.0, -187500.02235174447, 187500.0, -187500.02235174447, -187500.02235174447, -0.024, 0.034, 0.998, 192.0, 0.0, 0.0, 0.0, 0.0, 0.0, 0.0, 0.0, 0.0, 0.0, 1.676047278944648E9, 0.0, 2023-02-10 11:41:18.944
103.0, 9261.534722034303, 187500.0, 187500.0, 187500.0, -187500.02235174447, 187500.0, -187500.02235174447, -187500.02235174447, -0.024, 0.034, 0.998, 192.0, 0.0, 0.0, 0.0, 0.0, 0.0, 0.0, 0.0, 0.0, 0.0, 1.676047278944679E9, 0.0, 2023-02-10 11:41:18.944
104.0, 9389.14083112965, 187500.0, 187500.0, 187500.0, -187500.02235174447, 187500.0, -187500.02235174447, -187500.02235174447, -0.024, 0.034, 0.998, 192.0, 0.0, 0.0, 0.0, 0.0, 0.0, 0.0, 0.0, 0.0, 0.0, 1.676047278951147E9, 0.0, 2023-02-10 11:41:18.951
105.0, 9174.228808191874, 187500.0, 187500.0, 187500.0, -187500.02235174447, 187500.0, -187500.02235174447, -187500.02235174447, -0.024, 0.034, 0.998, 192.0, 0.0, 0.0, 0.0, 0.0, 0.0, 0.0, 0.0, 0.0, 0.0, 1.676047278951168E9, 0.0, 2023-02-10 11:41:18.951
106.0, 9044.767504306736, 187500.0, 187500.0, 187500.0, -187500.02235174447, 187500.0, -187500.02235174447, -187500.02235174447, -0.024, 0.034, 1.0, 192.0, 255.0, 64.0, 1.0, 16.0, 31.0, 64.0, 0.0, 0.0, 0.0, 1.676047278959137E9, 0.0, 2023-02-10 11:41:18.959
107.0, 8970.49265748175, 187500.0, 187500.0, 187500.0, -187500.02235174447, 187500.0, -187500.02235174447, -187500.02235174447, -0.024, 0.034, 1.0, 192.0, 0.0, 0.0, 0.0, 0.0, 0.0, 0.0, 0.0, 0.0, 0.0, 1.676047278959159E9, 0.0, 2023-02-10 11:41:18.959
108.0, 9353.84742663472, 187500.0, 187500.0, 187500.0, -187500.02235174447, 187500.0, -187500.02235174447, -187500.02235174447, -0.024, 0.034, 1.0, 192.0, 0.0, 0.0, 0.0, 0.0, 0.0, 0.0, 0.0, 0.0, 0.0, 1.676047278966139E9, 0.0, 2023-02-10 11:41:18.966
109.0, 9630.137339846771, 187500.0, 187500.0, 187500.0, -187500.02235174447, 187500.0, -187500.02235174447, -187500.02235174447, -0.024, 0.034, 1.0, 192.0, 0.0, 0.0, 0.0, 0.0, 0.0, 0.0, 0.0, 0.0, 0.0, 1.676047278973231E9, 0.0, 2023-02-10 11:41:18.973
110.0, 9099.70809217788, 187500.0, 187500.0, 187500.0, -187500.02235174447, 187500.0, -187500.02235174447, -187500.02235174447, -0.024, 0.034, 1.0, 192.0, 0.0, 0.0, 0.0, 0.0, 0.0, 0.0, 0.0, 0.0, 0.0, 1.676047278973248E9, 0.0, 2023-02-10 11:41:18.973
111.0, 9256.617338254135, 187500.0, 187500.0, 187500.0, -187500.02235174447, 187500.0, -187500.02235174447, -187500.02235174447, -0.024, 0.034, 1.0, 192.0, 0.0, 0.0, 0.0, 0.0, 0.0, 0.0, 0.0, 0.0, 0.0, 1.676047278980697E9, 0.0, 2023-02-10 11:41:18.980
112.0, 9295.710539306467, 187500.0, 187500.0, 187500.0, -187500.02235174447, 187500.0, -187500.02235174447, -187500.02235174447, -0.024, 0.034, 1.0, 192.0, 0.0, 0.0, 0.0, 0.0, 0.0, 0.0, 0.0, 0.0, 0.0, 1.676047278980716E9, 0.0, 2023-02-10 11:41:18.980
113.0, 9035.893861757977, 187500.0, 187500.0, 187500.0, -187500.02235174447, 187500.0, -187500.02235174447, -187500.02235174447, -0.024, 0.034, 1.0, 192.0, 0.0, 0.0, 0.0, 0.0, 0.0, 0.0, 0.0, 0.0, 0.0, 1.676047278988834E9, 0.0, 2023-02-10 11:41:18.988
114.0, 8835.421065738328, 187500.0, 187500.0, 187500.0, -187500.02235174447, 187500.0, -187500.02235174447, -187500.02235174447, -0.024, 0.034, 1.0, 192.0, 0.0, 0.0, 0.0, 0.0, 0.0, 0.0, 0.0, 0.0, 0.0, 1.676047278988862E9, 0.0, 2023-02-10 11:41:18.988
115.0, 8826.770940634126, 187500.0, 187500.0, 187500.0, -187500.02235174447, 187500.0, -187500.02235174447, -187500.02235174447, -0.024, 0.034, 1.0, 192.0, 0.0, 0.0, 0.0, 0.0, 0.0, 0.0, 0.0, 0.0, 0.0, 1.676047278996928E9, 0.0, 2023-02-10 11:41:18.996
116.0, 9547.257071406493, 187500.0, 187500.0, 187500.0, -187500.02235174447, 187500.0, -187500.02235174447, -187500.02235174447, -0.026000000000000002, 0.032, 0.998, 192.0, 255.0, 48.0, 1.0, 0.0, 31.0, 48.0, 0.0, 0.0, 0.0, 1.676047278996953E9, 0.0, 2023-02-10 11:41:18.996
117.0, 9480.514762462946, 187500.0, 187500.0, 187500.0, -187500.02235174447, 187500.0, -187500.02235174447, -187500.02235174447, -0.026000000000000002, 0.032, 0.998, 192.0, 0.0, 0.0, 0.0, 0.0, 0.0, 0.0, 0.0, 0.0, 0.0, 1.676047279003524E9, 0.0, 2023-02-10 11:41:19.003
118.0, 9024.427416852406, 187500.0, 187500.0, 187500.0, -187500.02235174447, 187500.0, -187500.02235174447, -187500.02235174447, -0.026000000000000002, 0.032, 0.998, 192.0, 0.0, 0.0, 0.0, 0.0, 0.0, 0.0, 0.0, 0.0, 0.0, 1.676047279003548E9, 0.0, 2023-02-10 11:41:19.003
119.0, 8874.402508068384, 187500.0, 187500.0, 187500.0, -187500.02235174447, 187500.0, -187500.02235174447, -187500.02235174447, -0.026000000000000002, 0.032, 0.998, 192.0, 0.0, 0.0, 0.0, 0.0, 0.0, 0.0, 0.0, 0.0, 0.0, 1.676047279012048E9, 0.0, 2023-02-10 11:41:19.012
120.0, 9190.098546755142, 187500.0, 187500.0, 187500.0, -187500.02235174447, 187500.0, -187500.02235174447, -187500.02235174447, -0.026000000000000002, 0.032, 0.998, 192.0, 0.0, 0.0, 0.0, 0.0, 0.0, 0.0, 0.0, 0.0, 0.0, 1.676047279012071E9, 0.0, 2023-02-10 11:41:19.012
121.0, 9573.542722885933, 187500.0, 187500.0, 187500.0, -187500.02235174447, 187500.0, -187500.02235174447, -187500.02235174447, -0.026000000000000002, 0.032, 0.998, 192.0, 0.0, 0.0, 0.0, 0.0, 0.0, 0.0, 0.0, 0.0, 0.0, 1.676047279019608E9, 0.0, 2023-02-10 11:41:19.019
122.0, 9232.790378664778, 187500.0, 187500.0, 187500.0, -187500.02235174447, 187500.0, -187500.02235174447, -187500.02235174447, -0.026000000000000002, 0.032, 0.998, 192.0, 0.0, 0.0, 0.0, 0.0, 0.0, 0.0, 0.0, 0.0, 0.0, 1.676047279019663E9, 0.0, 2023-02-10 11:41:19.019
123.0, 9005.406082320938, 187500.0, 187500.0, 187500.0, -187500.02235174447, 187500.0, -187500.02235174447, -187500.02235174447, -0.026000000000000002, 0.032, 0.998, 192.0, 0.0, 0.0, 0.0, 0.0, 0.0, 0.0, 0.0, 0.0, 0.0, 1.676047279025791E9, 0.0, 2023-02-10 11:41:19.025
124.0, 9066.962786550856, 187500.0, 187500.0, 187500.0, -187500.02235174447, 187500.0, -187500.02235174447, -187500.02235174447, -0.026000000000000002, 0.032, 0.998, 192.0, 0.0, 0.0, 0.0, 0.0, 0.0, 0.0, 0.0, 0.0, 0.0, 1.676047279025817E9, 0.0, 2023-02-10 11:41:19.025
125.0, 9168.663223822501, 187500.0, 187500.0, 187500.0, -187500.02235174447, 187500.0, -187500.02235174447, -187500.02235174447, -0.02, 0.026000000000000002, 0.998, 192.0, 255.0, 96.0, 0.0, 208.0, 31.0, 48.0, 0.0, 0.0, 0.0, 1.676047279034618E9, 0.0, 2023-02-10 11:41:19.034
126.0, 9166.226883676873, 187500.0, 187500.0, 187500.0, -187500.02235174447, 187500.0, -187500.02235174447, -187500.02235174447, -0.02, 0.026000000000000002, 0.998, 192.0, 0.0, 0.0, 0.0, 0.0, 0.0, 0.0, 0.0, 0.0, 0.0, 1.67604727904109E9, 0.0, 2023-02-10 11:41:19.041
127.0, 9007.551849788648, 187500.0, 187500.0, 187500.0, -187500.02235174447, 187500.0, -187500.02235174447, -187500.02235174447, -0.02, 0.026000000000000002, 0.998, 192.0, 0.0, 0.0, 0.0, 0.0, 0.0, 0.0, 0.0, 0.0, 0.0, 1.676047279041124E9, 0.0, 2023-02-10 11:41:19.041
128.0, 9012.558640546637, 187500.0, 187500.0, 187500.0, -187500.02235174447, 187500.0, -187500.02235174447, -187500.02235174447, -0.02, 0.026000000000000002, 0.998, 192.0, 0.0, 0.0, 0.0, 0.0, 0.0, 0.0, 0.0, 0.0, 0.0, 1.676047279049141E9, 0.0, 2023-02-10 11:41:19.049
129.0, 9297.677492818535, 187500.0, 187500.0, 187500.0, -187500.02235174447, 187500.0, -187500.02235174447, -187500.02235174447, -0.02, 0.026000000000000002, 0.998, 192.0, 0.0, 0.0, 0.0, 0.0, 0.0, 0.0, 0.0, 0.0, 0.0, 1.676047279049163E9, 0.0, 2023-02-10 11:41:19.049
130.0, 9252.236396340895, 187500.0, 187500.0, 187500.0, -187500.02235174447, 187500.0, -187500.02235174447, -187500.02235174447, -0.02, 0.026000000000000002, 0.998, 192.0, 0.0, 0.0, 0.0, 0.0, 0.0, 0.0, 0.0, 0.0, 0.0, 1.676047279055646E9, 0.0, 2023-02-10 11:41:19.055
131.0, 9061.039574270199, 187500.0, 187500.0, 187500.0, -187500.02235174447, 187500.0, -187500.02235174447, -187500.02235174447, -0.02, 0.026000000000000002, 0.998, 192.0, 0.0, 0.0, 0.0, 0.0, 0.0, 0.0, 0.0, 0.0, 0.0, 1.676047279055664E9, 0.0, 2023-02-10 11:41:19.055
132.0, 9120.606973243592, 187500.0, 187500.0, 187500.0, -187500.02235174447, 187500.0, -187500.02235174447, -187500.02235174447, -0.02, 0.026000000000000002, 0.998, 192.0, 0.0, 0.0, 0.0, 0.0, 0.0, 0.0, 0.0, 0.0, 0.0, 1.676047279063704E9, 0.0, 2023-02-10 11:41:19.063
133.0, 9359.61417670419, 187500.0, 187500.0, 187500.0, -187500.02235174447, 187500.0, -187500.02235174447, -187500.02235174447, -0.02, 0.026000000000000002, 0.998, 192.0, 0.0, 0.0, 0.0, 0.0, 0.0, 0.0, 0.0, 0.0, 0.0, 1.676047279063723E9, 0.0, 2023-02-10 11:41:19.063
134.0, 9296.492850362403, 187500.0, 187500.0, 187500.0, -187500.02235174447, 187500.0, -187500.02235174447, -187500.02235174447, -0.02, 0.026000000000000002, 0.998, 192.0, 0.0, 0.0, 0.0, 0.0, 0.0, 0.0, 0.0, 0.0, 0.0, 1.676047279071688E9, 0.0, 2023-02-10 11:41:19.071
135.0, 8989.558695502126, 187500.0, 187500.0, 187500.0, -187500.02235174447, 187500.0, -187500.02235174447, -187500.02235174447, -0.026000000000000002, 0.032, 0.998, 192.0, 255.0, 48.0, 1.0, 0.0, 31.0, 48.0, 0.0, 0.0, 0.0, 1.676047279071706E9, 0.0, 2023-02-10 11:41:19.071
136.0, 8958.087439309054, 187500.0, 187500.0, 187500.0, -187500.02235174447, 187500.0, -187500.02235174447, -187500.02235174447, -0.026000000000000002, 0.032, 0.998, 192.0, 0.0, 0.0, 0.0, 0.0, 0.0, 0.0, 0.0, 0.0, 0.0, 1.676047279078808E9, 0.0, 2023-02-10 11:41:19.078
137.0, 9206.974113818898, 187500.0, 187500.0, 187500.0, -187500.02235174447, 187500.0, -187500.02235174447, -187500.02235174447, -0.026000000000000002, 0.032, 0.998, 192.0, 0.0, 0.0, 0.0, 0.0, 0.0, 0.0, 0.0, 0.0, 0.0, 1.676047279078827E9, 0.0, 2023-02-10 11:41:19.078
138.0, 9268.463762815449, 187500.0, 187500.0, 187500.0, -187500.02235174447, 187500.0, -187500.02235174447, -187500.02235174447, -0.026000000000000002, 0.032, 0.998, 192.0, 0.0, 0.0, 0.0, 0.0, 0.0, 0.0, 0.0, 0.0, 0.0, 1.676047279086308E9, 0.0, 2023-02-10 11:41:19.086
139.0, 8886.114822162965, 187500.0, 187500.0, 187500.0, -187500.02235174447, 187500.0, -187500.02235174447, -187500.02235174447, -0.026000000000000002, 0.032, 0.998, 192.0, 0.0, 0.0, 0.0, 0.0, 0.0, 0.0, 0.0, 0.0, 0.0, 1.676047279086337E9, 0.0, 2023-02-10 11:41:19.086
140.0, 8940.921299567379, 187500.0, 187500.0, 187500.0, -187500.02235174447, 187500.0, -187500.02235174447, -187500.02235174447, -0.026000000000000002, 0.032, 0.998, 192.0, 0.0, 0.0, 0.0, 0.0, 0.0, 0.0, 0.0, 0.0, 0.0, 1.676047279093354E9, 0.0, 2023-02-10 11:41:19.093
141.0, 9511.449576789091, 187500.0, 187500.0, 187500.0, -187500.02235174447, 187500.0, -187500.02235174447, -187500.02235174447, -0.026000000000000002, 0.032, 0.998, 192.0, 0.0, 0.0, 0.0, 0.0, 0.0, 0.0, 0.0, 0.0, 0.0, 1.676047279101448E9, 0.0, 2023-02-10 11:41:19.101
142.0, 9225.30254427225, 187500.0, 187500.0, 187500.0, -187500.02235174447, 187500.0, -187500.02235174447, -187500.02235174447, -0.026000000000000002, 0.032, 0.998, 192.0, 0.0, 0.0, 0.0, 0.0, 0.0, 0.0, 0.0, 0.0, 0.0, 1.676047279101477E9, 0.0, 2023-02-10 11:41:19.101
143.0, 8990.072785624598, 187500.0, 187500.0, 187500.0, -187500.02235174447, 187500.0, -187500.02235174447, -187500.02235174447, -0.026000000000000002, 0.032, 0.998, 192.0, 0.0, 0.0, 0.0, 0.0, 0.0, 0.0, 0.0, 0.0, 0.0, 1.676047279109136E9, 0.0, 2023-02-10 11:41:19.109
144.0, 8868.635757998914, 187500.0, 187500.0, 187500.0, -187500.02235174447, 187500.0, -187500.02235174447, -187500.02235174447, -0.026000000000000002, 0.032, 0.998, 192.0, 0.0, 0.0, 0.0, 0.0, 0.0, 0.0, 0.0, 0.0, 0.0, 1.676047279109181E9, 0.0, 2023-02-10 11:41:19.109
145.0, 9125.166729112474, 187500.0, 187500.0, 187500.0, -187500.02235174447, 187500.0, -187500.02235174447, -187500.02235174447, -0.028, 0.034, 0.996, 192.0, 255.0, 32.0, 1.0, 16.0, 31.0, 32.0, 0.0, 0.0, 0.0, 1.676047279116106E9, 0.0, 2023-02-10 11:41:19.116
146.0, 9397.656845767122, 187500.0, 187500.0, 187500.0, -187500.02235174447, 187500.0, -187500.02235174447, -187500.02235174447, -0.028, 0.034, 0.996, 192.0, 0.0, 0.0, 0.0, 0.0, 0.0, 0.0, 0.0, 0.0, 0.0, 1.67604727911613E9, 0.0, 2023-02-10 11:41:19.116
147.0, 9325.527766409847, 187500.0, 187500.0, 187500.0, -187500.02235174447, 187500.0, -187500.02235174447, -187500.02235174447, -0.028, 0.034, 0.996, 192.0, 0.0, 0.0, 0.0, 0.0, 0.0, 0.0, 0.0, 0.0, 0.0, 1.67604727912406E9, 0.0, 2023-02-10 11:41:19.124
148.0, 9230.01876235232, 187500.0, 187500.0, 187500.0, -187500.02235174447, 187500.0, -187500.02235174447, -187500.02235174447, -0.028, 0.034, 0.996, 192.0, 0.0, 0.0, 0.0, 0.0, 0.0, 0.0, 0.0, 0.0, 0.0, 1.676047279124087E9, 0.0, 2023-02-10 11:41:19.124
149.0, 9111.375702783549, 187500.0, 187500.0, 187500.0, -187500.02235174447, 187500.0, -187500.02235174447, -187500.02235174447, -0.028, 0.034, 0.996, 192.0, 0.0, 0.0, 0.0, 0.0, 0.0, 0.0, 0.0, 0.0, 0.0, 1.676047279132108E9, 0.0, 2023-02-10 11:41:19.132
150.0, 8721.360113782897, 187500.0, 187500.0, 187500.0, -187500.02235174447, 187500.0, -187500.02235174447, -187500.02235174447, -0.028, 0.034, 0.996, 192.0, 0.0, 0.0, 0.0, 0.0, 0.0, 0.0, 0.0, 0.0, 0.0, 1.676047279132132E9, 0.0, 2023-02-10 11:41:19.132
151.0, 8829.922536602324, 187500.0, 187500.0, 187500.0, -187500.02235174447, 187500.0, -187500.02235174447, -187500.02235174447, -0.028, 0.034, 0.996, 192.0, 0.0, 0.0, 0.0, 0.0, 0.0, 0.0, 0.0, 0.0, 0.0, 1.676047279138736E9, 0.0, 2023-02-10 11:41:19.138
152.0, 9012.469233568816, 187500.0, 187500.0, 187500.0, -187500.02235174447, 187500.0, -187500.02235174447, -187500.02235174447, -0.028, 0.034, 0.996, 192.0, 0.0, 0.0, 0.0, 0.0, 0.0, 0.0, 0.0, 0.0, 0.0, 1.676047279138758E9, 0.0, 2023-02-10 11:41:19.138
153.0, 9414.711226786521, 187500.0, 187500.0, 187500.0, -187500.02235174447, 187500.0, -187500.02235174447, -187500.02235174447, -0.028, 0.034, 0.996, 192.0, 0.0, 0.0, 0.0, 0.0, 0.0, 0.0, 0.0, 0.0, 0.0, 1.676047279146603E9, 0.0, 2023-02-10 11:41:19.146
154.0, 9428.725770559999, 187500.0, 187500.0, 187500.0, -187500.02235174447, 187500.0, -187500.02235174447, -187500.02235174447, -0.028, 0.034, 0.996, 192.0, 0.0, 0.0, 0.0, 0.0, 0.0, 0.0, 0.0, 0.0, 0.0, 1.676047279146626E9, 0.0, 2023-02-10 11:41:19.146
155.0, 9118.70707496489, 187500.0, 187500.0, 187500.0, -187500.02235174447, 187500.0, -187500.02235174447, -187500.02235174447, -0.026000000000000002, 0.034, 1.0, 192.0, 255.0, 48.0, 1.0, 16.0, 31.0, 64.0, 0.0, 0.0, 0.0, 1.676047279153638E9, 0.0, 2023-02-10 11:41:19.153
156.0, 9017.632486537992, 187500.0, 187500.0, 187500.0, -187500.02235174447, 187500.0, -187500.02235174447, -187500.02235174447, -0.026000000000000002, 0.034, 1.0, 192.0, 0.0, 0.0, 0.0, 0.0, 0.0, 0.0, 0.0, 0.0, 0.0, 1.676047279161666E9, 0.0, 2023-02-10 11:41:19.161
157.0, 9254.583329508701, 187500.0, 187500.0, 187500.0, -187500.02235174447, 187500.0, -187500.02235174447, -187500.02235174447, -0.026000000000000002, 0.034, 1.0, 192.0, 0.0, 0.0, 0.0, 0.0, 0.0, 0.0, 0.0, 0.0, 0.0, 1.676047279161685E9, 0.0, 2023-02-10 11:41:19.161
158.0, 9067.096897017587, 187500.0, 187500.0, 187500.0, -187500.02235174447, 187500.0, -187500.02235174447, -187500.02235174447, -0.026000000000000002, 0.034, 1.0, 192.0, 0.0, 0.0, 0.0, 0.0, 0.0, 0.0, 0.0, 0.0, 0.0, 1.676047279168205E9, 0.0, 2023-02-10 11:41:19.168
159.0, 8921.542337124627, 187500.0, 187500.0, 187500.0, -187500.02235174447, 187500.0, -187500.02235174447, -187500.02235174447, -0.026000000000000002, 0.034, 1.0, 192.0, 0.0, 0.0, 0.0, 0.0, 0.0, 0.0, 0.0, 0.0, 0.0, 1.676047279168229E9, 0.0, 2023-02-10 11:41:19.168
160.0, 8935.802750087112, 187500.0, 187500.0, 187500.0, -187500.02235174447, 187500.0, -187500.02235174447, -187500.02235174447, -0.026000000000000002, 0.034, 1.0, 192.0, 0.0, 0.0, 0.0, 0.0, 0.0, 0.0, 0.0, 0.0, 0.0, 1.676047279176166E9, 0.0, 2023-02-10 11:41:19.176
161.0, 9005.674303254402, 187500.0, 187500.0, 187500.0, -187500.02235174447, 187500.0, -187500.02235174447, -187500.02235174447, -0.026000000000000002, 0.034, 1.0, 192.0, 0.0, 0.0, 0.0, 0.0, 0.0, 0.0, 0.0, 0.0, 0.0, 1.676047279176184E9, 0.0, 2023-02-10 11:41:19.176
162.0, 9062.51478940425, 187500.0, 187500.0, 187500.0, -187500.02235174447, 187500.0, -187500.02235174447, -187500.02235174447, -0.026000000000000002, 0.034, 1.0, 192.0, 0.0, 0.0, 0.0, 0.0, 0.0, 0.0, 0.0, 0.0, 0.0, 1.67604727918422E9, 0.0, 2023-02-10 11:41:19.184
163.0, 9169.467886622893, 187500.0, 187500.0, 187500.0, -187500.02235174447, 187500.0, -187500.02235174447, -187500.02235174447, -0.026000000000000002, 0.034, 1.0, 192.0, 0.0, 0.0, 0.0, 0.0, 0.0, 0.0, 0.0, 0.0, 0.0, 1.676047279184235E9, 0.0, 2023-02-10 11:41:19.184
164.0, 9169.19966568943, 187500.0, 187500.0, 187500.0, -187500.02235174447, 187500.0, -187500.02235174447, -187500.02235174447, -0.026000000000000002, 0.034, 1.0, 192.0, 0.0, 0.0, 0.0, 0.0, 0.0, 0.0, 0.0, 0.0, 0.0, 1.676047279191353E9, 0.0, 2023-02-10 11:41:19.191
165.0, 8928.38197092795, 187500.0, 187500.0, 187500.0, -187500.02235174447, 187500.0, -187500.02235174447, -187500.02235174447, -0.024, 0.032, 0.998, 192.0, 255.0, 64.0, 1.0, 0.0, 31.0, 48.0, 0.0, 0.0, 0.0, 1.676047279191371E9, 0.0, 2023-02-10 11:41:19.191
166.0, 9314.262487204373, 187500.0, 187500.0, 187500.0, -187500.02235174447, 187500.0, -187500.02235174447, -187500.02235174447, -0.024, 0.032, 0.998, 192.0, 0.0, 0.0, 0.0, 0.0, 0.0, 0.0, 0.0, 0.0, 0.0, 1.676047279198924E9, 0.0, 2023-02-10 11:41:19.198
167.0, 9224.609640194136, 187500.0, 187500.0, 187500.0, -187500.02235174447, 187500.0, -187500.02235174447, -187500.02235174447, -0.024, 0.032, 0.998, 192.0, 0.0, 0.0, 0.0, 0.0, 0.0, 0.0, 0.0, 0.0, 0.0, 1.676047279198947E9, 0.0, 2023-02-10 11:41:19.198
168.0, 8748.49513155164, 187500.0, 187500.0, 187500.0, -187500.02235174447, 187500.0, -187500.02235174447, -187500.02235174447, -0.024, 0.032, 0.998, 192.0, 0.0, 0.0, 0.0, 0.0, 0.0, 0.0, 0.0, 0.0, 0.0, 1.676047279206899E9, 0.0, 2023-02-10 11:41:19.206
169.0, 8869.239255099208, 187500.0, 187500.0, 187500.0, -187500.02235174447, 187500.0, -187500.02235174447, -187500.02235174447, -0.024, 0.032, 0.998, 192.0, 0.0, 0.0, 0.0, 0.0, 0.0, 0.0, 0.0, 0.0, 0.0, 1.676047279206927E9, 0.0, 2023-02-10 11:41:19.206
170.0, 9195.06063402422, 187500.0, 187500.0, 187500.0, -187500.02235174447, 187500.0, -187500.02235174447, -187500.02235174447, -0.024, 0.032, 0.998, 192.0, 0.0, 0.0, 0.0, 0.0, 0.0, 0.0, 0.0, 0.0, 0.0, 1.676047279214019E9, 0.0, 2023-02-10 11:41:19.214
171.0, 9231.181053063996, 187500.0, 187500.0, 187500.0, -187500.02235174447, 187500.0, -187500.02235174447, -187500.02235174447, -0.024, 0.032, 0.998, 192.0, 0.0, 0.0, 0.0, 0.0, 0.0, 0.0, 0.0, 0.0, 0.0, 1.676047279220684E9, 0.0, 2023-02-10 11:41:19.220
172.0, 8942.396514701428, 187500.0, 187500.0, 187500.0, -187500.02235174447, 187500.0, -187500.02235174447, -187500.02235174447, -0.024, 0.032, 0.998, 192.0, 0.0, 0.0, 0.0, 0.0, 0.0, 0.0, 0.0, 0.0, 0.0, 1.676047279220731E9, 0.0, 2023-02-10 11:41:19.220
173.0, 8952.588910173048, 187500.0, 187500.0, 187500.0, -187500.02235174447, 187500.0, -187500.02235174447, -187500.02235174447, -0.024, 0.032, 0.998, 192.0, 0.0, 0.0, 0.0, 0.0, 0.0, 0.0, 0.0, 0.0, 0.0, 1.676047279228673E9, 0.0, 2023-02-10 11:41:19.228
174.0, 9037.614946081036, 187500.0, 187500.0, 187500.0, -187500.02235174447, 187500.0, -187500.02235174447, -187500.02235174447, -0.022, 0.028, 0.994, 192.0, 255.0, 80.0, 0.0, 224.0, 31.0, 16.0, 0.0, 0.0, 0.0, 1.676047279228719E9, 0.0, 2023-02-10 11:41:19.228
175.0, 9414.264191897415, 187500.0, 187500.0, 187500.0, -187500.02235174447, 187500.0, -187500.02235174447, -187500.02235174447, -0.022, 0.028, 0.994, 192.0, 0.0, 0.0, 0.0, 0.0, 0.0, 0.0, 0.0, 0.0, 0.0, 1.67604727923652E9, 0.0, 2023-02-10 11:41:19.236
176.0, 9204.068387039708, 187500.0, 187500.0, 187500.0, -187500.02235174447, 187500.0, -187500.02235174447, -187500.02235174447, -0.022, 0.028, 0.994, 192.0, 0.0, 0.0, 0.0, 0.0, 0.0, 0.0, 0.0, 0.0, 0.0, 1.676047279236539E9, 0.0, 2023-02-10 11:41:19.236
177.0, 8916.624953344459, 187500.0, 187500.0, 187500.0, -187500.02235174447, 187500.0, -187500.02235174447, -187500.02235174447, -0.022, 0.028, 0.994, 192.0, 0.0, 0.0, 0.0, 0.0, 0.0, 0.0, 0.0, 0.0, 0.0, 1.676047279243669E9, 0.0, 2023-02-10 11:41:19.243
178.0, 8919.262459190186, 187500.0, 187500.0, 187500.0, -187500.02235174447, 187500.0, -187500.02235174447, -187500.02235174447, -0.022, 0.028, 0.994, 192.0, 0.0, 0.0, 0.0, 0.0, 0.0, 0.0, 0.0, 0.0, 0.0, 1.676047279243695E9, 0.0, 2023-02-10 11:41:19.243
179.0, 8821.831205109502, 187500.0, 187500.0, 187500.0, -187500.02235174447, 187500.0, -187500.02235174447, -187500.02235174447, -0.022, 0.028, 0.994, 192.0, 0.0, 0.0, 0.0, 0.0, 0.0, 0.0, 0.0, 0.0, 0.0, 1.676047279251188E9, 0.0, 2023-02-10 11:41:19.251
180.0, 9244.457989270448, 187500.0, 187500.0, 187500.0, -187500.02235174447, 187500.0, -187500.02235174447, -187500.02235174447, -0.022, 0.028, 0.994, 192.0, 0.0, 0.0, 0.0, 0.0, 0.0, 0.0, 0.0, 0.0, 0.0, 1.676047279251211E9, 0.0, 2023-02-10 11:41:19.251
181.0, 9297.610437585168, 187500.0, 187500.0, 187500.0, -187500.02235174447, 187500.0, -187500.02235174447, -187500.02235174447, -0.022, 0.028, 0.994, 192.0, 0.0, 0.0, 0.0, 0.0, 0.0, 0.0, 0.0, 0.0, 0.0, 1.676047279259137E9, 0.0, 2023-02-10 11:41:19.259
182.0, 9168.171485444485, 187500.0, 187500.0, 187500.0, -187500.02235174447, 187500.0, -187500.02235174447, -187500.02235174447, -0.022, 0.028, 0.994, 192.0, 0.0, 0.0, 0.0, 0.0, 0.0, 0.0, 0.0, 0.0, 0.0, 1.676047279259155E9, 0.0, 2023-02-10 11:41:19.259
183.0, 9087.906371105477, 187500.0, 187500.0, 187500.0, -187500.02235174447, 187500.0, -187500.02235174447, -187500.02235174447, -0.022, 0.028, 0.994, 192.0, 0.0, 0.0, 0.0, 0.0, 0.0, 0.0, 0.0, 0.0, 0.0, 1.676047279267154E9, 0.0, 2023-02-10 11:41:19.267
184.0, 9067.946263306889, 187500.0, 187500.0, 187500.0, -187500.02235174447, 187500.0, -187500.02235174447, -187500.02235174447, -0.02, 0.032, 1.004, 192.0, 255.0, 96.0, 1.0, 0.0, 31.0, 96.0, 0.0, 0.0, 0.0, 1.676047279267183E9, 0.0, 2023-02-10 11:41:19.267
185.0, 8935.311011709096, 187500.0, 187500.0, 187500.0, -187500.02235174447, 187500.0, -187500.02235174447, -187500.02235174447, -0.02, 0.032, 1.004, 192.0, 0.0, 0.0, 0.0, 0.0, 0.0, 0.0, 0.0, 0.0, 0.0, 1.676047279273309E9, 0.0, 2023-02-10 11:41:19.273
186.0, 8867.808743454068, 187500.0, 187500.0, 187500.0, -187500.02235174447, 187500.0, -187500.02235174447, -187500.02235174447, -0.02, 0.032, 1.004, 192.0, 0.0, 0.0, 0.0, 0.0, 0.0, 0.0, 0.0, 0.0, 0.0, 1.676047279273339E9, 0.0, 2023-02-10 11:41:19.273
187.0, 9088.487516461315, 187500.0, 187500.0, 187500.0, -187500.02235174447, 187500.0, -187500.02235174447, -187500.02235174447, -0.02, 0.032, 1.004, 192.0, 0.0, 0.0, 0.0, 0.0, 0.0, 0.0, 0.0, 0.0, 0.0, 1.676047279280825E9, 0.0, 2023-02-10 11:41:19.280
188.0, 9234.131483332096, 187500.0, 187500.0, 187500.0, -187500.02235174447, 187500.0, -187500.02235174447, -187500.02235174447, -0.02, 0.032, 1.004, 192.0, 0.0, 0.0, 0.0, 0.0, 0.0, 0.0, 0.0, 0.0, 0.0, 1.676047279288869E9, 0.0, 2023-02-10 11:41:19.288
189.0, 9056.591577123592, 187500.0, 187500.0, 187500.0, -187500.02235174447, 187500.0, -187500.02235174447, -187500.02235174447, -0.02, 0.032, 1.004, 192.0, 0.0, 0.0, 0.0, 0.0, 0.0, 0.0, 0.0, 0.0, 0.0, 1.676047279288893E9, 0.0, 2023-02-10 11:41:19.288
190.0, 9243.183939836495, 187500.0, 187500.0, 187500.0, -187500.02235174447, 187500.0, -187500.02235174447, -187500.02235174447, -0.02, 0.032, 1.004, 192.0, 0.0, 0.0, 0.0, 0.0, 0.0, 0.0, 0.0, 0.0, 0.0, 1.676047279296871E9, 0.0, 2023-02-10 11:41:19.296
191.0, 9016.649009781959, 187500.0, 187500.0, 187500.0, -187500.02235174447, 187500.0, -187500.02235174447, -187500.02235174447, -0.02, 0.032, 1.004, 192.0, 0.0, 0.0, 0.0, 0.0, 0.0, 0.0, 0.0, 0.0, 0.0, 1.676047279296895E9, 0.0, 2023-02-10 11:41:19.296
192.0, 8884.840772729012, 187500.0, 187500.0, 187500.0, -187500.02235174447, 187500.0, -187500.02235174447, -187500.02235174447, -0.02, 0.032, 1.004, 192.0, 0.0, 0.0, 0.0, 0.0, 0.0, 0.0, 0.0, 0.0, 0.0, 1.676047279303469E9, 0.0, 2023-02-10 11:41:19.303
193.0, 8863.718374218748, 187500.0, 187500.0, 187500.0, -187500.02235174447, 187500.0, -187500.02235174447, -187500.02235174447, -0.02, 0.032, 1.004, 192.0, 0.0, 0.0, 0.0, 0.0, 0.0, 0.0, 0.0, 0.0, 0.0, 1.67604727930349E9, 0.0, 2023-02-10 11:41:19.303
194.0, 8822.099426042965, 187500.0, 187500.0, 187500.0, -187500.02235174447, 187500.0, -187500.02235174447, -187500.02235174447, -0.022, 0.036000000000000004, 1.002, 192.0, 255.0, 80.0, 1.0, 32.0, 31.0, 80.0, 0.0, 0.0, 0.0, 1.676047279311583E9, 0.0, 2023-02-10 11:41:19.311
195.0, 8912.109900964488, 187500.0, 187500.0, 187500.0, -187500.02235174447, 187500.0, -187500.02235174447, -187500.02235174447, -0.022, 0.036000000000000004, 1.002, 192.0, 0.0, 0.0, 0.0, 0.0, 0.0, 0.0, 0.0, 0.0, 0.0, 1.676047279311618E9, 0.0, 2023-02-10 11:41:19.311
196.0, 9342.380981729148, 187500.0, 187500.0, 187500.0, -187500.02235174447, 187500.0, -187500.02235174447, -187500.02235174447, -0.022, 0.036000000000000004, 1.002, 192.0, 0.0, 0.0, 0.0, 0.0, 0.0, 0.0, 0.0, 0.0, 0.0, 1.67604727931945E9, 0.0, 2023-02-10 11:41:19.319
197.0, 9226.10720707264, 187500.0, 187500.0, 187500.0, -187500.02235174447, 187500.0, -187500.02235174447, -187500.02235174447, -0.022, 0.036000000000000004, 1.002, 192.0, 0.0, 0.0, 0.0, 0.0, 0.0, 0.0, 0.0, 0.0, 0.0, 1.676047279319471E9, 0.0, 2023-02-10 11:41:19.319
198.0, 9210.997427820854, 187500.0, 187500.0, 187500.0, -187500.02235174447, 187500.0, -187500.02235174447, -187500.02235174447, -0.022, 0.036000000000000004, 1.002, 192.0, 0.0, 0.0, 0.0, 0.0, 0.0, 0.0, 0.0, 0.0, 0.0, 1.676047279326033E9, 0.0, 2023-02-10 11:41:19.326
199.0, 9083.972464081344, 187500.0, 187500.0, 187500.0, -187500.02235174447, 187500.0, -187500.02235174447, -187500.02235174447, -0.022, 0.036000000000000004, 1.002, 192.0, 0.0, 0.0, 0.0, 0.0, 0.0, 0.0, 0.0, 0.0, 0.0, 1.676047279326058E9, 0.0, 2023-02-10 11:41:19.326
200.0, 9038.710181559347, 187500.0, 187500.0, 187500.0, -187500.02235174447, 187500.0, -187500.02235174447, -187500.02235174447, -0.022, 0.036000000000000004, 1.002, 192.0, 0.0, 0.0, 0.0, 0.0, 0.0, 0.0, 0.0, 0.0, 0.0, 1.676047279334081E9, 0.0, 2023-02-10 11:41:19.334
201.0, 8977.846381407546, 187500.0, 187500.0, 187500.0, -187500.02235174447, 187500.0, -187500.02235174447, -187500.02235174447, -0.022, 0.036000000000000004, 1.002, 192.0, 0.0, 0.0, 0.0, 0.0, 0.0, 0.0, 0.0, 0.0, 0.0, 1.676047279334102E9, 0.0, 2023-02-10 11:41:19.334
202.0, 8938.57436639957, 187500.0, 187500.0, 187500.0, -187500.02235174447, 187500.0, -187500.02235174447, -187500.02235174447, -0.022, 0.036000000000000004, 1.002, 192.0, 0.0, 0.0, 0.0, 0.0, 0.0, 0.0, 0.0, 0.0, 0.0, 1.676047279341076E9, 0.0, 2023-02-10 11:41:19.341
203.0, 9033.50222510126, 187500.0, 187500.0, 187500.0, -187500.02235174447, 187500.0, -187500.02235174447, -187500.02235174447, -0.022, 0.036000000000000004, 1.002, 192.0, 0.0, 0.0, 0.0, 0.0, 0.0, 0.0, 0.0, 0.0, 0.0, 1.676047279349073E9, 0.0, 2023-02-10 11:41:19.349
204.0, 9103.597295713103, 187500.0, 187500.0, 187500.0, -187500.02235174447, 187500.0, -187500.02235174447, -187500.02235174447, -0.024, 0.034, 0.998, 192.0, 255.0, 64.0, 1.0, 16.0, 31.0, 48.0, 0.0, 0.0, 0.0, 1.676047279349101E9, 0.0, 2023-02-10 11:41:19.349
205.0, 9261.400611567571, 187500.0, 187500.0, 187500.0, -187500.02235174447, 187500.0, -187500.02235174447, -187500.02235174447, -0.024, 0.034, 0.998, 192.0, 0.0, 0.0, 0.0, 0.0, 0.0, 0.0, 0.0, 0.0, 0.0, 1.676047279355751E9, 0.0, 2023-02-10 11:41:19.355
206.0, 9004.579067776092, 187500.0, 187500.0, 187500.0, -187500.02235174447, 187500.0, -187500.02235174447, -187500.02235174447, -0.024, 0.034, 0.998, 192.0, 0.0, 0.0, 0.0, 0.0, 0.0, 0.0, 0.0, 0.0, 0.0, 1.676047279355774E9, 0.0, 2023-02-10 11:41:19.355
207.0, 8999.952256673843, 187500.0, 187500.0, 187500.0, -187500.02235174447, 187500.0, -187500.02235174447, -187500.02235174447, -0.024, 0.034, 0.998, 192.0, 0.0, 0.0, 0.0, 0.0, 0.0, 0.0, 0.0, 0.0, 0.0, 1.676047279363795E9, 0.0, 2023-02-10 11:41:19.363
208.0, 8915.820290544068, 187500.0, 187500.0, 187500.0, -187500.02235174447, 187500.0, -187500.02235174447, -187500.02235174447, -0.024, 0.034, 0.998, 192.0, 0.0, 0.0, 0.0, 0.0, 0.0, 0.0, 0.0, 0.0, 0.0, 1.676047279363817E9, 0.0, 2023-02-10 11:41:19.363
209.0, 9161.95770048591, 187500.0, 187500.0, 187500.0, -187500.02235174447, 187500.0, -187500.02235174447, -187500.02235174447, -0.024, 0.034, 0.998, 192.0, 0.0, 0.0, 0.0, 0.0, 0.0, 0.0, 0.0, 0.0, 0.0, 1.676047279371736E9, 0.0, 2023-02-10 11:41:19.371
210.0, 9048.32143167513, 187500.0, 187500.0, 187500.0, -187500.02235174447, 187500.0, -187500.02235174447, -187500.02235174447, -0.024, 0.034, 0.998, 192.0, 0.0, 0.0, 0.0, 0.0, 0.0, 0.0, 0.0, 0.0, 0.0, 1.676047279371757E9, 0.0, 2023-02-10 11:41:19.371
211.0, 8927.018514516178, 187500.0, 187500.0, 187500.0, -187500.02235174447, 187500.0, -187500.02235174447, -187500.02235174447, -0.024, 0.034, 0.998, 192.0, 0.0, 0.0, 0.0, 0.0, 0.0, 0.0, 0.0, 0.0, 0.0, 1.676047279378953E9, 0.0, 2023-02-10 11:41:19.378
212.0, 8963.451857978327, 187500.0, 187500.0, 187500.0, -187500.02235174447, 187500.0, -187500.02235174447, -187500.02235174447, -0.024, 0.034, 0.998, 192.0, 0.0, 0.0, 0.0, 0.0, 0.0, 0.0, 0.0, 0.0, 0.0, 1.67604727937898E9, 0.0, 2023-02-10 11:41:19.378
213.0, 9363.793952917333, 187500.0, 187500.0, 187500.0, -187500.02235174447, 187500.0, -187500.02235174447, -187500.02235174447, -0.024, 0.034, 0.998, 192.0, 0.0, 0.0, 0.0, 0.0, 0.0, 0.0, 0.0, 0.0, 0.0, 1.67604727938634E9, 0.0, 2023-02-10 11:41:19.386
214.0, 9350.248795777416, 187500.0, 187500.0, 187500.0, -187500.02235174447, 187500.0, -187500.02235174447, -187500.02235174447, -0.032, 0.034, 0.996, 192.0, 255.0, 0.0, 1.0, 16.0, 31.0, 32.0, 0.0, 0.0, 0.0, 1.676047279386361E9, 0.0, 2023-02-10 11:41:19.386
215.0, 8586.422632506208, 187500.0, 187500.0, 187500.0, -187500.02235174447, 187500.0, -187500.02235174447, -187500.02235174447, -0.032, 0.034, 0.996, 192.0, 0.0, 0.0, 0.0, 0.0, 0.0, 0.0, 0.0, 0.0, 0.0, 1.67604727939431E9, 0.0, 2023-02-10 11:41:19.394
216.0, 8846.105199587966, 187500.0, 187500.0, 187500.0, -187500.02235174447, 187500.0, -187500.02235174447, -187500.02235174447, -0.032, 0.034, 0.996, 192.0, 0.0, 0.0, 0.0, 0.0, 0.0, 0.0, 0.0, 0.0, 0.0, 1.676047279394331E9, 0.0, 2023-02-10 11:41:19.394
217.0, 9104.245496302306, 187500.0, 187500.0, 187500.0, -187500.02235174447, 187500.0, -187500.02235174447, -187500.02235174447, -0.032, 0.034, 0.996, 192.0, 0.0, 0.0, 0.0, 0.0, 0.0, 0.0, 0.0, 0.0, 0.0, 1.676047279401325E9, 0.0, 2023-02-10 11:41:19.401
218.0, 9164.8634272651, 187500.0, 187500.0, 187500.0, -187500.02235174447, 187500.0, -187500.02235174447, -187500.02235174447, -0.032, 0.034, 0.996, 192.0, 0.0, 0.0, 0.0, 0.0, 0.0, 0.0, 0.0, 0.0, 0.0, 1.676047279408444E9, 0.0, 2023-02-10 11:41:19.408
219.0, 8966.648157435437, 187500.0, 187500.0, 187500.0, -187500.02235174447, 187500.0, -187500.02235174447, -187500.02235174447, -0.032, 0.034, 0.996, 192.0, 0.0, 0.0, 0.0, 0.0, 0.0, 0.0, 0.0, 0.0, 0.0, 1.676047279408462E9, 0.0, 2023-02-10 11:41:19.408
220.0, 9060.972519036832, 187500.0, 187500.0, 187500.0, -187500.02235174447, 187500.0, -187500.02235174447, -187500.02235174447, -0.032, 0.034, 0.996, 192.0, 0.0, 0.0, 0.0, 0.0, 0.0, 0.0, 0.0, 0.0, 0.0, 1.676047279415831E9, 0.0, 2023-02-10 11:41:19.415
221.0, 9136.655525762502, 187500.0, 187500.0, 187500.0, -187500.02235174447, 187500.0, -187500.02235174447, -187500.02235174447, -0.032, 0.034, 0.996, 192.0, 0.0, 0.0, 0.0, 0.0, 0.0, 0.0, 0.0, 0.0, 0.0, 1.676047279415854E9, 0.0, 2023-02-10 11:41:19.415
222.0, 9129.547671025715, 187500.0, 187500.0, 187500.0, -187500.02235174447, 187500.0, -187500.02235174447, -187500.02235174447, -0.032, 0.034, 0.996, 192.0, 0.0, 0.0, 0.0, 0.0, 0.0, 0.0, 0.0, 0.0, 0.0, 1.676047279424071E9, 0.0, 2023-02-10 11:41:19.424
223.0, 9136.230842617852, 187500.0, 187500.0, 187500.0, -187500.02235174447, 187500.0, -187500.02235174447, -187500.02235174447, -0.032, 0.034, 0.996, 192.0, 0.0, 0.0, 0.0, 0.0, 0.0, 0.0, 0.0, 0.0, 0.0, 1.676047279424109E9, 0.0, 2023-02-10 11:41:19.424
224.0, 8952.00776481721, 187500.0, 187500.0, 187500.0, -187500.02235174447, 187500.0, -187500.02235174447, -187500.02235174447, -0.03, 0.036000000000000004, 0.998, 192.0, 255.0, 16.0, 1.0, 32.0, 31.0, 48.0, 0.0, 0.0, 0.0, 1.676047279432056E9, 0.0, 2023-02-10 11:41:19.432
225.0, 8919.553031868105, 187500.0, 187500.0, 187500.0, -187500.02235174447, 187500.0, -187500.02235174447, -187500.02235174447, -0.03, 0.036000000000000004, 0.998, 192.0, 0.0, 0.0, 0.0, 0.0, 0.0, 0.0, 0.0, 0.0, 0.0, 1.676047279432082E9, 0.0, 2023-02-10 11:41:19.432
226.0, 9068.8403330851, 187500.0, 187500.0, 187500.0, -187500.02235174447, 187500.0, -187500.02235174447, -187500.02235174447, -0.03, 0.036000000000000004, 0.998, 192.0, 0.0, 0.0, 0.0, 0.0, 0.0, 0.0, 0.0, 0.0, 0.0, 1.676047279438594E9, 0.0, 2023-02-10 11:41:19.438
227.0, 9072.751888364779, 187500.0, 187500.0, 187500.0, -187500.02235174447, 187500.0, -187500.02235174447, -187500.02235174447, -0.03, 0.036000000000000004, 0.998, 192.0, 0.0, 0.0, 0.0, 0.0, 0.0, 0.0, 0.0, 0.0, 0.0, 1.676047279438614E9, 0.0, 2023-02-10 11:41:19.438
228.0, 8929.924241295366, 187500.0, 187500.0, 187500.0, -187500.02235174447, 187500.0, -187500.02235174447, -187500.02235174447, -0.03, 0.036000000000000004, 0.998, 192.0, 0.0, 0.0, 0.0, 0.0, 0.0, 0.0, 0.0, 0.0, 0.0, 1.676047279447013E9, 0.0, 2023-02-10 11:41:19.447
229.0, 9214.81957612271, 187500.0, 187500.0, 187500.0, -187500.02235174447, 187500.0, -187500.02235174447, -187500.02235174447, -0.03, 0.036000000000000004, 0.998, 192.0, 0.0, 0.0, 0.0, 0.0, 0.0, 0.0, 0.0, 0.0, 0.0, 1.676047279447035E9, 0.0, 2023-02-10 11:41:19.447
230.0, 9347.99126958743, 187500.0, 187500.0, 187500.0, -187500.02235174447, 187500.0, -187500.02235174447, -187500.02235174447, -0.03, 0.036000000000000004, 0.998, 192.0, 0.0, 0.0, 0.0, 0.0, 0.0, 0.0, 0.0, 0.0, 0.0, 1.676047279454759E9, 0.0, 2023-02-10 11:41:19.454
231.0, 8902.789223526624, 187500.0, 187500.0, 187500.0, -187500.02235174447, 187500.0, -187500.02235174447, -187500.02235174447, -0.03, 0.036000000000000004, 0.998, 192.0, 0.0, 0.0, 0.0, 0.0, 0.0, 0.0, 0.0, 0.0, 0.0, 1.676047279454781E9, 0.0, 2023-02-10 11:41:19.454
232.0, 8642.391400622297, 187500.0, 187500.0, 187500.0, -187500.02235174447, 187500.0, -187500.02235174447, -187500.02235174447, -0.03, 0.036000000000000004, 0.998, 192.0, 0.0, 0.0, 0.0, 0.0, 0.0, 0.0, 0.0, 0.0, 0.0, 1.676047279461854E9, 0.0, 2023-02-10 11:41:19.461
233.0, 8851.536673490606, 187500.0, 187500.0, 187500.0, -187500.02235174447, 187500.0, -187500.02235174447, -187500.02235174447, -0.026000000000000002, 0.028, 1.002, 192.0, 255.0, 48.0, 0.0, 224.0, 31.0, 80.0, 0.0, 0.0, 0.0, 1.676047279468207E9, 0.0, 2023-02-10 11:41:19.468
234.0, 8874.380156323929, 187500.0, 187500.0, 187500.0, -187500.02235174447, 187500.0, -187500.02235174447, -187500.02235174447, -0.026000000000000002, 0.028, 1.002, 192.0, 0.0, 0.0, 0.0, 0.0, 0.0, 0.0, 0.0, 0.0, 0.0, 1.67604727946823E9, 0.0, 2023-02-10 11:41:19.468
235.0, 8759.223968890186, 187500.0, 187500.0, 187500.0, -187500.02235174447, 187500.0, -187500.02235174447, -187500.02235174447, -0.026000000000000002, 0.028, 1.002, 192.0, 0.0, 0.0, 0.0, 0.0, 0.0, 0.0, 0.0, 0.0, 0.0, 1.676047279476361E9, 0.0, 2023-02-10 11:41:19.476
236.0, 9229.236451296383, 187500.0, 187500.0, 187500.0, -187500.02235174447, 187500.0, -187500.02235174447, -187500.02235174447, -0.026000000000000002, 0.028, 1.002, 192.0, 0.0, 0.0, 0.0, 0.0, 0.0, 0.0, 0.0, 0.0, 0.0, 1.676047279476406E9, 0.0, 2023-02-10 11:41:19.476
237.0, 9446.942442291074, 187500.0, 187500.0, 187500.0, -187500.02235174447, 187500.0, -187500.02235174447, -187500.02235174447, -0.026000000000000002, 0.028, 1.002, 192.0, 0.0, 0.0, 0.0, 0.0, 0.0, 0.0, 0.0, 0.0, 0.0, 1.676047279484183E9, 0.0, 2023-02-10 11:41:19.484
238.0, 9054.915196289445, 187500.0, 187500.0, 187500.0, -187500.02235174447, 187500.0, -187500.02235174447, -187500.02235174447, -0.026000000000000002, 0.028, 1.002, 192.0, 0.0, 0.0, 0.0, 0.0, 0.0, 0.0, 0.0, 0.0, 0.0, 1.676047279484204E9, 0.0, 2023-02-10 11:41:19.484
239.0, 8795.769071074614, 187500.0, 187500.0, 187500.0, -187500.02235174447, 187500.0, -187500.02235174447, -187500.02235174447, -0.026000000000000002, 0.028, 1.002, 192.0, 0.0, 0.0, 0.0, 0.0, 0.0, 0.0, 0.0, 0.0, 0.0, 1.676047279490766E9, 0.0, 2023-02-10 11:41:19.490
240.0, 8837.03039133911, 187500.0, 187500.0, 187500.0, -187500.02235174447, 187500.0, -187500.02235174447, -187500.02235174447, -0.026000000000000002, 0.028, 1.002, 192.0, 0.0, 0.0, 0.0, 0.0, 0.0, 0.0, 0.0, 0.0, 0.0, 1.676047279490787E9, 0.0, 2023-02-10 11:41:19.490
241.0, 9153.32992712616, 187500.0, 187500.0, 187500.0, -187500.02235174447, 187500.0, -187500.02235174447, -187500.02235174447, -0.026000000000000002, 0.028, 1.002, 192.0, 0.0, 0.0, 0.0, 0.0, 0.0, 0.0, 0.0, 0.0, 0.0, 1.676047279498901E9, 0.0, 2023-02-10 11:41:19.498
242.0, 9066.739269106301, 187500.0, 187500.0, 187500.0, -187500.02235174447, 187500.0, -187500.02235174447, -187500.02235174447, -0.026000000000000002, 0.028, 1.002, 192.0, 0.0, 0.0, 0.0, 0.0, 0.0, 0.0, 0.0, 0.0, 0.0, 1.676047279498922E9, 0.0, 2023-02-10 11:41:19.498
243.0, 8986.54121000066, 187500.0, 187500.0, 187500.0, -187500.02235174447, 187500.0, -187500.02235174447, -187500.02235174447, -0.028, 0.028, 0.996, 192.0, 255.0, 32.0, 0.0, 224.0, 31.0, 32.0, 0.0, 0.0, 0.0, 1.676047279506798E9, 0.0, 2023-02-10 11:41:19.506
244.0, 8957.48394220876, 187500.0, 187500.0, 187500.0, -187500.02235174447, 187500.0, -187500.02235174447, -187500.02235174447, -0.028, 0.028, 0.996, 192.0, 0.0, 0.0, 0.0, 0.0, 0.0, 0.0, 0.0, 0.0, 0.0, 1.676047279506819E9, 0.0, 2023-02-10 11:41:19.506
245.0, 8766.68945153826, 187500.0, 187500.0, 187500.0, -187500.02235174447, 187500.0, -187500.02235174447, -187500.02235174447, -0.028, 0.028, 0.996, 192.0, 0.0, 0.0, 0.0, 0.0, 0.0, 0.0, 0.0, 0.0, 0.0, 1.676047279513943E9, 0.0, 2023-02-10 11:41:19.513
246.0, 8953.907663095912, 187500.0, 187500.0, 187500.0, -187500.02235174447, 187500.0, -187500.02235174447, -187500.02235174447, -0.028, 0.028, 0.996, 192.0, 0.0, 0.0, 0.0, 0.0, 0.0, 0.0, 0.0, 0.0, 0.0, 1.676047279513961E9, 0.0, 2023-02-10 11:41:19.513
247.0, 8994.54313451566, 187500.0, 187500.0, 187500.0, -187500.02235174447, 187500.0, -187500.02235174447, -187500.02235174447, -0.028, 0.028, 0.996, 192.0, 0.0, 0.0, 0.0, 0.0, 0.0, 0.0, 0.0, 0.0, 0.0, 1.676047279520606E9, 0.0, 2023-02-10 11:41:19.520
248.0, 8885.287807618119, 187500.0, 187500.0, 187500.0, -187500.02235174447, 187500.0, -187500.02235174447, -187500.02235174447, -0.028, 0.028, 0.996, 192.0, 0.0, 0.0, 0.0, 0.0, 0.0, 0.0, 0.0, 0.0, 0.0, 1.676047279520628E9, 0.0, 2023-02-10 11:41:19.520
249.0, 9538.249318391005, 187500.0, 187500.0, 187500.0, -187500.02235174447, 187500.0, -187500.02235174447, -187500.02235174447, -0.028, 0.028, 0.996, 192.0, 0.0, 0.0, 0.0, 0.0, 0.0, 0.0, 0.0, 0.0, 0.0, 1.676047279528666E9, 0.0, 2023-02-10 11:41:19.528
250.0, 9265.423925569527, 187500.0, 187500.0, 187500.0, -187500.02235174447, 187500.0, -187500.02235174447, -187500.02235174447, -0.028, 0.028, 0.996, 192.0, 0.0, 0.0, 0.0, 0.0, 0.0, 0.0, 0.0, 0.0, 0.0, 1.676047279536855E9, 0.0, 2023-02-10 11:41:19.536
251.0, 8696.683787904238, 187500.0, 187500.0, 187500.0, -187500.02235174447, 187500.0, -187500.02235174447, -187500.02235174447, -0.028, 0.028, 0.996, 192.0, 0.0, 0.0, 0.0, 0.0, 0.0, 0.0, 0.0, 0.0, 0.0, 1.676047279536919E9, 0.0, 2023-02-10 11:41:19.536
252.0, 8673.795601582004, 187500.0, 187500.0, 187500.0, -187500.02235174447, 187500.0, -187500.02235174447, -187500.02235174447, -0.028, 0.028, 0.996, 192.0, 0.0, 0.0, 0.0, 0.0, 0.0, 0.0, 0.0, 0.0, 0.0, 1.676047279543778E9, 0.0, 2023-02-10 11:41:19.543
253.0, 8612.328304329909, 187500.0, 187500.0, 187500.0, -187500.02235174447, 187500.0, -187500.02235174447, -187500.02235174447, -0.024, 0.028, 0.998, 192.0, 255.0, 64.0, 0.0, 224.0, 31.0, 48.0, 0.0, 0.0, 0.0, 1.6760472795438E9, 0.0, 2023-02-10 11:41:19.543
254.0, 9019.912364472433, 187500.0, 187500.0, 187500.0, -187500.02235174447, 187500.0, -187500.02235174447, -187500.02235174447, -0.024, 0.028, 0.998, 192.0, 0.0, 0.0, 0.0, 0.0, 0.0, 0.0, 0.0, 0.0, 0.0, 1.67604727955116E9, 0.0, 2023-02-10 11:41:19.551
255.0, 9412.230183151984, 187500.0, 187500.0, 187500.0, -187500.02235174447, 187500.0, -187500.02235174447, -187500.02235174447, -0.024, 0.028, 0.998, 192.0, 0.0, 0.0, 0.0, 0.0, 0.0, 0.0, 0.0, 0.0, 0.0, 1.676047279551186E9, 0.0, 2023-02-10 11:41:19.551
0.0, 8809.671856125815, 187500.0, 187500.0, 187500.0, -187500.02235174447, 187500.0, -187500.02235174447, -187500.02235174447, -0.024, 0.028, 0.998, 192.0, 0.0, 0.0, 0.0, 0.0, 0.0, 0.0, 0.0, 0.0, 0.0, 1.676047279559316E9, 0.0, 2023-02-10 11:41:19.559
1.0, 8938.797883844123, 187500.0, 187500.0, 187500.0, -187500.02235174447, 187500.0, -187500.02235174447, -187500.02235174447, -0.024, 0.028, 0.998, 192.0, 0.0, 0.0, 0.0, 0.0, 0.0, 0.0, 0.0, 0.0, 0.0, 1.676047279559344E9, 0.0, 2023-02-10 11:41:19.559
2.0, 9085.715900148858, 187500.0, 187500.0, 187500.0, -187500.02235174447, 187500.0, -187500.02235174447, -187500.02235174447, -0.024, 0.028, 0.998, 192.0, 0.0, 0.0, 0.0, 0.0, 0.0, 0.0, 0.0, 0.0, 0.0, 1.676047279567164E9, 0.0, 2023-02-10 11:41:19.567
3.0, 8829.587260435494, 187500.0, 187500.0, 187500.0, -187500.02235174447, 187500.0, -187500.02235174447, -187500.02235174447, -0.024, 0.028, 0.998, 192.0, 0.0, 0.0, 0.0, 0.0, 0.0, 0.0, 0.0, 0.0, 0.0, 1.676047279567196E9, 0.0, 2023-02-10 11:41:19.567
4.0, 8900.174069425353, 187500.0, 187500.0, 187500.0, -187500.02235174447, 187500.0, -187500.02235174447, -187500.02235174447, -0.024, 0.028, 0.998, 192.0, 0.0, 0.0, 0.0, 0.0, 0.0, 0.0, 0.0, 0.0, 0.0, 1.676047279573724E9, 0.0, 2023-02-10 11:41:19.573
5.0, 8891.434537343328, 187500.0, 187500.0, 187500.0, -187500.02235174447, 187500.0, -187500.02235174447, -187500.02235174447, -0.024, 0.028, 0.998, 192.0, 0.0, 0.0, 0.0, 0.0, 0.0, 0.0, 0.0, 0.0, 0.0, 1.67604727957375E9, 0.0, 2023-02-10 11:41:19.573
6.0, 9006.50131779925, 187500.0, 187500.0, 187500.0, -187500.02235174447, 187500.0, -187500.02235174447, -187500.02235174447, -0.024, 0.028, 0.998, 192.0, 0.0, 0.0, 0.0, 0.0, 0.0, 0.0, 0.0, 0.0, 0.0, 1.676047279582026E9, 0.0, 2023-02-10 11:41:19.582
7.0, 9109.364045782571, 187500.0, 187500.0, 187500.0, -187500.02235174447, 187500.0, -187500.02235174447, -187500.02235174447, -0.024, 0.028, 0.998, 192.0, 255.0, 64.0, 0.0, 224.0, 31.0, 48.0, 0.0, 0.0, 0.0, 1.676047279582049E9, 0.0, 2023-02-10 11:41:19.582
8.0, 8870.558008022072, 187500.0, 187500.0, 187500.0, -187500.02235174447, 187500.0, -187500.02235174447, -187500.02235174447, -0.024, 0.028, 0.998, 192.0, 0.0, 0.0, 0.0, 0.0, 0.0, 0.0, 0.0, 0.0, 0.0, 1.676047279588679E9, 0.0, 2023-02-10 11:41:19.588
9.0, 8733.25124183312, 187500.0, 187500.0, 187500.0, -187500.02235174447, 187500.0, -187500.02235174447, -187500.02235174447, -0.024, 0.028, 0.998, 192.0, 0.0, 0.0, 0.0, 0.0, 0.0, 0.0, 0.0, 0.0, 0.0, 1.676047279596856E9, 0.0, 2023-02-10 11:41:19.596
10.0, 8859.583301494516, 187500.0, 187500.0, 187500.0, -187500.02235174447, 187500.0, -187500.02235174447, -187500.02235174447, -0.024, 0.028, 0.998, 192.0, 0.0, 0.0, 0.0, 0.0, 0.0, 0.0, 0.0, 0.0, 0.0, 1.676047279596877E9, 0.0, 2023-02-10 11:41:19.596
11.0, 9079.256246001274, 187500.0, 187500.0, 187500.0, -187500.02235174447, 187500.0, -187500.02235174447, -187500.02235174447, -0.024, 0.028, 0.998, 192.0, 0.0, 0.0, 0.0, 0.0, 0.0, 0.0, 0.0, 0.0, 0.0, 1.676047279603418E9, 0.0, 2023-02-10 11:41:19.603
12.0, 8964.323576012084, 187500.0, 187500.0, 187500.0, -187500.02235174447, 187500.0, -187500.02235174447, -187500.02235174447, -0.024, 0.028, 0.998, 192.0, 0.0, 0.0, 0.0, 0.0, 0.0, 0.0, 0.0, 0.0, 0.0, 1.676047279603535E9, 0.0, 2023-02-10 11:41:19.603
13.0, 8916.423787644362, 187500.0, 187500.0, 187500.0, -187500.02235174447, 187500.0, -187500.02235174447, -187500.02235174447, -0.024, 0.028, 0.998, 192.0, 0.0, 0.0, 0.0, 0.0, 0.0, 0.0, 0.0, 0.0, 0.0, 1.676047279611457E9, 0.0, 2023-02-10 11:41:19.611
14.0, 9134.845034461623, 187500.0, 187500.0, 187500.0, -187500.02235174447, 187500.0, -187500.02235174447, -187500.02235174447, -0.024, 0.028, 0.998, 192.0, 0.0, 0.0, 0.0, 0.0, 0.0, 0.0, 0.0, 0.0, 0.0, 1.676047279611477E9, 0.0, 2023-02-10 11:41:19.611
15.0, 8995.92894267189, 187500.0, 187500.0, 187500.0, -187500.02235174447, 187500.0, -187500.02235174447, -187500.02235174447, -0.024, 0.028, 0.998, 192.0, 0.0, 0.0, 0.0, 0.0, 0.0, 0.0, 0.0, 0.0, 0.0, 1.676047279619536E9, 0.0, 2023-02-10 11:41:19.619
16.0, 8831.017772080633, 187500.0, 187500.0, 187500.0, -187500.02235174447, 187500.0, -187500.02235174447, -187500.02235174447, -0.024, 0.028, 0.998, 192.0, 0.0, 0.0, 0.0, 0.0, 0.0, 0.0, 0.0, 0.0, 0.0, 1.676047279619576E9, 0.0, 2023-02-10 11:41:19.619
17.0, 8677.640101628316, 187500.0, 187500.0, 187500.0, -187500.02235174447, 187500.0, -187500.02235174447, -187500.02235174447, -0.034, 0.03, 1.002, 192.0, 254.0, 240.0, 0.0, 240.0, 31.0, 80.0, 0.0, 0.0, 0.0, 1.676047279626196E9, 0.0, 2023-02-10 11:41:19.626
18.0, 8683.987997053624, 187500.0, 187500.0, 187500.0, -187500.02235174447, 187500.0, -187500.02235174447, -187500.02235174447, -0.034, 0.03, 1.002, 192.0, 0.0, 0.0, 0.0, 0.0, 0.0, 0.0, 0.0, 0.0, 0.0, 1.676047279626223E9, 0.0, 2023-02-10 11:41:19.626
19.0, 8863.047821885088, 187500.0, 187500.0, 187500.0, -187500.02235174447, 187500.0, -187500.02235174447, -187500.02235174447, -0.034, 0.03, 1.002, 192.0, 0.0, 0.0, 0.0, 0.0, 0.0, 0.0, 0.0, 0.0, 0.0, 1.67604727963432E9, 0.0, 2023-02-10 11:41:19.634
20.0, 9195.86529682461, 187500.0, 187500.0, 187500.0, -187500.02235174447, 187500.0, -187500.02235174447, -187500.02235174447, -0.034, 0.03, 1.002, 192.0, 0.0, 0.0, 0.0, 0.0, 0.0, 0.0, 0.0, 0.0, 0.0, 1.676047279634354E9, 0.0, 2023-02-10 11:41:19.634
21.0, 9345.487874208437, 187500.0, 187500.0, 187500.0, -187500.02235174447, 187500.0, -187500.02235174447, -187500.02235174447, -0.034, 0.03, 1.002, 192.0, 0.0, 0.0, 0.0, 0.0, 0.0, 0.0, 0.0, 0.0, 0.0, 1.676047279642242E9, 0.0, 2023-02-10 11:41:19.642
22.0, 8853.70479270277, 187500.0, 187500.0, 187500.0, -187500.02235174447, 187500.0, -187500.02235174447, -187500.02235174447, -0.034, 0.03, 1.002, 192.0, 0.0, 0.0, 0.0, 0.0, 0.0, 0.0, 0.0, 0.0, 0.0, 1.676047279642294E9, 0.0, 2023-02-10 11:41:19.642
23.0, 8850.910824645856, 187500.0, 187500.0, 187500.0, -187500.02235174447, 187500.0, -187500.02235174447, -187500.02235174447, -0.034, 0.03, 1.002, 192.0, 0.0, 0.0, 0.0, 0.0, 0.0, 0.0, 0.0, 0.0, 0.0, 1.67604727964918E9, 0.0, 2023-02-10 11:41:19.649
24.0, 8834.661106426849, 187500.0, 187500.0, 187500.0, -187500.02235174447, 187500.0, -187500.02235174447, -187500.02235174447, -0.034, 0.03, 1.002, 192.0, 0.0, 0.0, 0.0, 0.0, 0.0, 0.0, 0.0, 0.0, 0.0, 1.676047279655603E9, 0.0, 2023-02-10 11:41:19.655
25.0, 8844.719391431736, 187500.0, 187500.0, 187500.0, -187500.02235174447, 187500.0, -187500.02235174447, -187500.02235174447, -0.034, 0.03, 1.002, 192.0, 0.0, 0.0, 0.0, 0.0, 0.0, 0.0, 0.0, 0.0, 0.0, 1.676047279655624E9, 0.0, 2023-02-10 11:41:19.655
26.0, 8833.431760481806, 187500.0, 187500.0, 187500.0, -187500.02235174447, 187500.0, -187500.02235174447, -187500.02235174447, -0.03, 0.028, 1.0, 192.0, 255.0, 16.0, 0.0, 224.0, 31.0, 64.0, 0.0, 0.0, 0.0, 1.676047279663819E9, 0.0, 2023-02-10 11:41:19.663
27.0, 9033.077541956609, 187500.0, 187500.0, 187500.0, -187500.02235174447, 187500.0, -187500.02235174447, -187500.02235174447, -0.03, 0.028, 1.0, 192.0, 0.0, 0.0, 0.0, 0.0, 0.0, 0.0, 0.0, 0.0, 0.0, 1.67604727966393E9, 0.0, 2023-02-10 11:41:19.663
28.0, 9032.205823922852, 187500.0, 187500.0, 187500.0, -187500.02235174447, 187500.0, -187500.02235174447, -187500.02235174447, -0.03, 0.028, 1.0, 192.0, 0.0, 0.0, 0.0, 0.0, 0.0, 0.0, 0.0, 0.0, 0.0, 1.676047279671725E9, 0.0, 2023-02-10 11:41:19.671
29.0, 8842.864196641945, 187500.0, 187500.0, 187500.0, -187500.02235174447, 187500.0, -187500.02235174447, -187500.02235174447, -0.03, 0.028, 1.0, 192.0, 0.0, 0.0, 0.0, 0.0, 0.0, 0.0, 0.0, 0.0, 0.0, 1.676047279671746E9, 0.0, 2023-02-10 11:41:19.671
30.0, 8788.460050637728, 187500.0, 187500.0, 187500.0, -187500.02235174447, 187500.0, -187500.02235174447, -187500.02235174447, -0.03, 0.028, 1.0, 192.0, 0.0, 0.0, 0.0, 0.0, 0.0, 0.0, 0.0, 0.0, 0.0, 1.676047279678964E9, 0.0, 2023-02-10 11:41:19.678
31.0, 8952.901834595423, 187500.0, 187500.0, 187500.0, -187500.02235174447, 187500.0, -187500.02235174447, -187500.02235174447, -0.03, 0.028, 1.0, 192.0, 0.0, 0.0, 0.0, 0.0, 0.0, 0.0, 0.0, 0.0, 0.0, 1.676047279678997E9, 0.0, 2023-02-10 11:41:19.678
32.0, 8913.830985287546, 187500.0, 187500.0, 187500.0, -187500.02235174447, 187500.0, -187500.02235174447, -187500.02235174447, -0.03, 0.028, 1.0, 192.0, 0.0, 0.0, 0.0, 0.0, 0.0, 0.0, 0.0, 0.0, 0.0, 1.676047279686229E9, 0.0, 2023-02-10 11:41:19.686
33.0, 8739.353268069419, 187500.0, 187500.0, 187500.0, -187500.02235174447, 187500.0, -187500.02235174447, -187500.02235174447, -0.03, 0.028, 1.0, 192.0, 0.0, 0.0, 0.0, 0.0, 0.0, 0.0, 0.0, 0.0, 0.0, 1.676047279686255E9, 0.0, 2023-02-10 11:41:19.686
34.0, 8734.569994755984, 187500.0, 187500.0, 187500.0, -187500.02235174447, 187500.0, -187500.02235174447, -187500.02235174447, -0.03, 0.028, 1.0, 192.0, 0.0, 0.0, 0.0, 0.0, 0.0, 0.0, 0.0, 0.0, 0.0, 1.676047279694369E9, 0.0, 2023-02-10 11:41:19.694
35.0, 8706.026817086557, 187500.0, 187500.0, 187500.0, -187500.02235174447, 187500.0, -187500.02235174447, -187500.02235174447, -0.03, 0.028, 1.0, 192.0, 0.0, 0.0, 0.0, 0.0, 0.0, 0.0, 0.0, 0.0, 0.0, 1.67604727969439E9, 0.0, 2023-02-10 11:41:19.694
36.0, 8934.126369252965, 187500.0, 187500.0, 187500.0, -187500.02235174447, 187500.0, -187500.02235174447, -187500.02235174447, -0.032, 0.028, 0.996, 192.0, 255.0, 0.0, 0.0, 224.0, 31.0, 32.0, 0.0, 0.0, 0.0, 1.676047279702261E9, 0.0, 2023-02-10 11:41:19.702
37.0, 8919.57538361256, 187500.0, 187500.0, 187500.0, -187500.02235174447, 187500.0, -187500.02235174447, -187500.02235174447, -0.032, 0.028, 0.996, 192.0, 0.0, 0.0, 0.0, 0.0, 0.0, 0.0, 0.0, 0.0, 0.0, 1.676047279702288E9, 0.0, 2023-02-10 11:41:19.702
38.0, 8853.928310147323, 187500.0, 187500.0, 187500.0, -187500.02235174447, 187500.0, -187500.02235174447, -187500.02235174447, -0.032, 0.028, 0.996, 192.0, 0.0, 0.0, 0.0, 0.0, 0.0, 0.0, 0.0, 0.0, 0.0, 1.676047279708363E9, 0.0, 2023-02-10 11:41:19.708
39.0, 8787.811850048525, 187500.0, 187500.0, 187500.0, -187500.02235174447, 187500.0, -187500.02235174447, -187500.02235174447, -0.032, 0.028, 0.996, 192.0, 0.0, 0.0, 0.0, 0.0, 0.0, 0.0, 0.0, 0.0, 0.0, 1.67604727971596E9, 0.0, 2023-02-10 11:41:19.715
40.0, 8814.723350372715, 187500.0, 187500.0, 187500.0, -187500.02235174447, 187500.0, -187500.02235174447, -187500.02235174447, -0.032, 0.028, 0.996, 192.0, 0.0, 0.0, 0.0, 0.0, 0.0, 0.0, 0.0, 0.0, 0.0, 1.676047279715981E9, 0.0, 2023-02-10 11:41:19.715
41.0, 8877.911731947868, 187500.0, 187500.0, 187500.0, -187500.02235174447, 187500.0, -187500.02235174447, -187500.02235174447, -0.032, 0.028, 0.996, 192.0, 0.0, 0.0, 0.0, 0.0, 0.0, 0.0, 0.0, 0.0, 0.0, 1.676047279724703E9, 0.0, 2023-02-10 11:41:19.724
42.0, 8858.152789849377, 187500.0, 187500.0, 187500.0, -187500.02235174447, 187500.0, -187500.02235174447, -187500.02235174447, -0.032, 0.028, 0.996, 192.0, 0.0, 0.0, 0.0, 0.0, 0.0, 0.0, 0.0, 0.0, 0.0, 1.676047279725545E9, 0.0, 2023-02-10 11:41:19.725
43.0, 9005.942524187867, 187500.0, 187500.0, 187500.0, -187500.02235174447, 187500.0, -187500.02235174447, -187500.02235174447, -0.032, 0.028, 0.996, 192.0, 0.0, 0.0, 0.0, 0.0, 0.0, 0.0, 0.0, 0.0, 0.0, 1.676047279732059E9, 0.0, 2023-02-10 11:41:19.732
44.0, 8931.019476773678, 187500.0, 187500.0, 187500.0, -187500.02235174447, 187500.0, -187500.02235174447, -187500.02235174447, -0.032, 0.028, 0.996, 192.0, 0.0, 0.0, 0.0, 0.0, 0.0, 0.0, 0.0, 0.0, 0.0, 1.676047279732084E9, 0.0, 2023-02-10 11:41:19.732
45.0, 8773.730251041681, 187500.0, 187500.0, 187500.0, -187500.02235174447, 187500.0, -187500.02235174447, -187500.02235174447, -0.032, 0.028, 0.996, 192.0, 0.0, 0.0, 0.0, 0.0, 0.0, 0.0, 0.0, 0.0, 0.0, 1.676047279738562E9, 0.0, 2023-02-10 11:41:19.738
46.0, 8598.291408811976, 187500.0, 187500.0, 187500.0, -187500.02235174447, 187500.0, -187500.02235174447, -187500.02235174447, -0.036000000000000004, 0.028, 1.0, 192.0, 254.0, 224.0, 0.0, 224.0, 31.0, 64.0, 0.0, 0.0, 0.0, 1.676047279738582E9, 0.0, 2023-02-10 11:41:19.738
47.0, 8866.154714364377, 187500.0, 187500.0, 187500.0, -187500.02235174447, 187500.0, -187500.02235174447, -187500.02235174447, -0.036000000000000004, 0.028, 1.0, 192.0, 0.0, 0.0, 0.0, 0.0, 0.0, 0.0, 0.0, 0.0, 0.0, 1.676047279746641E9, 0.0, 2023-02-10 11:41:19.746
48.0, 9099.596333455604, 187500.0, 187500.0, 187500.0, -187500.02235174447, 187500.0, -187500.02235174447, -187500.02235174447, -0.036000000000000004, 0.028, 1.0, 192.0, 0.0, 0.0, 0.0, 0.0, 0.0, 0.0, 0.0, 0.0, 0.0, 1.676047279746664E9, 0.0, 2023-02-10 11:41:19.746
49.0, 9034.195129179374, 187500.0, 187500.0, 187500.0, -187500.02235174447, 187500.0, -187500.02235174447, -187500.02235174447, -0.036000000000000004, 0.028, 1.0, 192.0, 0.0, 0.0, 0.0, 0.0, 0.0, 0.0, 0.0, 0.0, 0.0, 1.676047279754563E9, 0.0, 2023-02-10 11:41:19.754
50.0, 8706.831479886947, 187500.0, 187500.0, 187500.0, -187500.02235174447, 187500.0, -187500.02235174447, -187500.02235174447, -0.036000000000000004, 0.028, 1.0, 192.0, 0.0, 0.0, 0.0, 0.0, 0.0, 0.0, 0.0, 0.0, 0.0, 1.676047279754582E9, 0.0, 2023-02-10 11:41:19.754
51.0, 8530.140939967745, 187500.0, 187500.0, 187500.0, -187500.02235174447, 187500.0, -187500.02235174447, -187500.02235174447, -0.036000000000000004, 0.028, 1.0, 192.0, 0.0, 0.0, 0.0, 0.0, 0.0, 0.0, 0.0, 0.0, 0.0, 1.676047279761812E9, 0.0, 2023-02-10 11:41:19.761
52.0, 8925.923279037866, 187500.0, 187500.0, 187500.0, -187500.02235174447, 187500.0, -187500.02235174447, -187500.02235174447, -0.036000000000000004, 0.028, 1.0, 192.0, 0.0, 0.0, 0.0, 0.0, 0.0, 0.0, 0.0, 0.0, 0.0, 1.676047279761837E9, 0.0, 2023-02-10 11:41:19.761
53.0, 9401.322531857793, 187500.0, 187500.0, 187500.0, -187500.02235174447, 187500.0, -187500.02235174447, -187500.02235174447, -0.036000000000000004, 0.028, 1.0, 192.0, 0.0, 0.0, 0.0, 0.0, 0.0, 0.0, 0.0, 0.0, 0.0, 1.676047279768312E9, 0.0, 2023-02-10 11:41:19.768
54.0, 8719.974305626667, 187500.0, 187500.0, 187500.0, -187500.02235174447, 187500.0, -187500.02235174447, -187500.02235174447, -0.036000000000000004, 0.028, 1.0, 192.0, 0.0, 0.0, 0.0, 0.0, 0.0, 0.0, 0.0, 0.0, 0.0, 1.676047279768333E9, 0.0, 2023-02-10 11:41:19.768
55.0, 8394.935237757592, 187500.0, 187500.0, 187500.0, -187500.02235174447, 187500.0, -187500.02235174447, -187500.02235174447, -0.036000000000000004, 0.028, 1.0, 192.0, 0.0, 0.0, 0.0, 0.0, 0.0, 0.0, 0.0, 0.0, 0.0, 1.676047279776132E9, 0.0, 2023-02-10 11:41:19.776
56.0, 8494.199334883611, 187500.0, 187500.0, 187500.0, -187500.02235174447, 187500.0, -187500.02235174447, -187500.02235174447, -0.034, 0.03, 0.998, 192.0, 254.0, 240.0, 0.0, 240.0, 31.0, 48.0, 0.0, 0.0, 0.0, 1.67604727978427E9, 0.0, 2023-02-10 11:41:19.784
57.0, 9273.559960551258, 187500.0, 187500.0, 187500.0, -187500.02235174447, 187500.0, -187500.02235174447, -187500.02235174447, -0.034, 0.03, 0.998, 192.0, 0.0, 0.0, 0.0, 0.0, 0.0, 0.0, 0.0, 0.0, 0.0, 1.676047279784408E9, 0.0, 2023-02-10 11:41:19.784
58.0, 9112.8509179176, 187500.0, 187500.0, 187500.0, -187500.02235174447, 187500.0, -187500.02235174447, -187500.02235174447, -0.034, 0.03, 0.998, 192.0, 0.0, 0.0, 0.0, 0.0, 0.0, 0.0, 0.0, 0.0, 0.0, 1.67604727979144E9, 0.0, 2023-02-10 11:41:19.791
59.0, 8605.063987381935, 187500.0, 187500.0, 187500.0, -187500.02235174447, 187500.0, -187500.02235174447, -187500.02235174447, -0.034, 0.03, 0.998, 192.0, 0.0, 0.0, 0.0, 0.0, 0.0, 0.0, 0.0, 0.0, 0.0, 1.676047279791525E9, 0.0, 2023-02-10 11:41:19.791
60.0, 8727.43978827474, 187500.0, 187500.0, 187500.0, -187500.02235174447, 187500.0, -187500.02235174447, -187500.02235174447, -0.034, 0.03, 0.998, 192.0, 0.0, 0.0, 0.0, 0.0, 0.0, 0.0, 0.0, 0.0, 0.0, 1.676047279798909E9, 0.0, 2023-02-10 11:41:19.798
61.0, 8971.610244704514, 187500.0, 187500.0, 187500.0, -187500.02235174447, 187500.0, -187500.02235174447, -187500.02235174447, -0.034, 0.03, 0.998, 192.0, 0.0, 0.0, 0.0, 0.0, 0.0, 0.0, 0.0, 0.0, 0.0, 1.676047279798939E9, 0.0, 2023-02-10 11:41:19.798
62.0, 8761.1685706578, 187500.0, 187500.0, 187500.0, -187500.02235174447, 187500.0, -187500.02235174447, -187500.02235174447, -0.034, 0.03, 0.998, 192.0, 0.0, 0.0, 0.0, 0.0, 0.0, 0.0, 0.0, 0.0, 0.0, 1.676047279806886E9, 0.0, 2023-02-10 11:41:19.806
63.0, 8676.254293472088, 187500.0, 187500.0, 187500.0, -187500.02235174447, 187500.0, -187500.02235174447, -187500.02235174447, -0.034, 0.03, 0.998, 192.0, 0.0, 0.0, 0.0, 0.0, 0.0, 0.0, 0.0, 0.0, 0.0, 1.676047279806916E9, 0.0, 2023-02-10 11:41:19.806
64.0, 8713.626410201361, 187500.0, 187500.0, 187500.0, -187500.02235174447, 187500.0, -187500.02235174447, -187500.02235174447, -0.034, 0.03, 0.998, 192.0, 0.0, 0.0, 0.0, 0.0, 0.0, 0.0, 0.0, 0.0, 0.0, 1.676047279814026E9, 0.0, 2023-02-10 11:41:19.814
65.0, 8796.283161197087, 187500.0, 187500.0, 187500.0, -187500.02235174447, 187500.0, -187500.02235174447, -187500.02235174447, -0.034, 0.03, 0.998, 192.0, 0.0, 0.0, 0.0, 0.0, 0.0, 0.0, 0.0, 0.0, 0.0, 1.676047279814048E9, 0.0, 2023-02-10 11:41:19.814
66.0, 8823.351123732464, 187500.0, 187500.0, 187500.0, -187500.02235174447, 187500.0, -187500.02235174447, -187500.02235174447, -0.028, 0.03, 1.002, 192.0, 255.0, 32.0, 0.0, 240.0, 31.0, 80.0, 0.0, 0.0, 0.0, 1.676047279821477E9, 0.0, 2023-02-10 11:41:19.821
67.0, 8782.134506956876, 187500.0, 187500.0, 187500.0, -187500.02235174447, 187500.0, -187500.02235174447, -187500.02235174447, -0.028, 0.03, 1.002, 192.0, 0.0, 0.0, 0.0, 0.0, 0.0, 0.0, 0.0, 0.0, 0.0, 1.6760472798215E9, 0.0, 2023-02-10 11:41:19.821
68.0, 8799.635922865382, 187500.0, 187500.0, 187500.0, -187500.02235174447, 187500.0, -187500.02235174447, -187500.02235174447, -0.028, 0.03, 1.002, 192.0, 0.0, 0.0, 0.0, 0.0, 0.0, 0.0, 0.0, 0.0, 0.0, 1.676047279829609E9, 0.0, 2023-02-10 11:41:19.829
69.0, 8904.510307849683, 187500.0, 187500.0, 187500.0, -187500.02235174447, 187500.0, -187500.02235174447, -187500.02235174447, -0.028, 0.03, 1.002, 192.0, 0.0, 0.0, 0.0, 0.0, 0.0, 0.0, 0.0, 0.0, 0.0, 1.676047279829645E9, 0.0, 2023-02-10 11:41:19.829
70.0, 9136.454360062404, 187500.0, 187500.0, 187500.0, -187500.02235174447, 187500.0, -187500.02235174447, -187500.02235174447, -0.028, 0.03, 1.002, 192.0, 0.0, 0.0, 0.0, 0.0, 0.0, 0.0, 0.0, 0.0, 0.0, 1.676047279836396E9, 0.0, 2023-02-10 11:41:19.836
71.0, 8765.92949222678, 187500.0, 187500.0, 187500.0, -187500.02235174447, 187500.0, -187500.02235174447, -187500.02235174447, -0.028, 0.03, 1.002, 192.0, 0.0, 0.0, 0.0, 0.0, 0.0, 0.0, 0.0, 0.0, 0.0, 1.676047279843685E9, 0.0, 2023-02-10 11:41:19.843
72.0, 8531.25852719051, 187500.0, 187500.0, 187500.0, -187500.02235174447, 187500.0, -187500.02235174447, -187500.02235174447, -0.028, 0.03, 1.002, 192.0, 0.0, 0.0, 0.0, 0.0, 0.0, 0.0, 0.0, 0.0, 0.0, 1.676047279843844E9, 0.0, 2023-02-10 11:41:19.843
73.0, 8665.681918344728, 187500.0, 187500.0, 187500.0, -187500.02235174447, 187500.0, -187500.02235174447, -187500.02235174447, -0.028, 0.03, 1.002, 192.0, 0.0, 0.0, 0.0, 0.0, 0.0, 0.0, 0.0, 0.0, 0.0, 1.67604727985117E9, 0.0, 2023-02-10 11:41:19.851
74.0, 8809.001303792156, 187500.0, 187500.0, 187500.0, -187500.02235174447, 187500.0, -187500.02235174447, -187500.02235174447, -0.028, 0.03, 1.002, 192.0, 0.0, 0.0, 0.0, 0.0, 0.0, 0.0, 0.0, 0.0, 0.0, 1.676047279851193E9, 0.0, 2023-02-10 11:41:19.851
75.0, 8693.733357636138, 187500.0, 187500.0, 187500.0, -187500.02235174447, 187500.0, -187500.02235174447, -187500.02235174447, -0.028, 0.03, 1.002, 192.0, 0.0, 0.0, 0.0, 0.0, 0.0, 0.0, 0.0, 0.0, 0.0, 1.676047279859044E9, 0.0, 2023-02-10 11:41:19.859
76.0, 8653.56727284995, 187500.0, 187500.0, 187500.0, -187500.02235174447, 187500.0, -187500.02235174447, -187500.02235174447, -0.032, 0.034, 1.002, 192.0, 255.0, 0.0, 1.0, 16.0, 31.0, 80.0, 0.0, 0.0, 0.0, 1.676047279859065E9, 0.0, 2023-02-10 11:41:19.859
77.0, 8994.96781766031, 187500.0, 187500.0, 187500.0, -187500.02235174447, 187500.0, -187500.02235174447, -187500.02235174447, -0.032, 0.034, 1.002, 192.0, 0.0, 0.0, 0.0, 0.0, 0.0, 0.0, 0.0, 0.0, 0.0, 1.676047279867079E9, 0.0, 2023-02-10 11:41:19.867
78.0, 8859.628004983426, 187500.0, 187500.0, 187500.0, -187500.02235174447, 187500.0, -187500.02235174447, -187500.02235174447, -0.032, 0.034, 1.002, 192.0, 0.0, 0.0, 0.0, 0.0, 0.0, 0.0, 0.0, 0.0, 0.0, 1.676047279867097E9, 0.0, 2023-02-10 11:41:19.867
79.0, 8732.1113028659, 187500.0, 187500.0, 187500.0, -187500.02235174447, 187500.0, -187500.02235174447, -187500.02235174447, -0.032, 0.034, 1.002, 192.0, 0.0, 0.0, 0.0, 0.0, 0.0, 0.0, 0.0, 0.0, 0.0, 1.676047279873726E9, 0.0, 2023-02-10 11:41:19.873
80.0, 8787.230704692687, 187500.0, 187500.0, 187500.0, -187500.02235174447, 187500.0, -187500.02235174447, -187500.02235174447, -0.032, 0.034, 1.002, 192.0, 0.0, 0.0, 0.0, 0.0, 0.0, 0.0, 0.0, 0.0, 0.0, 1.676047279873747E9, 0.0, 2023-02-10 11:41:19.873
81.0, 8865.573569008538, 187500.0, 187500.0, 187500.0, -187500.02235174447, 187500.0, -187500.02235174447, -187500.02235174447, -0.032, 0.034, 1.002, 192.0, 0.0, 0.0, 0.0, 0.0, 0.0, 0.0, 0.0, 0.0, 0.0, 1.676047279881646E9, 0.0, 2023-02-10 11:41:19.881
82.0, 8759.693355523748, 187500.0, 187500.0, 187500.0, -187500.02235174447, 187500.0, -187500.02235174447, -187500.02235174447, -0.032, 0.034, 1.002, 192.0, 0.0, 0.0, 0.0, 0.0, 0.0, 0.0, 0.0, 0.0, 0.0, 1.67604727988166E9, 0.0, 2023-02-10 11:41:19.881
83.0, 8696.169697781766, 187500.0, 187500.0, 187500.0, -187500.02235174447, 187500.0, -187500.02235174447, -187500.02235174447, -0.032, 0.034, 1.002, 192.0, 0.0, 0.0, 0.0, 0.0, 0.0, 0.0, 0.0, 0.0, 0.0, 1.676047279889786E9, 0.0, 2023-02-10 11:41:19.889
84.0, 8553.051478034435, 187500.0, 187500.0, 187500.0, -187500.02235174447, 187500.0, -187500.02235174447, -187500.02235174447, -0.032, 0.034, 1.002, 192.0, 0.0, 0.0, 0.0, 0.0, 0.0, 0.0, 0.0, 0.0, 0.0, 1.676047279889815E9, 0.0, 2023-02-10 11:41:19.889
85.0, 8984.797773933145, 187500.0, 187500.0, 187500.0, -187500.02235174447, 187500.0, -187500.02235174447, -187500.02235174447, -0.028, 0.032, 1.002, 192.0, 255.0, 32.0, 1.0, 0.0, 31.0, 80.0, 0.0, 0.0, 0.0, 1.676047279896977E9, 0.0, 2023-02-10 11:41:19.896
86.0, 8991.704462969836, 187500.0, 187500.0, 187500.0, -187500.02235174447, 187500.0, -187500.02235174447, -187500.02235174447, -0.028, 0.032, 1.002, 192.0, 0.0, 0.0, 0.0, 0.0, 0.0, 0.0, 0.0, 0.0, 0.0, 1.676047279903561E9, 0.0, 2023-02-10 11:41:19.903
87.0, 8798.831260064992, 187500.0, 187500.0, 187500.0, -187500.02235174447, 187500.0, -187500.02235174447, -187500.02235174447, -0.028, 0.032, 1.002, 192.0, 0.0, 0.0, 0.0, 0.0, 0.0, 0.0, 0.0, 0.0, 0.0, 1.676047279903717E9, 0.0, 2023-02-10 11:41:19.903
88.0, 8893.356787366485, 187500.0, 187500.0, 187500.0, -187500.02235174447, 187500.0, -187500.02235174447, -187500.02235174447, -0.028, 0.032, 1.002, 192.0, 0.0, 0.0, 0.0, 0.0, 0.0, 0.0, 0.0, 0.0, 0.0, 1.676047279911647E9, 0.0, 2023-02-10 11:41:19.911
89.0, 8693.018101813568, 187500.0, 187500.0, 187500.0, -187500.02235174447, 187500.0, -187500.02235174447, -187500.02235174447, -0.028, 0.032, 1.002, 192.0, 0.0, 0.0, 0.0, 0.0, 0.0, 0.0, 0.0, 0.0, 0.0, 1.676047279911687E9, 0.0, 2023-02-10 11:41:19.911
90.0, 8812.041141038078, 187500.0, 187500.0, 187500.0, -187500.02235174447, 187500.0, -187500.02235174447, -187500.02235174447, -0.028, 0.032, 1.002, 192.0, 0.0, 0.0, 0.0, 0.0, 0.0, 0.0, 0.0, 0.0, 0.0, 1.676047279919447E9, 0.0, 2023-02-10 11:41:19.919
91.0, 8588.546048229462, 187500.0, 187500.0, 187500.0, -187500.02235174447, 187500.0, -187500.02235174447, -187500.02235174447, -0.028, 0.032, 1.002, 192.0, 0.0, 0.0, 0.0, 0.0, 0.0, 0.0, 0.0, 0.0, 0.0, 1.676047279919472E9, 0.0, 2023-02-10 11:41:19.919
92.0, 8426.026514294925, 187500.0, 187500.0, 187500.0, -187500.02235174447, 187500.0, -187500.02235174447, -187500.02235174447, -0.028, 0.032, 1.002, 192.0, 0.0, 0.0, 0.0, 0.0, 0.0, 0.0, 0.0, 0.0, 0.0, 1.67604727992656E9, 0.0, 2023-02-10 11:41:19.926
93.0, 8823.775806877115, 187500.0, 187500.0, 187500.0, -187500.02235174447, 187500.0, -187500.02235174447, -187500.02235174447, -0.028, 0.032, 1.002, 192.0, 0.0, 0.0, 0.0, 0.0, 0.0, 0.0, 0.0, 0.0, 0.0, 1.676047279926582E9, 0.0, 2023-02-10 11:41:19.926
94.0, 8874.178990623832, 187500.0, 187500.0, 187500.0, -187500.02235174447, 187500.0, -187500.02235174447, -187500.02235174447, -0.028, 0.032, 1.002, 192.0, 0.0, 0.0, 0.0, 0.0, 0.0, 0.0, 0.0, 0.0, 0.0, 1.676047279934026E9, 0.0, 2023-02-10 11:41:19.934
95.0, 8722.880032405857, 187500.0, 187500.0, 187500.0, -187500.02235174447, 187500.0, -187500.02235174447, -187500.02235174447, -0.024, 0.028, 1.004, 192.0, 255.0, 64.0, 0.0, 224.0, 31.0, 96.0, 0.0, 0.0, 0.0, 1.676047279934049E9, 0.0, 2023-02-10 11:41:19.934
96.0, 8718.0073521146, 187500.0, 187500.0, 187500.0, -187500.02235174447, 187500.0, -187500.02235174447, -187500.02235174447, -0.024, 0.028, 1.004, 192.0, 0.0, 0.0, 0.0, 0.0, 0.0, 0.0, 0.0, 0.0, 0.0, 1.676047279942207E9, 0.0, 2023-02-10 11:41:19.942
97.0, 8640.916185488246, 187500.0, 187500.0, 187500.0, -187500.02235174447, 187500.0, -187500.02235174447, -187500.02235174447, -0.024, 0.028, 1.004, 192.0, 0.0, 0.0, 0.0, 0.0, 0.0, 0.0, 0.0, 0.0, 0.0, 1.676047279942236E9, 0.0, 2023-02-10 11:41:19.942
98.0, 8772.79147777456, 187500.0, 187500.0, 187500.0, -187500.02235174447, 187500.0, -187500.02235174447, -187500.02235174447, -0.024, 0.028, 1.004, 192.0, 0.0, 0.0, 0.0, 0.0, 0.0, 0.0, 0.0, 0.0, 0.0, 1.676047279949305E9, 0.0, 2023-02-10 11:41:19.949
99.0, 8924.604526115005, 187500.0, 187500.0, 187500.0, -187500.02235174447, 187500.0, -187500.02235174447, -187500.02235174447, -0.024, 0.028, 1.004, 192.0, 0.0, 0.0, 0.0, 0.0, 0.0, 0.0, 0.0, 0.0, 0.0, 1.676047279949334E9, 0.0, 2023-02-10 11:41:19.949
100.0, 8899.235296158231, 187500.0, 187500.0, 187500.0, -187500.02235174447, 187500.0, -187500.02235174447, -187500.02235174447, -0.024, 0.028, 1.004, 192.0, 0.0, 0.0, 0.0, 0.0, 0.0, 0.0, 0.0, 0.0, 0.0, 1.676047279955673E9, 0.0, 2023-02-10 11:41:19.955
101.0, 8635.28354588551, 187500.0, 187500.0, 187500.0, -187500.02235174447, 187500.0, -187500.02235174447, -187500.02235174447, -0.024, 0.028, 1.004, 192.0, 0.0, 0.0, 0.0, 0.0, 0.0, 0.0, 0.0, 0.0, 0.0, 1.676047279963541E9, 0.0, 2023-02-10 11:41:19.963
102.0, 8531.191471957145, 187500.0, 187500.0, 187500.0, -187500.02235174447, 187500.0, -187500.02235174447, -187500.02235174447, -0.024, 0.028, 1.004, 192.0, 0.0, 0.0, 0.0, 0.0, 0.0, 0.0, 0.0, 0.0, 0.0, 1.676047279963661E9, 0.0, 2023-02-10 11:41:19.963
103.0, 8698.24841001611, 187500.0, 187500.0, 187500.0, -187500.02235174447, 187500.0, -187500.02235174447, -187500.02235174447, -0.024, 0.028, 1.004, 192.0, 0.0, 0.0, 0.0, 0.0, 0.0, 0.0, 0.0, 0.0, 0.0, 1.67604727997162E9, 0.0, 2023-02-10 11:41:19.971
104.0, 8652.628499582828, 187500.0, 187500.0, 187500.0, -187500.02235174447, 187500.0, -187500.02235174447, -187500.02235174447, -0.024, 0.028, 1.004, 192.0, 0.0, 0.0, 0.0, 0.0, 0.0, 0.0, 0.0, 0.0, 0.0, 1.676047279971638E9, 0.0, 2023-02-10 11:41:19.971
105.0, 8770.958634729222, 187500.0, 187500.0, 187500.0, -187500.02235174447, 187500.0, -187500.02235174447, -187500.02235174447, -0.024, 0.032, 1.0, 192.0, 255.0, 64.0, 1.0, 0.0, 31.0, 64.0, 0.0, 0.0, 0.0, 1.676047279978817E9, 0.0, 2023-02-10 11:41:19.978
106.0, 8838.505606473162, 187500.0, 187500.0, 187500.0, -187500.02235174447, 187500.0, -187500.02235174447, -187500.02235174447, -0.024, 0.032, 1.0, 192.0, 0.0, 0.0, 0.0, 0.0, 0.0, 0.0, 0.0, 0.0, 0.0, 1.67604727997885E9, 0.0, 2023-02-10 11:41:19.978
107.0, 8816.690303884781, 187500.0, 187500.0, 187500.0, -187500.02235174447, 187500.0, -187500.02235174447, -187500.02235174447, -0.024, 0.032, 1.0, 192.0, 0.0, 0.0, 0.0, 0.0, 0.0, 0.0, 0.0, 0.0, 0.0, 1.676047279986209E9, 0.0, 2023-02-10 11:41:19.986
108.0, 8705.57978219745, 187500.0, 187500.0, 187500.0, -187500.02235174447, 187500.0, -187500.02235174447, -187500.02235174447, -0.024, 0.032, 1.0, 192.0, 0.0, 0.0, 0.0, 0.0, 0.0, 0.0, 0.0, 0.0, 0.0, 1.676047279986232E9, 0.0, 2023-02-10 11:41:19.986
109.0, 8543.753152341027, 187500.0, 187500.0, 187500.0, -187500.02235174447, 187500.0, -187500.02235174447, -187500.02235174447, -0.024, 0.032, 1.0, 192.0, 0.0, 0.0, 0.0, 0.0, 0.0, 0.0, 0.0, 0.0, 0.0, 1.676047279994388E9, 0.0, 2023-02-10 11:41:19.994
110.0, 8646.817046024447, 187500.0, 187500.0, 187500.0, -187500.02235174447, 187500.0, -187500.02235174447, -187500.02235174447, -0.024, 0.032, 1.0, 192.0, 0.0, 0.0, 0.0, 0.0, 0.0, 0.0, 0.0, 0.0, 0.0, 1.676047279994416E9, 0.0, 2023-02-10 11:41:19.994
111.0, 8784.995530247155, 187500.0, 187500.0, 187500.0, -187500.02235174447, 187500.0, -187500.02235174447, -187500.02235174447, -0.024, 0.032, 1.0, 192.0, 0.0, 0.0, 0.0, 0.0, 0.0, 0.0, 0.0, 0.0, 0.0, 1.67604728000233E9, 0.0, 2023-02-10 11:41:20.002
112.0, 8703.232849029642, 187500.0, 187500.0, 187500.0, -187500.02235174447, 187500.0, -187500.02235174447, -187500.02235174447, -0.024, 0.032, 1.0, 192.0, 0.0, 0.0, 0.0, 0.0, 0.0, 0.0, 0.0, 0.0, 0.0, 1.676047280002361E9, 0.0, 2023-02-10 11:41:20.002
113.0, 8395.158755202146, 187500.0, 187500.0, 187500.0, -187500.02235174447, 187500.0, -187500.02235174447, -187500.02235174447, -0.024, 0.032, 1.0, 192.0, 0.0, 0.0, 0.0, 0.0, 0.0, 0.0, 0.0, 0.0, 0.0, 1.67604728000896E9, 0.0, 2023-02-10 11:41:20.008
114.0, 8462.146933334701, 187500.0, 187500.0, 187500.0, -187500.02235174447, 187500.0, -187500.02235174447, -187500.02235174447, -0.024, 0.032, 1.0, 192.0, 0.0, 0.0, 0.0, 0.0, 0.0, 0.0, 0.0, 0.0, 0.0, 1.67604728000898E9, 0.0, 2023-02-10 11:41:20.008
115.0, 9094.500135719793, 187500.0, 187500.0, 187500.0, -187500.02235174447, 187500.0, -187500.02235174447, -187500.02235174447, -0.026000000000000002, 0.028, 0.996, 192.0, 255.0, 48.0, 0.0, 224.0, 31.0, 32.0, 0.0, 0.0, 0.0, 1.676047280016298E9, 0.0, 2023-02-10 11:41:20.016
116.0, 9084.330091992628, 187500.0, 187500.0, 187500.0, -187500.02235174447, 187500.0, -187500.02235174447, -187500.02235174447, -0.026000000000000002, 0.028, 0.996, 192.0, 0.0, 0.0, 0.0, 0.0, 0.0, 0.0, 0.0, 0.0, 0.0, 1.676047280016344E9, 0.0, 2023-02-10 11:41:20.016
117.0, 8394.309388912843, 187500.0, 187500.0, 187500.0, -187500.02235174447, 187500.0, -187500.02235174447, -187500.02235174447, -0.026000000000000002, 0.028, 0.996, 192.0, 0.0, 0.0, 0.0, 0.0, 0.0, 0.0, 0.0, 0.0, 0.0, 1.676047280023944E9, 0.0, 2023-02-10 11:41:20.023
118.0, 8526.139977710245, 187500.0, 187500.0, 187500.0, -187500.02235174447, 187500.0, -187500.02235174447, -187500.02235174447, -0.026000000000000002, 0.028, 0.996, 192.0, 0.0, 0.0, 0.0, 0.0, 0.0, 0.0, 0.0, 0.0, 0.0, 1.6760472800321E9, 0.0, 2023-02-10 11:41:20.032
119.0, 8778.088841210467, 187500.0, 187500.0, 187500.0, -187500.02235174447, 187500.0, -187500.02235174447, -187500.02235174447, -0.026000000000000002, 0.028, 0.996, 192.0, 0.0, 0.0, 0.0, 0.0, 0.0, 0.0, 0.0, 0.0, 0.0, 1.676047280032125E9, 0.0, 2023-02-10 11:41:20.032
120.0, 8508.236230401544, 187500.0, 187500.0, 187500.0, -187500.02235174447, 187500.0, -187500.02235174447, -187500.02235174447, -0.026000000000000002, 0.028, 0.996, 192.0, 0.0, 0.0, 0.0, 0.0, 0.0, 0.0, 0.0, 0.0, 0.0, 1.676047280038636E9, 0.0, 2023-02-10 11:41:20.038
121.0, 8936.853282076512, 187500.0, 187500.0, 187500.0, -187500.02235174447, 187500.0, -187500.02235174447, -187500.02235174447, -0.026000000000000002, 0.028, 0.996, 192.0, 0.0, 0.0, 0.0, 0.0, 0.0, 0.0, 0.0, 0.0, 0.0, 1.676047280038658E9, 0.0, 2023-02-10 11:41:20.038
122.0, 8744.44946580523, 187500.0, 187500.0, 187500.0, -187500.02235174447, 187500.0, -187500.02235174447, -187500.02235174447, -0.026000000000000002, 0.028, 0.996, 192.0, 0.0, 0.0, 0.0, 0.0, 0.0, 0.0, 0.0, 0.0, 0.0, 1.676047280046489E9, 0.0, 2023-02-10 11:41:20.046
123.0, 8515.522899093974, 187500.0, 187500.0, 187500.0, -187500.02235174447, 187500.0, -187500.02235174447, -187500.02235174447, -0.026000000000000002, 0.028, 0.996, 192.0, 0.0, 0.0, 0.0, 0.0, 0.0, 0.0, 0.0, 0.0, 0.0, 1.676047280046514E9, 0.0, 2023-02-10 11:41:20.046
124.0, 8463.264520557466, 187500.0, 187500.0, 187500.0, -187500.02235174447, 187500.0, -187500.02235174447, -187500.02235174447, -0.026000000000000002, 0.028, 0.996, 192.0, 0.0, 0.0, 0.0, 0.0, 0.0, 0.0, 0.0, 0.0, 0.0, 1.676047280054546E9, 0.0, 2023-02-10 11:41:20.054
125.0, 8658.1940839522, 187500.0, 187500.0, 187500.0, -187500.02235174447, 187500.0, -187500.02235174447, -187500.02235174447, -0.026000000000000002, 0.028, 0.998, 192.0, 255.0, 48.0, 0.0, 224.0, 31.0, 48.0, 0.0, 0.0, 0.0, 1.676047280054564E9, 0.0, 2023-02-10 11:41:20.054
126.0, 8943.62586064647, 187500.0, 187500.0, 187500.0, -187500.02235174447, 187500.0, -187500.02235174447, -187500.02235174447, -0.026000000000000002, 0.028, 0.998, 192.0, 0.0, 0.0, 0.0, 0.0, 0.0, 0.0, 0.0, 0.0, 0.0, 1.676047280061695E9, 0.0, 2023-02-10 11:41:20.061
127.0, 8687.787793611025, 187500.0, 187500.0, 187500.0, -187500.02235174447, 187500.0, -187500.02235174447, -187500.02235174447, -0.026000000000000002, 0.028, 0.998, 192.0, 0.0, 0.0, 0.0, 0.0, 0.0, 0.0, 0.0, 0.0, 0.0, 1.676047280061716E9, 0.0, 2023-02-10 11:41:20.061
128.0, 8473.479267773542, 187500.0, 187500.0, 187500.0, -187500.02235174447, 187500.0, -187500.02235174447, -187500.02235174447, -0.026000000000000002, 0.028, 0.998, 192.0, 0.0, 0.0, 0.0, 0.0, 0.0, 0.0, 0.0, 0.0, 0.0, 1.676047280069242E9, 0.0, 2023-02-10 11:41:20.069
129.0, 8618.095054399379, 187500.0, 187500.0, 187500.0, -187500.02235174447, 187500.0, -187500.02235174447, -187500.02235174447, -0.026000000000000002, 0.028, 0.998, 192.0, 0.0, 0.0, 0.0, 0.0, 0.0, 0.0, 0.0, 0.0, 0.0, 1.676047280069265E9, 0.0, 2023-02-10 11:41:20.069
130.0, 8535.080675492367, 187500.0, 187500.0, 187500.0, -187500.02235174447, 187500.0, -187500.02235174447, -187500.02235174447, -0.026000000000000002, 0.028, 0.998, 192.0, 0.0, 0.0, 0.0, 0.0, 0.0, 0.0, 0.0, 0.0, 0.0, 1.676047280077327E9, 0.0, 2023-02-10 11:41:20.077
131.0, 8540.154521483722, 187500.0, 187500.0, 187500.0, -187500.02235174447, 187500.0, -187500.02235174447, -187500.02235174447, -0.026000000000000002, 0.028, 0.998, 192.0, 0.0, 0.0, 0.0, 0.0, 0.0, 0.0, 0.0, 0.0, 0.0, 1.676047280077357E9, 0.0, 2023-02-10 11:41:20.077
132.0, 8661.770363065049, 187500.0, 187500.0, 187500.0, -187500.02235174447, 187500.0, -187500.02235174447, -187500.02235174447, -0.026000000000000002, 0.028, 0.998, 192.0, 0.0, 0.0, 0.0, 0.0, 0.0, 0.0, 0.0, 0.0, 0.0, 1.676047280084479E9, 0.0, 2023-02-10 11:41:20.084
133.0, 8650.214511181655, 187500.0, 187500.0, 187500.0, -187500.02235174447, 187500.0, -187500.02235174447, -187500.02235174447, -0.026000000000000002, 0.028, 0.998, 192.0, 0.0, 0.0, 0.0, 0.0, 0.0, 0.0, 0.0, 0.0, 0.0, 1.676047280091374E9, 0.0, 2023-02-10 11:41:20.091
134.0, 8596.883248911292, 187500.0, 187500.0, 187500.0, -187500.02235174447, 187500.0, -187500.02235174447, -187500.02235174447, -0.016, 0.028, 1.0, 192.0, 255.0, 128.0, 0.0, 224.0, 31.0, 64.0, 0.0, 0.0, 0.0, 1.676047280091404E9, 0.0, 2023-02-10 11:41:20.091
135.0, 8723.215308572688, 187500.0, 187500.0, 187500.0, -187500.02235174447, 187500.0, -187500.02235174447, -187500.02235174447, -0.016, 0.028, 1.0, 192.0, 0.0, 0.0, 0.0, 0.0, 0.0, 0.0, 0.0, 0.0, 0.0, 1.676047280098966E9, 0.0, 2023-02-10 11:41:20.098
136.0, 9059.40789692496, 187500.0, 187500.0, 187500.0, -187500.02235174447, 187500.0, -187500.02235174447, -187500.02235174447, -0.016, 0.028, 1.0, 192.0, 0.0, 0.0, 0.0, 0.0, 0.0, 0.0, 0.0, 0.0, 0.0, 1.676047280098989E9, 0.0, 2023-02-10 11:41:20.098
137.0, 8445.919566860148, 187500.0, 187500.0, 187500.0, -187500.02235174447, 187500.0, -187500.02235174447, -187500.02235174447, -0.016, 0.028, 1.0, 192.0, 0.0, 0.0, 0.0, 0.0, 0.0, 0.0, 0.0, 0.0, 0.0, 1.676047280106849E9, 0.0, 2023-02-10 11:41:20.106
138.0, 8245.513826073864, 187500.0, 187500.0, 187500.0, -187500.02235174447, 187500.0, -187500.02235174447, -187500.02235174447, -0.016, 0.028, 1.0, 192.0, 0.0, 0.0, 0.0, 0.0, 0.0, 0.0, 0.0, 0.0, 0.0, 1.676047280106875E9, 0.0, 2023-02-10 11:41:20.106
139.0, 8737.54277676854, 187500.0, 187500.0, 187500.0, -187500.02235174447, 187500.0, -187500.02235174447, -187500.02235174447, -0.016, 0.028, 1.0, 192.0, 0.0, 0.0, 0.0, 0.0, 0.0, 0.0, 0.0, 0.0, 0.0, 1.676047280114137E9, 0.0, 2023-02-10 11:41:20.114
140.0, 8910.835851530535, 187500.0, 187500.0, 187500.0, -187500.02235174447, 187500.0, -187500.02235174447, -187500.02235174447, -0.016, 0.028, 1.0, 192.0, 0.0, 0.0, 0.0, 0.0, 0.0, 0.0, 0.0, 0.0, 0.0, 1.67604728011416E9, 0.0, 2023-02-10 11:41:20.114
141.0, 8716.800357914015, 187500.0, 187500.0, 187500.0, -187500.02235174447, 187500.0, -187500.02235174447, -187500.02235174447, -0.016, 0.028, 1.0, 192.0, 0.0, 0.0, 0.0, 0.0, 0.0, 0.0, 0.0, 0.0, 0.0, 1.676047280121415E9, 0.0, 2023-02-10 11:41:20.121
142.0, 8345.828455189283, 187500.0, 187500.0, 187500.0, -187500.02235174447, 187500.0, -187500.02235174447, -187500.02235174447, -0.016, 0.028, 1.0, 192.0, 0.0, 0.0, 0.0, 0.0, 0.0, 0.0, 0.0, 0.0, 0.0, 1.676047280121436E9, 0.0, 2023-02-10 11:41:20.121
143.0, 8278.01326251188, 187500.0, 187500.0, 187500.0, -187500.02235174447, 187500.0, -187500.02235174447, -187500.02235174447, -0.016, 0.028, 1.0, 192.0, 0.0, 0.0, 0.0, 0.0, 0.0, 0.0, 0.0, 0.0, 0.0, 1.67604728012944E9, 0.0, 2023-02-10 11:41:20.129
144.0, 8632.556633061962, 187500.0, 187500.0, 187500.0, -187500.02235174447, 187500.0, -187500.02235174447, -187500.02235174447, -0.016, 0.032, 1.0, 192.0, 255.0, 128.0, 1.0, 0.0, 31.0, 64.0, 0.0, 0.0, 0.0, 1.676047280129461E9, 0.0, 2023-02-10 11:41:20.129
145.0, 8686.424337199252, 187500.0, 187500.0, 187500.0, -187500.02235174447, 187500.0, -187500.02235174447, -187500.02235174447, -0.016, 0.032, 1.0, 192.0, 0.0, 0.0, 0.0, 0.0, 0.0, 0.0, 0.0, 0.0, 0.0, 1.676047280137569E9, 0.0, 2023-02-10 11:41:20.137
146.0, 8538.098160993834, 187500.0, 187500.0, 187500.0, -187500.02235174447, 187500.0, -187500.02235174447, -187500.02235174447, -0.016, 0.032, 1.0, 192.0, 0.0, 0.0, 0.0, 0.0, 0.0, 0.0, 0.0, 0.0, 0.0, 1.676047280137621E9, 0.0, 2023-02-10 11:41:20.137
147.0, 8679.964683051669, 187500.0, 187500.0, 187500.0, -187500.02235174447, 187500.0, -187500.02235174447, -187500.02235174447, -0.016, 0.032, 1.0, 192.0, 0.0, 0.0, 0.0, 0.0, 0.0, 0.0, 0.0, 0.0, 0.0, 1.676047280143683E9, 0.0, 2023-02-10 11:41:20.143
148.0, 8661.435086898218, 187500.0, 187500.0, 187500.0, -187500.02235174447, 187500.0, -187500.02235174447, -187500.02235174447, -0.016, 0.032, 1.0, 192.0, 0.0, 0.0, 0.0, 0.0, 0.0, 0.0, 0.0, 0.0, 0.0, 1.67604728015119E9, 0.0, 2023-02-10 11:41:20.151
149.0, 8846.552234477072, 187500.0, 187500.0, 187500.0, -187500.02235174447, 187500.0, -187500.02235174447, -187500.02235174447, -0.016, 0.032, 1.0, 192.0, 0.0, 0.0, 0.0, 0.0, 0.0, 0.0, 0.0, 0.0, 0.0, 1.676047280151216E9, 0.0, 2023-02-10 11:41:20.151
150.0, 8525.536480609951, 187500.0, 187500.0, 187500.0, -187500.02235174447, 187500.0, -187500.02235174447, -187500.02235174447, -0.016, 0.032, 1.0, 192.0, 0.0, 0.0, 0.0, 0.0, 0.0, 0.0, 0.0, 0.0, 0.0, 1.676047280159201E9, 0.0, 2023-02-10 11:41:20.159
151.0, 8310.73621639445, 187500.0, 187500.0, 187500.0, -187500.02235174447, 187500.0, -187500.02235174447, -187500.02235174447, -0.016, 0.032, 1.0, 192.0, 0.0, 0.0, 0.0, 0.0, 0.0, 0.0, 0.0, 0.0, 0.0, 1.676047280159225E9, 0.0, 2023-02-10 11:41:20.159
152.0, 8675.740203349615, 187500.0, 187500.0, 187500.0, -187500.02235174447, 187500.0, -187500.02235174447, -187500.02235174447, -0.016, 0.032, 1.0, 192.0, 0.0, 0.0, 0.0, 0.0, 0.0, 0.0, 0.0, 0.0, 0.0, 1.676047280167131E9, 0.0, 2023-02-10 11:41:20.167
153.0, 8590.93768488618, 187500.0, 187500.0, 187500.0, -187500.02235174447, 187500.0, -187500.02235174447, -187500.02235174447, -0.016, 0.032, 1.0, 192.0, 0.0, 0.0, 0.0, 0.0, 0.0, 0.0, 0.0, 0.0, 0.0, 1.676047280167153E9, 0.0, 2023-02-10 11:41:20.167
154.0, 8723.930564395258, 187500.0, 187500.0, 187500.0, -187500.02235174447, 187500.0, -187500.02235174447, -187500.02235174447, -0.022, 0.028, 0.996, 192.0, 255.0, 80.0, 0.0, 224.0, 31.0, 32.0, 0.0, 0.0, 0.0, 1.676047280173728E9, 0.0, 2023-02-10 11:41:20.173
155.0, 8654.416639139252, 187500.0, 187500.0, 187500.0, -187500.02235174447, 187500.0, -187500.02235174447, -187500.02235174447, -0.022, 0.028, 0.996, 192.0, 0.0, 0.0, 0.0, 0.0, 0.0, 0.0, 0.0, 0.0, 0.0, 1.676047280173758E9, 0.0, 2023-02-10 11:41:20.173
156.0, 8443.393819736699, 187500.0, 187500.0, 187500.0, -187500.02235174447, 187500.0, -187500.02235174447, -187500.02235174447, -0.022, 0.028, 0.996, 192.0, 0.0, 0.0, 0.0, 0.0, 0.0, 0.0, 0.0, 0.0, 0.0, 1.676047280181869E9, 0.0, 2023-02-10 11:41:20.181
157.0, 8445.830159882327, 187500.0, 187500.0, 187500.0, -187500.02235174447, 187500.0, -187500.02235174447, -187500.02235174447, -0.022, 0.028, 0.996, 192.0, 0.0, 0.0, 0.0, 0.0, 0.0, 0.0, 0.0, 0.0, 0.0, 1.676047280181894E9, 0.0, 2023-02-10 11:41:20.181
158.0, 8446.09838081579, 187500.0, 187500.0, 187500.0, -187500.02235174447, 187500.0, -187500.02235174447, -187500.02235174447, -0.022, 0.028, 0.996, 192.0, 0.0, 0.0, 0.0, 0.0, 0.0, 0.0, 0.0, 0.0, 0.0, 1.676047280189709E9, 0.0, 2023-02-10 11:41:20.189
159.0, 8639.552729076473, 187500.0, 187500.0, 187500.0, -187500.02235174447, 187500.0, -187500.02235174447, -187500.02235174447, -0.022, 0.028, 0.996, 192.0, 0.0, 0.0, 0.0, 0.0, 0.0, 0.0, 0.0, 0.0, 0.0, 1.676047280189739E9, 0.0, 2023-02-10 11:41:20.189
160.0, 8666.24071195611, 187500.0, 187500.0, 187500.0, -187500.02235174447, 187500.0, -187500.02235174447, -187500.02235174447, -0.022, 0.028, 0.996, 192.0, 0.0, 0.0, 0.0, 0.0, 0.0, 0.0, 0.0, 0.0, 0.0, 1.676047280196743E9, 0.0, 2023-02-10 11:41:20.196
161.0, 8579.426536491697, 187500.0, 187500.0, 187500.0, -187500.02235174447, 187500.0, -187500.02235174447, -187500.02235174447, -0.022, 0.028, 0.996, 192.0, 0.0, 0.0, 0.0, 0.0, 0.0, 0.0, 0.0, 0.0, 0.0, 1.676047280196762E9, 0.0, 2023-02-10 11:41:20.196
162.0, 8490.958331937592, 187500.0, 187500.0, 187500.0, -187500.02235174447, 187500.0, -187500.02235174447, -187500.02235174447, -0.022, 0.028, 0.996, 192.0, 0.0, 0.0, 0.0, 0.0, 0.0, 0.0, 0.0, 0.0, 0.0, 1.676047280203256E9, 0.0, 2023-02-10 11:41:20.203
163.0, 8417.063464768347, 187500.0, 187500.0, 187500.0, -187500.02235174447, 187500.0, -187500.02235174447, -187500.02235174447, -0.022, 0.028, 0.996, 192.0, 0.0, 0.0, 0.0, 0.0, 0.0, 0.0, 0.0, 0.0, 0.0, 1.676047280211422E9, 0.0, 2023-02-10 11:41:20.211
164.0, 8536.868815048792, 187500.0, 187500.0, 187500.0, -187500.02235174447, 187500.0, -187500.02235174447, -187500.02235174447, -0.022, 0.026000000000000002, 0.998, 192.0, 255.0, 80.0, 0.0, 208.0, 31.0, 48.0, 0.0, 0.0, 0.0, 1.676047280211447E9, 0.0, 2023-02-10 11:41:20.211
165.0, 8488.477288303053, 187500.0, 187500.0, 187500.0, -187500.02235174447, 187500.0, -187500.02235174447, -187500.02235174447, -0.022, 0.026000000000000002, 0.998, 192.0, 0.0, 0.0, 0.0, 0.0, 0.0, 0.0, 0.0, 0.0, 0.0, 1.67604728021942E9, 0.0, 2023-02-10 11:41:20.219
166.0, 8730.032590631556, 187500.0, 187500.0, 187500.0, -187500.02235174447, 187500.0, -187500.02235174447, -187500.02235174447, -0.022, 0.026000000000000002, 0.998, 192.0, 0.0, 0.0, 0.0, 0.0, 0.0, 0.0, 0.0, 0.0, 0.0, 1.67604728021944E9, 0.0, 2023-02-10 11:41:20.219
167.0, 8705.222154286164, 187500.0, 187500.0, 187500.0, -187500.02235174447, 187500.0, -187500.02235174447, -187500.02235174447, -0.022, 0.026000000000000002, 0.998, 192.0, 0.0, 0.0, 0.0, 0.0, 0.0, 0.0, 0.0, 0.0, 0.0, 1.676047280226512E9, 0.0, 2023-02-10 11:41:20.226
168.0, 8371.80118224635, 187500.0, 187500.0, 187500.0, -187500.02235174447, 187500.0, -187500.02235174447, -187500.02235174447, -0.022, 0.026000000000000002, 0.998, 192.0, 0.0, 0.0, 0.0, 0.0, 0.0, 0.0, 0.0, 0.0, 0.0, 1.676047280226535E9, 0.0, 2023-02-10 11:41:20.226
169.0, 8458.81652341086, 187500.0, 187500.0, 187500.0, -187500.02235174447, 187500.0, -187500.02235174447, -187500.02235174447, -0.022, 0.026000000000000002, 0.998, 192.0, 0.0, 0.0, 0.0, 0.0, 0.0, 0.0, 0.0, 0.0, 0.0, 1.676047280233972E9, 0.0, 2023-02-10 11:41:20.233
170.0, 8559.689946137662, 187500.0, 187500.0, 187500.0, -187500.02235174447, 187500.0, -187500.02235174447, -187500.02235174447, -0.022, 0.026000000000000002, 0.998, 192.0, 0.0, 0.0, 0.0, 0.0, 0.0, 0.0, 0.0, 0.0, 0.0, 1.676047280233995E9, 0.0, 2023-02-10 11:41:20.233
171.0, 8515.411140371698, 187500.0, 187500.0, 187500.0, -187500.02235174447, 187500.0, -187500.02235174447, -187500.02235174447, -0.022, 0.026000000000000002, 0.998, 192.0, 0.0, 0.0, 0.0, 0.0, 0.0, 0.0, 0.0, 0.0, 0.0, 1.676047280242164E9, 0.0, 2023-02-10 11:41:20.242
172.0, 8546.994155287046, 187500.0, 187500.0, 187500.0, -187500.02235174447, 187500.0, -187500.02235174447, -187500.02235174447, -0.022, 0.026000000000000002, 0.998, 192.0, 0.0, 0.0, 0.0, 0.0, 0.0, 0.0, 0.0, 0.0, 0.0, 1.676047280242192E9, 0.0, 2023-02-10 11:41:20.242
173.0, 8680.47877317414, 187500.0, 187500.0, 187500.0, -187500.02235174447, 187500.0, -187500.02235174447, -187500.02235174447, -0.022, 0.026000000000000002, 0.998, 192.0, 0.0, 0.0, 0.0, 0.0, 0.0, 0.0, 0.0, 0.0, 0.0, 1.676047280250023E9, 0.0, 2023-02-10 11:41:20.250
174.0, 8561.07575429389, 187500.0, 187500.0, 187500.0, -187500.02235174447, 187500.0, -187500.02235174447, -187500.02235174447, -0.018000000000000002, 0.028, 1.0, 192.0, 255.0, 112.0, 0.0, 224.0, 31.0, 64.0, 0.0, 0.0, 0.0, 1.676047280250045E9, 0.0, 2023-02-10 11:41:20.250
175.0, 8460.62701471174, 187500.0, 187500.0, 187500.0, -187500.02235174447, 187500.0, -187500.02235174447, -187500.02235174447, -0.018000000000000002, 0.028, 1.0, 192.0, 0.0, 0.0, 0.0, 0.0, 0.0, 0.0, 0.0, 0.0, 0.0, 1.676047280256673E9, 0.0, 2023-02-10 11:41:20.256
176.0, 8440.488092957508, 187500.0, 187500.0, 187500.0, -187500.02235174447, 187500.0, -187500.02235174447, -187500.02235174447, -0.018000000000000002, 0.028, 1.0, 192.0, 0.0, 0.0, 0.0, 0.0, 0.0, 0.0, 0.0, 0.0, 0.0, 1.676047280256697E9, 0.0, 2023-02-10 11:41:20.256
177.0, 8650.438028626208, 187500.0, 187500.0, 187500.0, -187500.02235174447, 187500.0, -187500.02235174447, -187500.02235174447, -0.018000000000000002, 0.028, 1.0, 192.0, 0.0, 0.0, 0.0, 0.0, 0.0, 0.0, 0.0, 0.0, 0.0, 1.676047280263806E9, 0.0, 2023-02-10 11:41:20.263
178.0, 8544.535463396962, 187500.0, 187500.0, 187500.0, -187500.02235174447, 187500.0, -187500.02235174447, -187500.02235174447, -0.018000000000000002, 0.028, 1.0, 192.0, 0.0, 0.0, 0.0, 0.0, 0.0, 0.0, 0.0, 0.0, 0.0, 1.676047280263928E9, 0.0, 2023-02-10 11:41:20.263
179.0, 8372.024699690903, 187500.0, 187500.0, 187500.0, -187500.02235174447, 187500.0, -187500.02235174447, -187500.02235174447, -0.018000000000000002, 0.028, 1.0, 192.0, 0.0, 0.0, 0.0, 0.0, 0.0, 0.0, 0.0, 0.0, 0.0, 1.676047280271702E9, 0.0, 2023-02-10 11:41:20.271
180.0, 8513.06420720389, 187500.0, 187500.0, 187500.0, -187500.02235174447, 187500.0, -187500.02235174447, -187500.02235174447, -0.018000000000000002, 0.028, 1.0, 192.0, 0.0, 0.0, 0.0, 0.0, 0.0, 0.0, 0.0, 0.0, 0.0, 1.676047280278813E9, 0.0, 2023-02-10 11:41:20.278
181.0, 8716.465081747185, 187500.0, 187500.0, 187500.0, -187500.02235174447, 187500.0, -187500.02235174447, -187500.02235174447, -0.018000000000000002, 0.028, 1.0, 192.0, 0.0, 0.0, 0.0, 0.0, 0.0, 0.0, 0.0, 0.0, 0.0, 1.676047280278843E9, 0.0, 2023-02-10 11:41:20.278
182.0, 8556.136018769266, 187500.0, 187500.0, 187500.0, -187500.02235174447, 187500.0, -187500.02235174447, -187500.02235174447, -0.018000000000000002, 0.028, 1.0, 192.0, 0.0, 0.0, 0.0, 0.0, 0.0, 0.0, 0.0, 0.0, 0.0, 1.676047280286196E9, 0.0, 2023-02-10 11:41:20.286
183.0, 8510.739625780538, 187500.0, 187500.0, 187500.0, -187500.02235174447, 187500.0, -187500.02235174447, -187500.02235174447, -0.018000000000000002, 0.028, 1.0, 192.0, 0.0, 0.0, 0.0, 0.0, 0.0, 0.0, 0.0, 0.0, 0.0, 1.676047280286213E9, 0.0, 2023-02-10 11:41:20.286
184.0, 8404.702950084562, 187500.0, 187500.0, 187500.0, -187500.02235174447, 187500.0, -187500.02235174447, -187500.02235174447, -0.02, 0.032, 1.004, 192.0, 255.0, 96.0, 1.0, 0.0, 31.0, 96.0, 0.0, 0.0, 0.0, 1.676047280294318E9, 0.0, 2023-02-10 11:41:20.294
185.0, 8393.772947045916, 187500.0, 187500.0, 187500.0, -187500.02235174447, 187500.0, -187500.02235174447, -187500.02235174447, -0.02, 0.032, 1.004, 192.0, 0.0, 0.0, 0.0, 0.0, 0.0, 0.0, 0.0, 0.0, 0.0, 1.676047280294336E9, 0.0, 2023-02-10 11:41:20.294
186.0, 8628.332153359908, 187500.0, 187500.0, 187500.0, -187500.02235174447, 187500.0, -187500.02235174447, -187500.02235174447, -0.02, 0.032, 1.004, 192.0, 0.0, 0.0, 0.0, 0.0, 0.0, 0.0, 0.0, 0.0, 0.0, 1.676047280302271E9, 0.0, 2023-02-10 11:41:20.302
187.0, 8524.888280020748, 187500.0, 187500.0, 187500.0, -187500.02235174447, 187500.0, -187500.02235174447, -187500.02235174447, -0.02, 0.032, 1.004, 192.0, 0.0, 0.0, 0.0, 0.0, 0.0, 0.0, 0.0, 0.0, 0.0, 1.676047280302286E9, 0.0, 2023-02-10 11:41:20.302
188.0, 8153.692859851463, 187500.0, 187500.0, 187500.0, -187500.02235174447, 187500.0, -187500.02235174447, -187500.02235174447, -0.02, 0.032, 1.004, 192.0, 0.0, 0.0, 0.0, 0.0, 0.0, 0.0, 0.0, 0.0, 0.0, 1.676047280308839E9, 0.0, 2023-02-10 11:41:20.308
189.0, 8509.331465879854, 187500.0, 187500.0, 187500.0, -187500.02235174447, 187500.0, -187500.02235174447, -187500.02235174447, -0.02, 0.032, 1.004, 192.0, 0.0, 0.0, 0.0, 0.0, 0.0, 0.0, 0.0, 0.0, 0.0, 1.676047280308861E9, 0.0, 2023-02-10 11:41:20.308
190.0, 8731.932488910257, 187500.0, 187500.0, 187500.0, -187500.02235174447, 187500.0, -187500.02235174447, -187500.02235174447, -0.02, 0.032, 1.004, 192.0, 0.0, 0.0, 0.0, 0.0, 0.0, 0.0, 0.0, 0.0, 0.0, 1.676047280316959E9, 0.0, 2023-02-10 11:41:20.316
191.0, 8466.371413036753, 187500.0, 187500.0, 187500.0, -187500.02235174447, 187500.0, -187500.02235174447, -187500.02235174447, -0.02, 0.032, 1.004, 192.0, 0.0, 0.0, 0.0, 0.0, 0.0, 0.0, 0.0, 0.0, 0.0, 1.67604728031698E9, 0.0, 2023-02-10 11:41:20.316
192.0, 8231.164006133558, 187500.0, 187500.0, 187500.0, -187500.02235174447, 187500.0, -187500.02235174447, -187500.02235174447, -0.02, 0.032, 1.004, 192.0, 0.0, 0.0, 0.0, 0.0, 0.0, 0.0, 0.0, 0.0, 0.0, 1.676047280324982E9, 0.0, 2023-02-10 11:41:20.324
193.0, 8320.973315354982, 187500.0, 187500.0, 187500.0, -187500.02235174447, 187500.0, -187500.02235174447, -187500.02235174447, -0.032, 0.032, 1.004, 192.0, 255.0, 0.0, 1.0, 0.0, 31.0, 96.0, 0.0, 0.0, 0.0, 1.676047280325115E9, 0.0, 2023-02-10 11:41:20.325
194.0, 8515.54525083843, 187500.0, 187500.0, 187500.0, -187500.02235174447, 187500.0, -187500.02235174447, -187500.02235174447, -0.032, 0.032, 1.004, 192.0, 0.0, 0.0, 0.0, 0.0, 0.0, 0.0, 0.0, 0.0, 0.0, 1.676047280331884E9, 0.0, 2023-02-10 11:41:20.331
195.0, 8507.364512367787, 187500.0, 187500.0, 187500.0, -187500.02235174447, 187500.0, -187500.02235174447, -187500.02235174447, -0.032, 0.032, 1.004, 192.0, 0.0, 0.0, 0.0, 0.0, 0.0, 0.0, 0.0, 0.0, 0.0, 1.676047280338596E9, 0.0, 2023-02-10 11:41:20.338
196.0, 8374.3269293698, 187500.0, 187500.0, 187500.0, -187500.02235174447, 187500.0, -187500.02235174447, -187500.02235174447, -0.032, 0.032, 1.004, 192.0, 0.0, 0.0, 0.0, 0.0, 0.0, 0.0, 0.0, 0.0, 0.0, 1.676047280338616E9, 0.0, 2023-02-10 11:41:20.338
197.0, 8819.327809730508, 187500.0, 187500.0, 187500.0, -187500.02235174447, 187500.0, -187500.02235174447, -187500.02235174447, -0.032, 0.032, 1.004, 192.0, 0.0, 0.0, 0.0, 0.0, 0.0, 0.0, 0.0, 0.0, 0.0, 1.676047280346749E9, 0.0, 2023-02-10 11:41:20.346
198.0, 8647.845226269392, 187500.0, 187500.0, 187500.0, -187500.02235174447, 187500.0, -187500.02235174447, -187500.02235174447, -0.032, 0.032, 1.004, 192.0, 0.0, 0.0, 0.0, 0.0, 0.0, 0.0, 0.0, 0.0, 0.0, 1.676047280346773E9, 0.0, 2023-02-10 11:41:20.346
199.0, 8324.862518890204, 187500.0, 187500.0, 187500.0, -187500.02235174447, 187500.0, -187500.02235174447, -187500.02235174447, -0.032, 0.032, 1.004, 192.0, 0.0, 0.0, 0.0, 0.0, 0.0, 0.0, 0.0, 0.0, 0.0, 1.67604728035471E9, 0.0, 2023-02-10 11:41:20.354
200.0, 8427.367618962244, 187500.0, 187500.0, 187500.0, -187500.02235174447, 187500.0, -187500.02235174447, -187500.02235174447, -0.032, 0.032, 1.004, 192.0, 0.0, 0.0, 0.0, 0.0, 0.0, 0.0, 0.0, 0.0, 0.0, 1.676047280354737E9, 0.0, 2023-02-10 11:41:20.354
201.0, 8227.923003187538, 187500.0, 187500.0, 187500.0, -187500.02235174447, 187500.0, -187500.02235174447, -187500.02235174447, -0.032, 0.032, 1.004, 192.0, 0.0, 0.0, 0.0, 0.0, 0.0, 0.0, 0.0, 0.0, 0.0, 1.676047280361682E9, 0.0, 2023-02-10 11:41:20.361
202.0, 8189.567409702231, 187500.0, 187500.0, 187500.0, -187500.02235174447, 187500.0, -187500.02235174447, -187500.02235174447, -0.032, 0.032, 1.004, 192.0, 0.0, 0.0, 0.0, 0.0, 0.0, 0.0, 0.0, 0.0, 0.0, 1.67604728036171E9, 0.0, 2023-02-10 11:41:20.361
