%OpenBCI Raw EEG Data
%Number of channels = 8
%Sample Rate = 250 Hz
%Board = OpenBCI_GUI$BoardCytonSerial
Sample Index, EXG Channel 0, EXG Channel 1, EXG Channel 2, EXG Channel 3, EXG Channel 4, EXG Channel 5, EXG Channel 6, EXG Channel 7, Accel Channel 0, Accel Channel 1, Accel Channel 2, Other, Other, Other, Other, Other, Other, Other, Analog Channel 0, Analog Channel 1, Analog Channel 2, Timestamp, Other, Timestamp (Formatted)
74.0, 5828.552642888146, 187500.0, 187500.0, 187500.0, -187500.02235174447, 187500.0, -187500.02235174447, -187500.02235174447, 0.0, 0.0, 0.0, 192.0, 0.0, 0.0, 0.0, 0.0, 0.0, 0.0, 0.0, 0.0, 0.0, 1.676047489094783E9, 0.0, 2023-02-10 11:44:49.094
75.0, 6008.014799119806, 187500.0, 187500.0, 187500.0, -187500.02235174447, 187500.0, -187500.02235174447, -187500.02235174447, -0.028, 0.028, 1.0, 192.0, 255.0, 32.0, 0.0, 224.0, 31.0, 64.0, 0.0, 0.0, 0.0, 1.676047489094816E9, 0.0, 2023-02-10 11:44:49.094
76.0, 6035.842720966664, 187500.0, 187500.0, 187500.0, -187500.02235174447, 187500.0, -187500.02235174447, -187500.02235174447, -0.028, 0.028, 1.0, 192.0, 0.0, 0.0, 0.0, 0.0, 0.0, 0.0, 0.0, 0.0, 0.0, 1.676047489094833E9, 0.0, 2023-02-10 11:44:49.094
77.0, 5922.832301000632, 187500.0, 187500.0, 187500.0, -187500.02235174447, 187500.0, -187500.02235174447, -187500.02235174447, -0.028, 0.028, 1.0, 192.0, 0.0, 0.0, 0.0, 0.0, 0.0, 0.0, 0.0, 0.0, 0.0, 1.676047489094847E9, 0.0, 2023-02-10 11:44:49.094
78.0, 5929.604879570589, 187500.0, 187500.0, 187500.0, -187500.02235174447, 187500.0, -187500.02235174447, -187500.02235174447, -0.028, 0.028, 1.0, 192.0, 0.0, 0.0, 0.0, 0.0, 0.0, 0.0, 0.0, 0.0, 0.0, 1.676047489094861E9, 0.0, 2023-02-10 11:44:49.094
0.0, 0.0, 0.0, 0.0, 0.0, 0.0, 0.0, 0.0, 0.0, -0.02, 0.022, 1.002, 192.0, 255.0, 96.0, 0.0, 176.0, 31.0, 80.0, 0.0, 0.0, 0.0, 1.676047489175544E9, 0.0, 2023-02-10 11:44:49.175
1.0, 6354.9138730661725, 187500.0, 187500.0, 187500.0, -187500.02235174447, 187500.0, -187500.02235174447, -187500.02235174447, -0.02, 0.022, 1.002, 192.0, 0.0, 0.0, 0.0, 0.0, 0.0, 0.0, 0.0, 0.0, 0.0, 1.676047489182192E9, 0.0, 2023-02-10 11:44:49.182
2.0, 6123.841538887208, 187500.0, 187500.0, 187500.0, -187500.02235174447, 187500.0, -187500.02235174447, -187500.02235174447, -0.02, 0.022, 1.002, 192.0, 0.0, 0.0, 0.0, 0.0, 0.0, 0.0, 0.0, 0.0, 0.0, 1.676047489182222E9, 0.0, 2023-02-10 11:44:49.182
3.0, 5973.459002191902, 187500.0, 187500.0, 187500.0, -187500.02235174447, 187500.0, -187500.02235174447, -187500.02235174447, -0.02, 0.022, 1.002, 192.0, 0.0, 0.0, 0.0, 0.0, 0.0, 0.0, 0.0, 0.0, 0.0, 1.676047489190412E9, 0.0, 2023-02-10 11:44:49.190
4.0, 6271.8547906702515, 187500.0, 187500.0, 187500.0, -187500.02235174447, 187500.0, -187500.02235174447, -187500.02235174447, -0.02, 0.022, 1.002, 192.0, 0.0, 0.0, 0.0, 0.0, 0.0, 0.0, 0.0, 0.0, 0.0, 1.676047489190456E9, 0.0, 2023-02-10 11:44:49.190
5.0, 6220.535185400866, 187500.0, 187500.0, 187500.0, -187500.02235174447, 187500.0, -187500.02235174447, -187500.02235174447, -0.02, 0.022, 1.002, 192.0, 0.0, 0.0, 0.0, 0.0, 0.0, 0.0, 0.0, 0.0, 0.0, 1.676047489198221E9, 0.0, 2023-02-10 11:44:49.198
6.0, 6088.235209969904, 187500.0, 187500.0, 187500.0, -187500.02235174447, 187500.0, -187500.02235174447, -187500.02235174447, -0.02, 0.022, 1.002, 192.0, 0.0, 0.0, 0.0, 0.0, 0.0, 0.0, 0.0, 0.0, 0.0, 1.67604748919825E9, 0.0, 2023-02-10 11:44:49.198
7.0, 6141.678230962543, 187500.0, 187500.0, 187500.0, -187500.02235174447, 187500.0, -187500.02235174447, -187500.02235174447, -0.02, 0.022, 1.002, 192.0, 0.0, 0.0, 0.0, 0.0, 0.0, 0.0, 0.0, 0.0, 0.0, 1.676047489205415E9, 0.0, 2023-02-10 11:44:49.205
8.0, 6309.025741699426, 187500.0, 187500.0, 187500.0, -187500.02235174447, 187500.0, -187500.02235174447, -187500.02235174447, -0.028, 0.028, 0.998, 192.0, 255.0, 32.0, 0.0, 224.0, 31.0, 48.0, 0.0, 0.0, 0.0, 1.676047489211863E9, 0.0, 2023-02-10 11:44:49.211
9.0, 6287.031625155405, 187500.0, 187500.0, 187500.0, -187500.02235174447, 187500.0, -187500.02235174447, -187500.02235174447, -0.028, 0.028, 0.998, 192.0, 0.0, 0.0, 0.0, 0.0, 0.0, 0.0, 0.0, 0.0, 0.0, 1.676047489211893E9, 0.0, 2023-02-10 11:44:49.211
10.0, 6158.59850151521, 187500.0, 187500.0, 187500.0, -187500.02235174447, 187500.0, -187500.02235174447, -187500.02235174447, -0.028, 0.028, 0.998, 192.0, 0.0, 0.0, 0.0, 0.0, 0.0, 0.0, 0.0, 0.0, 0.0, 1.676047489219987E9, 0.0, 2023-02-10 11:44:49.219
11.0, 6061.6589858125435, 187500.0, 187500.0, 187500.0, -187500.02235174447, 187500.0, -187500.02235174447, -187500.02235174447, -0.028, 0.028, 0.998, 192.0, 0.0, 0.0, 0.0, 0.0, 0.0, 0.0, 0.0, 0.0, 0.0, 1.676047489220258E9, 0.0, 2023-02-10 11:44:49.220
12.0, 6299.168622394636, 187500.0, 187500.0, 187500.0, -187500.02235174447, 187500.0, -187500.02235174447, -187500.02235174447, -0.028, 0.028, 0.998, 192.0, 0.0, 0.0, 0.0, 0.0, 0.0, 0.0, 0.0, 0.0, 0.0, 1.676047489228022E9, 0.0, 2023-02-10 11:44:49.228
13.0, 6285.265837343435, 187500.0, 187500.0, 187500.0, -187500.02235174447, 187500.0, -187500.02235174447, -187500.02235174447, -0.028, 0.028, 0.998, 192.0, 0.0, 0.0, 0.0, 0.0, 0.0, 0.0, 0.0, 0.0, 0.0, 1.67604748922806E9, 0.0, 2023-02-10 11:44:49.228
14.0, 6070.5326283613, 187500.0, 187500.0, 187500.0, -187500.02235174447, 187500.0, -187500.02235174447, -187500.02235174447, -0.028, 0.028, 0.998, 192.0, 0.0, 0.0, 0.0, 0.0, 0.0, 0.0, 0.0, 0.0, 0.0, 1.67604748923482E9, 0.0, 2023-02-10 11:44:49.234
15.0, 6023.839834194164, 187500.0, 187500.0, 187500.0, -187500.02235174447, 187500.0, -187500.02235174447, -187500.02235174447, -0.028, 0.028, 0.998, 192.0, 0.0, 0.0, 0.0, 0.0, 0.0, 0.0, 0.0, 0.0, 0.0, 1.676047489234849E9, 0.0, 2023-02-10 11:44:49.234
16.0, 6142.415838529568, 187500.0, 187500.0, 187500.0, -187500.02235174447, 187500.0, -187500.02235174447, -187500.02235174447, -0.028, 0.028, 0.998, 192.0, 0.0, 0.0, 0.0, 0.0, 0.0, 0.0, 0.0, 0.0, 0.0, 1.676047489242563E9, 0.0, 2023-02-10 11:44:49.242
17.0, 6336.0713524903485, 187500.0, 187500.0, 187500.0, -187500.02235174447, 187500.0, -187500.02235174447, -187500.02235174447, -0.03, 0.026000000000000002, 1.002, 192.0, 255.0, 16.0, 0.0, 208.0, 31.0, 80.0, 0.0, 0.0, 0.0, 1.676047489242601E9, 0.0, 2023-02-10 11:44:49.242
18.0, 6210.476900395978, 187500.0, 187500.0, 187500.0, -187500.02235174447, 187500.0, -187500.02235174447, -187500.02235174447, -0.03, 0.026000000000000002, 1.002, 192.0, 0.0, 0.0, 0.0, 0.0, 0.0, 0.0, 0.0, 0.0, 0.0, 1.67604748925041E9, 0.0, 2023-02-10 11:44:49.250
19.0, 6037.116770400617, 187500.0, 187500.0, 187500.0, -187500.02235174447, 187500.0, -187500.02235174447, -187500.02235174447, -0.03, 0.026000000000000002, 1.002, 192.0, 0.0, 0.0, 0.0, 0.0, 0.0, 0.0, 0.0, 0.0, 0.0, 1.676047489250442E9, 0.0, 2023-02-10 11:44:49.250
20.0, 6092.68320711651, 187500.0, 187500.0, 187500.0, -187500.02235174447, 187500.0, -187500.02235174447, -187500.02235174447, -0.03, 0.026000000000000002, 1.002, 192.0, 0.0, 0.0, 0.0, 0.0, 0.0, 0.0, 0.0, 0.0, 0.0, 1.676047489257658E9, 0.0, 2023-02-10 11:44:49.257
21.0, 6224.3126302138135, 187500.0, 187500.0, 187500.0, -187500.02235174447, 187500.0, -187500.02235174447, -187500.02235174447, -0.03, 0.026000000000000002, 1.002, 192.0, 0.0, 0.0, 0.0, 0.0, 0.0, 0.0, 0.0, 0.0, 0.0, 1.676047489257689E9, 0.0, 2023-02-10 11:44:49.257
22.0, 6251.402944493645, 187500.0, 187500.0, 187500.0, -187500.02235174447, 187500.0, -187500.02235174447, -187500.02235174447, -0.03, 0.026000000000000002, 1.002, 192.0, 0.0, 0.0, 0.0, 0.0, 0.0, 0.0, 0.0, 0.0, 0.0, 1.676047489264166E9, 0.0, 2023-02-10 11:44:49.264
23.0, 6149.814265944275, 187500.0, 187500.0, 187500.0, -187500.02235174447, 187500.0, -187500.02235174447, -187500.02235174447, -0.03, 0.026000000000000002, 1.002, 192.0, 0.0, 0.0, 0.0, 0.0, 0.0, 0.0, 0.0, 0.0, 0.0, 1.6760474892642E9, 0.0, 2023-02-10 11:44:49.264
24.0, 6131.485835490923, 187500.0, 187500.0, 187500.0, -187500.02235174447, 187500.0, -187500.02235174447, -187500.02235174447, -0.03, 0.026000000000000002, 1.002, 192.0, 0.0, 0.0, 0.0, 0.0, 0.0, 0.0, 0.0, 0.0, 0.0, 1.676047489272172E9, 0.0, 2023-02-10 11:44:49.272
25.0, 6223.530319157877, 187500.0, 187500.0, 187500.0, -187500.02235174447, 187500.0, -187500.02235174447, -187500.02235174447, -0.03, 0.026000000000000002, 1.002, 192.0, 0.0, 0.0, 0.0, 0.0, 0.0, 0.0, 0.0, 0.0, 0.0, 1.676047489280228E9, 0.0, 2023-02-10 11:44:49.280
26.0, 6145.746248453409, 187500.0, 187500.0, 187500.0, -187500.02235174447, 187500.0, -187500.02235174447, -187500.02235174447, -0.03, 0.026000000000000002, 1.002, 192.0, 0.0, 0.0, 0.0, 0.0, 0.0, 0.0, 0.0, 0.0, 0.0, 1.676047489280373E9, 0.0, 2023-02-10 11:44:49.280
27.0, 6029.76304647482, 187500.0, 187500.0, 187500.0, -187500.02235174447, 187500.0, -187500.02235174447, -187500.02235174447, -0.018000000000000002, 0.02, 1.012, 192.0, 255.0, 112.0, 0.0, 160.0, 31.0, 160.0, 0.0, 0.0, 0.0, 1.676047489287379E9, 0.0, 2023-02-10 11:44:49.287
28.0, 6017.201366090938, 187500.0, 187500.0, 187500.0, -187500.02235174447, 187500.0, -187500.02235174447, -187500.02235174447, -0.018000000000000002, 0.02, 1.012, 192.0, 0.0, 0.0, 0.0, 0.0, 0.0, 0.0, 0.0, 0.0, 0.0, 1.676047489287424E9, 0.0, 2023-02-10 11:44:49.287
29.0, 6127.931908122529, 187500.0, 187500.0, 187500.0, -187500.02235174447, 187500.0, -187500.02235174447, -187500.02235174447, -0.018000000000000002, 0.02, 1.012, 192.0, 0.0, 0.0, 0.0, 0.0, 0.0, 0.0, 0.0, 0.0, 0.0, 1.67604748929479E9, 0.0, 2023-02-10 11:44:49.294
30.0, 6308.019913198938, 187500.0, 187500.0, 187500.0, -187500.02235174447, 187500.0, -187500.02235174447, -187500.02235174447, -0.018000000000000002, 0.02, 1.012, 192.0, 0.0, 0.0, 0.0, 0.0, 0.0, 0.0, 0.0, 0.0, 0.0, 1.676047489294829E9, 0.0, 2023-02-10 11:44:49.294
31.0, 6244.317441501313, 187500.0, 187500.0, 187500.0, -187500.02235174447, 187500.0, -187500.02235174447, -187500.02235174447, -0.018000000000000002, 0.02, 1.012, 192.0, 0.0, 0.0, 0.0, 0.0, 0.0, 0.0, 0.0, 0.0, 0.0, 1.676047489302763E9, 0.0, 2023-02-10 11:44:49.302
32.0, 6084.569523879233, 187500.0, 187500.0, 187500.0, -187500.02235174447, 187500.0, -187500.02235174447, -187500.02235174447, -0.018000000000000002, 0.02, 1.012, 192.0, 0.0, 0.0, 0.0, 0.0, 0.0, 0.0, 0.0, 0.0, 0.0, 1.676047489302791E9, 0.0, 2023-02-10 11:44:49.302
33.0, 6176.345786612724, 187500.0, 187500.0, 187500.0, -187500.02235174447, 187500.0, -187500.02235174447, -187500.02235174447, -0.018000000000000002, 0.02, 1.012, 192.0, 0.0, 0.0, 0.0, 0.0, 0.0, 0.0, 0.0, 0.0, 0.0, 1.676047489310985E9, 0.0, 2023-02-10 11:44:49.310
34.0, 6244.540958945866, 187500.0, 187500.0, 187500.0, -187500.02235174447, 187500.0, -187500.02235174447, -187500.02235174447, -0.018000000000000002, 0.02, 1.012, 192.0, 0.0, 0.0, 0.0, 0.0, 0.0, 0.0, 0.0, 0.0, 0.0, 1.676047489311033E9, 0.0, 2023-02-10 11:44:49.311
35.0, 6031.059447653228, 187500.0, 187500.0, 187500.0, -187500.02235174447, 187500.0, -187500.02235174447, -187500.02235174447, -0.018000000000000002, 0.02, 1.012, 192.0, 0.0, 0.0, 0.0, 0.0, 0.0, 0.0, 0.0, 0.0, 0.0, 1.676047489317326E9, 0.0, 2023-02-10 11:44:49.317
36.0, 5988.680540165966, 187500.0, 187500.0, 187500.0, -187500.02235174447, 187500.0, -187500.02235174447, -187500.02235174447, -0.018000000000000002, 0.02, 1.012, 192.0, 0.0, 0.0, 0.0, 0.0, 0.0, 0.0, 0.0, 0.0, 0.0, 1.676047489317361E9, 0.0, 2023-02-10 11:44:49.317
37.0, 6178.089222680238, 187500.0, 187500.0, 187500.0, -187500.02235174447, 187500.0, -187500.02235174447, -187500.02235174447, -0.014, 0.026000000000000002, 1.018, 192.0, 255.0, 144.0, 0.0, 208.0, 31.0, 208.0, 0.0, 0.0, 0.0, 1.676047489325465E9, 0.0, 2023-02-10 11:44:49.325
38.0, 6296.061729915349, 187500.0, 187500.0, 187500.0, -187500.02235174447, 187500.0, -187500.02235174447, -187500.02235174447, -0.014, 0.026000000000000002, 1.018, 192.0, 0.0, 0.0, 0.0, 0.0, 0.0, 0.0, 0.0, 0.0, 0.0, 1.676047489325498E9, 0.0, 2023-02-10 11:44:49.325
39.0, 6121.584012697222, 187500.0, 187500.0, 187500.0, -187500.02235174447, 187500.0, -187500.02235174447, -187500.02235174447, -0.014, 0.026000000000000002, 1.018, 192.0, 0.0, 0.0, 0.0, 0.0, 0.0, 0.0, 0.0, 0.0, 0.0, 1.676047489332378E9, 0.0, 2023-02-10 11:44:49.332
40.0, 5961.165542741483, 187500.0, 187500.0, 187500.0, -187500.02235174447, 187500.0, -187500.02235174447, -187500.02235174447, -0.014, 0.026000000000000002, 1.018, 192.0, 0.0, 0.0, 0.0, 0.0, 0.0, 0.0, 0.0, 0.0, 0.0, 1.676047489340826E9, 0.0, 2023-02-10 11:44:49.340
41.0, 6014.385046289569, 187500.0, 187500.0, 187500.0, -187500.02235174447, 187500.0, -187500.02235174447, -187500.02235174447, -0.014, 0.026000000000000002, 1.018, 192.0, 0.0, 0.0, 0.0, 0.0, 0.0, 0.0, 0.0, 0.0, 0.0, 1.676047489341098E9, 0.0, 2023-02-10 11:44:49.341
42.0, 6173.149487155615, 187500.0, 187500.0, 187500.0, -187500.02235174447, 187500.0, -187500.02235174447, -187500.02235174447, -0.014, 0.026000000000000002, 1.018, 192.0, 0.0, 0.0, 0.0, 0.0, 0.0, 0.0, 0.0, 0.0, 0.0, 1.676047489346988E9, 0.0, 2023-02-10 11:44:49.346
43.0, 6227.03954303736, 187500.0, 187500.0, 187500.0, -187500.02235174447, 187500.0, -187500.02235174447, -187500.02235174447, -0.014, 0.026000000000000002, 1.018, 192.0, 0.0, 0.0, 0.0, 0.0, 0.0, 0.0, 0.0, 0.0, 0.0, 1.676047489347017E9, 0.0, 2023-02-10 11:44:49.347
44.0, 6101.914477576552, 187500.0, 187500.0, 187500.0, -187500.02235174447, 187500.0, -187500.02235174447, -187500.02235174447, -0.014, 0.026000000000000002, 1.018, 192.0, 0.0, 0.0, 0.0, 0.0, 0.0, 0.0, 0.0, 0.0, 0.0, 1.676047489354959E9, 0.0, 2023-02-10 11:44:49.354
45.0, 6120.891108619107, 187500.0, 187500.0, 187500.0, -187500.02235174447, 187500.0, -187500.02235174447, -187500.02235174447, -0.014, 0.026000000000000002, 1.018, 192.0, 0.0, 0.0, 0.0, 0.0, 0.0, 0.0, 0.0, 0.0, 0.0, 1.676047489355014E9, 0.0, 2023-02-10 11:44:49.355
46.0, 6181.285522137347, 187500.0, 187500.0, 187500.0, -187500.02235174447, 187500.0, -187500.02235174447, -187500.02235174447, -0.014, 0.026000000000000002, 1.018, 192.0, 0.0, 0.0, 0.0, 0.0, 0.0, 0.0, 0.0, 0.0, 0.0, 1.676047489363089E9, 0.0, 2023-02-10 11:44:49.363
47.0, 6097.265314729848, 187500.0, 187500.0, 187500.0, -187500.02235174447, 187500.0, -187500.02235174447, -187500.02235174447, -0.012, 0.026000000000000002, 1.012, 192.0, 255.0, 160.0, 0.0, 208.0, 31.0, 160.0, 0.0, 0.0, 0.0, 1.676047489363121E9, 0.0, 2023-02-10 11:44:49.363
48.0, 5913.288106118215, 187500.0, 187500.0, 187500.0, -187500.02235174447, 187500.0, -187500.02235174447, -187500.02235174447, -0.012, 0.026000000000000002, 1.012, 192.0, 0.0, 0.0, 0.0, 0.0, 0.0, 0.0, 0.0, 0.0, 0.0, 1.676047489370039E9, 0.0, 2023-02-10 11:44:49.370
49.0, 6072.052546984261, 187500.0, 187500.0, 187500.0, -187500.02235174447, 187500.0, -187500.02235174447, -187500.02235174447, -0.012, 0.026000000000000002, 1.012, 192.0, 0.0, 0.0, 0.0, 0.0, 0.0, 0.0, 0.0, 0.0, 0.0, 1.676047489370077E9, 0.0, 2023-02-10 11:44:49.370
50.0, 6259.784848664385, 187500.0, 187500.0, 187500.0, -187500.02235174447, 187500.0, -187500.02235174447, -187500.02235174447, -0.012, 0.026000000000000002, 1.012, 192.0, 0.0, 0.0, 0.0, 0.0, 0.0, 0.0, 0.0, 0.0, 0.0, 1.676047489378308E9, 0.0, 2023-02-10 11:44:49.378
51.0, 6186.448775106523, 187500.0, 187500.0, 187500.0, -187500.02235174447, 187500.0, -187500.02235174447, -187500.02235174447, -0.012, 0.026000000000000002, 1.012, 192.0, 0.0, 0.0, 0.0, 0.0, 0.0, 0.0, 0.0, 0.0, 0.0, 1.676047489378338E9, 0.0, 2023-02-10 11:44:49.378
52.0, 6004.3714647735915, 187500.0, 187500.0, 187500.0, -187500.02235174447, 187500.0, -187500.02235174447, -187500.02235174447, -0.012, 0.026000000000000002, 1.012, 192.0, 0.0, 0.0, 0.0, 0.0, 0.0, 0.0, 0.0, 0.0, 0.0, 1.676047489384917E9, 0.0, 2023-02-10 11:44:49.384
53.0, 6011.52402299929, 187500.0, 187500.0, 187500.0, -187500.02235174447, 187500.0, -187500.02235174447, -187500.02235174447, -0.012, 0.026000000000000002, 1.012, 192.0, 0.0, 0.0, 0.0, 0.0, 0.0, 0.0, 0.0, 0.0, 0.0, 1.676047489384944E9, 0.0, 2023-02-10 11:44:49.384
54.0, 6151.378888056146, 187500.0, 187500.0, 187500.0, -187500.02235174447, 187500.0, -187500.02235174447, -187500.02235174447, -0.012, 0.026000000000000002, 1.012, 192.0, 0.0, 0.0, 0.0, 0.0, 0.0, 0.0, 0.0, 0.0, 0.0, 1.676047489392111E9, 0.0, 2023-02-10 11:44:49.392
55.0, 6102.272105487837, 187500.0, 187500.0, 187500.0, -187500.02235174447, 187500.0, -187500.02235174447, -187500.02235174447, -0.012, 0.026000000000000002, 1.012, 192.0, 0.0, 0.0, 0.0, 0.0, 0.0, 0.0, 0.0, 0.0, 0.0, 1.676047489400063E9, 0.0, 2023-02-10 11:44:49.400
56.0, 6100.148689764583, 187500.0, 187500.0, 187500.0, -187500.02235174447, 187500.0, -187500.02235174447, -187500.02235174447, -0.012, 0.026000000000000002, 1.012, 192.0, 0.0, 0.0, 0.0, 0.0, 0.0, 0.0, 0.0, 0.0, 0.0, 1.676047489400227E9, 0.0, 2023-02-10 11:44:49.400
57.0, 6091.923247805029, 187500.0, 187500.0, 187500.0, -187500.02235174447, 187500.0, -187500.02235174447, -187500.02235174447, -0.014, 0.026000000000000002, 0.998, 192.0, 255.0, 144.0, 0.0, 208.0, 31.0, 48.0, 0.0, 0.0, 0.0, 1.676047489407889E9, 0.0, 2023-02-10 11:44:49.407
58.0, 6161.571283527766, 187500.0, 187500.0, 187500.0, -187500.02235174447, 187500.0, -187500.02235174447, -187500.02235174447, -0.014, 0.026000000000000002, 0.998, 192.0, 0.0, 0.0, 0.0, 0.0, 0.0, 0.0, 0.0, 0.0, 0.0, 1.676047489407925E9, 0.0, 2023-02-10 11:44:49.407
59.0, 6160.945434683017, 187500.0, 187500.0, 187500.0, -187500.02235174447, 187500.0, -187500.02235174447, -187500.02235174447, -0.014, 0.026000000000000002, 0.998, 192.0, 0.0, 0.0, 0.0, 0.0, 0.0, 0.0, 0.0, 0.0, 0.0, 1.676047489414585E9, 0.0, 2023-02-10 11:44:49.414
60.0, 6029.04779065225, 187500.0, 187500.0, 187500.0, -187500.02235174447, 187500.0, -187500.02235174447, -187500.02235174447, -0.014, 0.026000000000000002, 0.998, 192.0, 0.0, 0.0, 0.0, 0.0, 0.0, 0.0, 0.0, 0.0, 0.0, 1.67604748941461E9, 0.0, 2023-02-10 11:44:49.414
61.0, 5868.852838141065, 187500.0, 187500.0, 187500.0, -187500.02235174447, 187500.0, -187500.02235174447, -187500.02235174447, -0.014, 0.026000000000000002, 0.998, 192.0, 0.0, 0.0, 0.0, 0.0, 0.0, 0.0, 0.0, 0.0, 0.0, 1.676047489422656E9, 0.0, 2023-02-10 11:44:49.422
62.0, 5989.015816332796, 187500.0, 187500.0, 187500.0, -187500.02235174447, 187500.0, -187500.02235174447, -187500.02235174447, -0.014, 0.026000000000000002, 0.998, 192.0, 0.0, 0.0, 0.0, 0.0, 0.0, 0.0, 0.0, 0.0, 0.0, 1.676047489422727E9, 0.0, 2023-02-10 11:44:49.422
63.0, 6205.805385804819, 187500.0, 187500.0, 187500.0, -187500.02235174447, 187500.0, -187500.02235174447, -187500.02235174447, -0.014, 0.026000000000000002, 0.998, 192.0, 0.0, 0.0, 0.0, 0.0, 0.0, 0.0, 0.0, 0.0, 0.0, 1.676047489430695E9, 0.0, 2023-02-10 11:44:49.430
64.0, 6195.411824633101, 187500.0, 187500.0, 187500.0, -187500.02235174447, 187500.0, -187500.02235174447, -187500.02235174447, -0.014, 0.026000000000000002, 0.998, 192.0, 0.0, 0.0, 0.0, 0.0, 0.0, 0.0, 0.0, 0.0, 0.0, 1.676047489430726E9, 0.0, 2023-02-10 11:44:49.430
65.0, 6011.032284621273, 187500.0, 187500.0, 187500.0, -187500.02235174447, 187500.0, -187500.02235174447, -187500.02235174447, -0.014, 0.026000000000000002, 0.998, 192.0, 0.0, 0.0, 0.0, 0.0, 0.0, 0.0, 0.0, 0.0, 0.0, 1.676047489437735E9, 0.0, 2023-02-10 11:44:49.437
66.0, 6022.454026037935, 187500.0, 187500.0, 187500.0, -187500.02235174447, 187500.0, -187500.02235174447, -187500.02235174447, -0.014, 0.026000000000000002, 0.994, 192.0, 255.0, 144.0, 0.0, 208.0, 31.0, 16.0, 0.0, 0.0, 0.0, 1.676047489437768E9, 0.0, 2023-02-10 11:44:49.437
67.0, 6176.8822284796515, 187500.0, 187500.0, 187500.0, -187500.02235174447, 187500.0, -187500.02235174447, -187500.02235174447, -0.014, 0.026000000000000002, 0.994, 192.0, 0.0, 0.0, 0.0, 0.0, 0.0, 0.0, 0.0, 0.0, 0.0, 1.676047489445187E9, 0.0, 2023-02-10 11:44:49.445
68.0, 6097.868811830141, 187500.0, 187500.0, 187500.0, -187500.02235174447, 187500.0, -187500.02235174447, -187500.02235174447, -0.014, 0.026000000000000002, 0.994, 192.0, 0.0, 0.0, 0.0, 0.0, 0.0, 0.0, 0.0, 0.0, 0.0, 1.676047489445217E9, 0.0, 2023-02-10 11:44:49.445
69.0, 5864.1366200609955, 187500.0, 187500.0, 187500.0, -187500.02235174447, 187500.0, -187500.02235174447, -187500.02235174447, -0.014, 0.026000000000000002, 0.994, 192.0, 0.0, 0.0, 0.0, 0.0, 0.0, 0.0, 0.0, 0.0, 0.0, 1.676047489452287E9, 0.0, 2023-02-10 11:44:49.452
70.0, 5919.703056776889, 187500.0, 187500.0, 187500.0, -187500.02235174447, 187500.0, -187500.02235174447, -187500.02235174447, -0.014, 0.026000000000000002, 0.994, 192.0, 0.0, 0.0, 0.0, 0.0, 0.0, 0.0, 0.0, 0.0, 0.0, 1.676047489460487E9, 0.0, 2023-02-10 11:44:49.460
71.0, 6200.999760746928, 187500.0, 187500.0, 187500.0, -187500.02235174447, 187500.0, -187500.02235174447, -187500.02235174447, -0.014, 0.026000000000000002, 0.994, 192.0, 0.0, 0.0, 0.0, 0.0, 0.0, 0.0, 0.0, 0.0, 0.0, 1.676047489460696E9, 0.0, 2023-02-10 11:44:49.460
72.0, 6180.234990147947, 187500.0, 187500.0, 187500.0, -187500.02235174447, 187500.0, -187500.02235174447, -187500.02235174447, -0.014, 0.026000000000000002, 0.994, 192.0, 0.0, 0.0, 0.0, 0.0, 0.0, 0.0, 0.0, 0.0, 0.0, 1.676047489466936E9, 0.0, 2023-02-10 11:44:49.466
73.0, 5971.268531235281, 187500.0, 187500.0, 187500.0, -187500.02235174447, 187500.0, -187500.02235174447, -187500.02235174447, -0.014, 0.026000000000000002, 0.994, 192.0, 0.0, 0.0, 0.0, 0.0, 0.0, 0.0, 0.0, 0.0, 0.0, 1.676047489466965E9, 0.0, 2023-02-10 11:44:49.466
74.0, 5987.89822911003, 187500.0, 187500.0, 187500.0, -187500.02235174447, 187500.0, -187500.02235174447, -187500.02235174447, -0.014, 0.026000000000000002, 0.994, 192.0, 0.0, 0.0, 0.0, 0.0, 0.0, 0.0, 0.0, 0.0, 0.0, 1.676047489475107E9, 0.0, 2023-02-10 11:44:49.475
75.0, 6140.001850128395, 187500.0, 187500.0, 187500.0, -187500.02235174447, 187500.0, -187500.02235174447, -187500.02235174447, -0.014, 0.026000000000000002, 0.994, 192.0, 0.0, 0.0, 0.0, 0.0, 0.0, 0.0, 0.0, 0.0, 0.0, 1.676047489475149E9, 0.0, 2023-02-10 11:44:49.475
76.0, 6100.193393253493, 187500.0, 187500.0, 187500.0, -187500.02235174447, 187500.0, -187500.02235174447, -187500.02235174447, -0.012, 0.03, 0.996, 192.0, 255.0, 160.0, 0.0, 240.0, 31.0, 32.0, 0.0, 0.0, 0.0, 1.676047489482927E9, 0.0, 2023-02-10 11:44:49.482
77.0, 6105.06607354475, 187500.0, 187500.0, 187500.0, -187500.02235174447, 187500.0, -187500.02235174447, -187500.02235174447, -0.012, 0.03, 0.996, 192.0, 0.0, 0.0, 0.0, 0.0, 0.0, 0.0, 0.0, 0.0, 0.0, 1.676047489482956E9, 0.0, 2023-02-10 11:44:49.482
78.0, 5946.882778034542, 187500.0, 187500.0, 187500.0, -187500.02235174447, 187500.0, -187500.02235174447, -187500.02235174447, -0.012, 0.03, 0.996, 192.0, 0.0, 0.0, 0.0, 0.0, 0.0, 0.0, 0.0, 0.0, 0.0, 1.676047489491298E9, 0.0, 2023-02-10 11:44:49.491
79.0, 6088.414023925546, 187500.0, 187500.0, 187500.0, -187500.02235174447, 187500.0, -187500.02235174447, -187500.02235174447, -0.012, 0.03, 0.996, 192.0, 0.0, 0.0, 0.0, 0.0, 0.0, 0.0, 0.0, 0.0, 0.0, 1.676047489491327E9, 0.0, 2023-02-10 11:44:49.491
80.0, 6118.812396384764, 187500.0, 187500.0, 187500.0, -187500.02235174447, 187500.0, -187500.02235174447, -187500.02235174447, -0.012, 0.03, 0.996, 192.0, 0.0, 0.0, 0.0, 0.0, 0.0, 0.0, 0.0, 0.0, 0.0, 1.676047489497499E9, 0.0, 2023-02-10 11:44:49.497
81.0, 5921.178271910939, 187500.0, 187500.0, 187500.0, -187500.02235174447, 187500.0, -187500.02235174447, -187500.02235174447, -0.012, 0.03, 0.996, 192.0, 0.0, 0.0, 0.0, 0.0, 0.0, 0.0, 0.0, 0.0, 0.0, 1.676047489497523E9, 0.0, 2023-02-10 11:44:49.497
82.0, 5851.306718743649, 187500.0, 187500.0, 187500.0, -187500.02235174447, 187500.0, -187500.02235174447, -187500.02235174447, -0.012, 0.03, 0.996, 192.0, 0.0, 0.0, 0.0, 0.0, 0.0, 0.0, 0.0, 0.0, 0.0, 1.676047489505395E9, 0.0, 2023-02-10 11:44:49.505
83.0, 6043.777590248298, 187500.0, 187500.0, 187500.0, -187500.02235174447, 187500.0, -187500.02235174447, -187500.02235174447, -0.012, 0.03, 0.996, 192.0, 0.0, 0.0, 0.0, 0.0, 0.0, 0.0, 0.0, 0.0, 0.0, 1.676047489505422E9, 0.0, 2023-02-10 11:44:49.505
84.0, 6324.895480262695, 187500.0, 187500.0, 187500.0, -187500.02235174447, 187500.0, -187500.02235174447, -187500.02235174447, -0.012, 0.03, 0.996, 192.0, 0.0, 0.0, 0.0, 0.0, 0.0, 0.0, 0.0, 0.0, 0.0, 1.676047489512653E9, 0.0, 2023-02-10 11:44:49.512
85.0, 6200.955057258017, 187500.0, 187500.0, 187500.0, -187500.02235174447, 187500.0, -187500.02235174447, -187500.02235174447, -0.012, 0.03, 0.996, 192.0, 0.0, 0.0, 0.0, 0.0, 0.0, 0.0, 0.0, 0.0, 0.0, 1.676047489512686E9, 0.0, 2023-02-10 11:44:49.512
86.0, 5827.703276598844, 187500.0, 187500.0, 187500.0, -187500.02235174447, 187500.0, -187500.02235174447, -187500.02235174447, -0.018000000000000002, 0.034, 1.002, 192.0, 255.0, 112.0, 1.0, 16.0, 31.0, 80.0, 0.0, 0.0, 0.0, 1.676047489520228E9, 0.0, 2023-02-10 11:44:49.520
87.0, 5939.6855163199325, 187500.0, 187500.0, 187500.0, -187500.02235174447, 187500.0, -187500.02235174447, -187500.02235174447, -0.018000000000000002, 0.034, 1.002, 192.0, 0.0, 0.0, 0.0, 0.0, 0.0, 0.0, 0.0, 0.0, 0.0, 1.676047489527206E9, 0.0, 2023-02-10 11:44:49.527
88.0, 6131.7987599132975, 187500.0, 187500.0, 187500.0, -187500.02235174447, 187500.0, -187500.02235174447, -187500.02235174447, -0.018000000000000002, 0.034, 1.002, 192.0, 0.0, 0.0, 0.0, 0.0, 0.0, 0.0, 0.0, 0.0, 0.0, 1.676047489527237E9, 0.0, 2023-02-10 11:44:49.527
89.0, 6019.213023091916, 187500.0, 187500.0, 187500.0, -187500.02235174447, 187500.0, -187500.02235174447, -187500.02235174447, -0.018000000000000002, 0.034, 1.002, 192.0, 0.0, 0.0, 0.0, 0.0, 0.0, 0.0, 0.0, 0.0, 0.0, 1.676047489535168E9, 0.0, 2023-02-10 11:44:49.535
90.0, 5850.859683854543, 187500.0, 187500.0, 187500.0, -187500.02235174447, 187500.0, -187500.02235174447, -187500.02235174447, -0.018000000000000002, 0.034, 1.002, 192.0, 0.0, 0.0, 0.0, 0.0, 0.0, 0.0, 0.0, 0.0, 0.0, 1.676047489535196E9, 0.0, 2023-02-10 11:44:49.535
91.0, 5966.641720133033, 187500.0, 187500.0, 187500.0, -187500.02235174447, 187500.0, -187500.02235174447, -187500.02235174447, -0.018000000000000002, 0.034, 1.002, 192.0, 0.0, 0.0, 0.0, 0.0, 0.0, 0.0, 0.0, 0.0, 0.0, 1.676047489543208E9, 0.0, 2023-02-10 11:44:49.543
92.0, 6079.026291254318, 187500.0, 187500.0, 187500.0, -187500.02235174447, 187500.0, -187500.02235174447, -187500.02235174447, -0.018000000000000002, 0.034, 1.002, 192.0, 0.0, 0.0, 0.0, 0.0, 0.0, 0.0, 0.0, 0.0, 0.0, 1.676047489543237E9, 0.0, 2023-02-10 11:44:49.543
93.0, 6072.365471406636, 187500.0, 187500.0, 187500.0, -187500.02235174447, 187500.0, -187500.02235174447, -187500.02235174447, -0.018000000000000002, 0.034, 1.002, 192.0, 0.0, 0.0, 0.0, 0.0, 0.0, 0.0, 0.0, 0.0, 0.0, 1.676047489549782E9, 0.0, 2023-02-10 11:44:49.549
94.0, 5877.21239056735, 187500.0, 187500.0, 187500.0, -187500.02235174447, 187500.0, -187500.02235174447, -187500.02235174447, -0.018000000000000002, 0.034, 1.002, 192.0, 0.0, 0.0, 0.0, 0.0, 0.0, 0.0, 0.0, 0.0, 0.0, 1.676047489549832E9, 0.0, 2023-02-10 11:44:49.549
95.0, 5889.103518617573, 187500.0, 187500.0, 187500.0, -187500.02235174447, 187500.0, -187500.02235174447, -187500.02235174447, -0.018000000000000002, 0.034, 1.002, 192.0, 0.0, 0.0, 0.0, 0.0, 0.0, 0.0, 0.0, 0.0, 0.0, 1.676047489557876E9, 0.0, 2023-02-10 11:44:49.557
96.0, 6166.26514986338, 187500.0, 187500.0, 187500.0, -187500.02235174447, 187500.0, -187500.02235174447, -187500.02235174447, -0.014, 0.034, 0.998, 192.0, 255.0, 144.0, 1.0, 16.0, 31.0, 48.0, 0.0, 0.0, 0.0, 1.676047489557911E9, 0.0, 2023-02-10 11:44:49.557
97.0, 6134.078637847739, 187500.0, 187500.0, 187500.0, -187500.02235174447, 187500.0, -187500.02235174447, -187500.02235174447, -0.014, 0.034, 0.998, 192.0, 0.0, 0.0, 0.0, 0.0, 0.0, 0.0, 0.0, 0.0, 0.0, 1.676047489565704E9, 0.0, 2023-02-10 11:44:49.565
98.0, 5961.232597974849, 187500.0, 187500.0, 187500.0, -187500.02235174447, 187500.0, -187500.02235174447, -187500.02235174447, -0.014, 0.034, 0.998, 192.0, 0.0, 0.0, 0.0, 0.0, 0.0, 0.0, 0.0, 0.0, 0.0, 1.676047489565732E9, 0.0, 2023-02-10 11:44:49.565
99.0, 5933.784655783732, 187500.0, 187500.0, 187500.0, -187500.02235174447, 187500.0, -187500.02235174447, -187500.02235174447, -0.014, 0.034, 0.998, 192.0, 0.0, 0.0, 0.0, 0.0, 0.0, 0.0, 0.0, 0.0, 0.0, 1.676047489572982E9, 0.0, 2023-02-10 11:44:49.572
100.0, 6110.274030002836, 187500.0, 187500.0, 187500.0, -187500.02235174447, 187500.0, -187500.02235174447, -187500.02235174447, -0.014, 0.034, 0.998, 192.0, 0.0, 0.0, 0.0, 0.0, 0.0, 0.0, 0.0, 0.0, 0.0, 1.676047489573045E9, 0.0, 2023-02-10 11:44:49.573
101.0, 6101.959181065462, 187500.0, 187500.0, 187500.0, -187500.02235174447, 187500.0, -187500.02235174447, -187500.02235174447, -0.014, 0.034, 0.998, 192.0, 0.0, 0.0, 0.0, 0.0, 0.0, 0.0, 0.0, 0.0, 0.0, 1.676047489579477E9, 0.0, 2023-02-10 11:44:49.579
102.0, 5957.678670606455, 187500.0, 187500.0, 187500.0, -187500.02235174447, 187500.0, -187500.02235174447, -187500.02235174447, -0.014, 0.034, 0.998, 192.0, 0.0, 0.0, 0.0, 0.0, 0.0, 0.0, 0.0, 0.0, 0.0, 1.676047489587429E9, 0.0, 2023-02-10 11:44:49.587
103.0, 5904.6379810140115, 187500.0, 187500.0, 187500.0, -187500.02235174447, 187500.0, -187500.02235174447, -187500.02235174447, -0.014, 0.034, 0.998, 192.0, 0.0, 0.0, 0.0, 0.0, 0.0, 0.0, 0.0, 0.0, 0.0, 1.676047489587471E9, 0.0, 2023-02-10 11:44:49.587
104.0, 6015.14500560105, 187500.0, 187500.0, 187500.0, -187500.02235174447, 187500.0, -187500.02235174447, -187500.02235174447, -0.014, 0.034, 0.998, 192.0, 0.0, 0.0, 0.0, 0.0, 0.0, 0.0, 0.0, 0.0, 0.0, 1.676047489595515E9, 0.0, 2023-02-10 11:44:49.595
105.0, 6199.390435146146, 187500.0, 187500.0, 187500.0, -187500.02235174447, 187500.0, -187500.02235174447, -187500.02235174447, -0.014, 0.034, 0.998, 192.0, 0.0, 0.0, 0.0, 0.0, 0.0, 0.0, 0.0, 0.0, 0.0, 1.676047489595558E9, 0.0, 2023-02-10 11:44:49.595
106.0, 5993.6873309239545, 187500.0, 187500.0, 187500.0, -187500.02235174447, 187500.0, -187500.02235174447, -187500.02235174447, -0.014, 0.028, 0.988, 192.0, 255.0, 144.0, 0.0, 224.0, 30.0, 224.0, 0.0, 0.0, 0.0, 1.676047489602489E9, 0.0, 2023-02-10 11:44:49.602
107.0, 5773.880275950465, 187500.0, 187500.0, 187500.0, -187500.02235174447, 187500.0, -187500.02235174447, -187500.02235174447, -0.014, 0.028, 0.988, 192.0, 0.0, 0.0, 0.0, 0.0, 0.0, 0.0, 0.0, 0.0, 0.0, 1.676047489602532E9, 0.0, 2023-02-10 11:44:49.602
108.0, 5901.486385045813, 187500.0, 187500.0, 187500.0, -187500.02235174447, 187500.0, -187500.02235174447, -187500.02235174447, -0.014, 0.028, 0.988, 192.0, 0.0, 0.0, 0.0, 0.0, 0.0, 0.0, 0.0, 0.0, 0.0, 1.676047489609959E9, 0.0, 2023-02-10 11:44:49.609
109.0, 6032.199386620448, 187500.0, 187500.0, 187500.0, -187500.02235174447, 187500.0, -187500.02235174447, -187500.02235174447, -0.014, 0.028, 0.988, 192.0, 0.0, 0.0, 0.0, 0.0, 0.0, 0.0, 0.0, 0.0, 0.0, 1.676047489609985E9, 0.0, 2023-02-10 11:44:49.609
110.0, 5963.6912898649325, 187500.0, 187500.0, 187500.0, -187500.02235174447, 187500.0, -187500.02235174447, -187500.02235174447, -0.014, 0.028, 0.988, 192.0, 0.0, 0.0, 0.0, 0.0, 0.0, 0.0, 0.0, 0.0, 0.0, 1.67604748961854E9, 0.0, 2023-02-10 11:44:49.618
111.0, 5837.068657525619, 187500.0, 187500.0, 187500.0, -187500.02235174447, 187500.0, -187500.02235174447, -187500.02235174447, -0.014, 0.028, 0.988, 192.0, 0.0, 0.0, 0.0, 0.0, 0.0, 0.0, 0.0, 0.0, 0.0, 1.676047489618603E9, 0.0, 2023-02-10 11:44:49.618
112.0, 6005.623162463089, 187500.0, 187500.0, 187500.0, -187500.02235174447, 187500.0, -187500.02235174447, -187500.02235174447, -0.014, 0.028, 0.988, 192.0, 0.0, 0.0, 0.0, 0.0, 0.0, 0.0, 0.0, 0.0, 0.0, 1.676047489625442E9, 0.0, 2023-02-10 11:44:49.625
113.0, 6177.239856390936, 187500.0, 187500.0, 187500.0, -187500.02235174447, 187500.0, -187500.02235174447, -187500.02235174447, -0.014, 0.028, 0.988, 192.0, 0.0, 0.0, 0.0, 0.0, 0.0, 0.0, 0.0, 0.0, 0.0, 1.676047489625485E9, 0.0, 2023-02-10 11:44:49.625
114.0, 6113.403274226579, 187500.0, 187500.0, 187500.0, -187500.02235174447, 187500.0, -187500.02235174447, -187500.02235174447, -0.014, 0.028, 0.988, 192.0, 0.0, 0.0, 0.0, 0.0, 0.0, 0.0, 0.0, 0.0, 0.0, 1.676047489632622E9, 0.0, 2023-02-10 11:44:49.632
115.0, 5848.11041928654, 187500.0, 187500.0, 187500.0, -187500.02235174447, 187500.0, -187500.02235174447, -187500.02235174447, -0.014, 0.028, 0.988, 192.0, 0.0, 0.0, 0.0, 0.0, 0.0, 0.0, 0.0, 0.0, 0.0, 1.676047489632652E9, 0.0, 2023-02-10 11:44:49.632
116.0, 5837.180416247895, 187500.0, 187500.0, 187500.0, -187500.02235174447, 187500.0, -187500.02235174447, -187500.02235174447, -0.018000000000000002, 0.022, 0.992, 192.0, 255.0, 112.0, 0.0, 176.0, 31.0, 0.0, 0.0, 0.0, 0.0, 1.676047489640137E9, 0.0, 2023-02-10 11:44:49.640
117.0, 6065.615244581133, 187500.0, 187500.0, 187500.0, -187500.02235174447, 187500.0, -187500.02235174447, -187500.02235174447, -0.018000000000000002, 0.022, 0.992, 192.0, 0.0, 0.0, 0.0, 0.0, 0.0, 0.0, 0.0, 0.0, 0.0, 1.676047489647706E9, 0.0, 2023-02-10 11:44:49.647
118.0, 5957.030470017251, 187500.0, 187500.0, 187500.0, -187500.02235174447, 187500.0, -187500.02235174447, -187500.02235174447, -0.018000000000000002, 0.022, 0.992, 192.0, 0.0, 0.0, 0.0, 0.0, 0.0, 0.0, 0.0, 0.0, 0.0, 1.676047489647739E9, 0.0, 2023-02-10 11:44:49.647
119.0, 5789.4147383469035, 187500.0, 187500.0, 187500.0, -187500.02235174447, 187500.0, -187500.02235174447, -187500.02235174447, -0.018000000000000002, 0.022, 0.992, 192.0, 0.0, 0.0, 0.0, 0.0, 0.0, 0.0, 0.0, 0.0, 0.0, 1.676047489654791E9, 0.0, 2023-02-10 11:44:49.654
120.0, 5851.977271077308, 187500.0, 187500.0, 187500.0, -187500.02235174447, 187500.0, -187500.02235174447, -187500.02235174447, -0.018000000000000002, 0.022, 0.992, 192.0, 0.0, 0.0, 0.0, 0.0, 0.0, 0.0, 0.0, 0.0, 0.0, 1.676047489654871E9, 0.0, 2023-02-10 11:44:49.654
121.0, 6005.556107229723, 187500.0, 187500.0, 187500.0, -187500.02235174447, 187500.0, -187500.02235174447, -187500.02235174447, -0.018000000000000002, 0.022, 0.992, 192.0, 0.0, 0.0, 0.0, 0.0, 0.0, 0.0, 0.0, 0.0, 0.0, 1.676047489662371E9, 0.0, 2023-02-10 11:44:49.662
122.0, 6080.635616855099, 187500.0, 187500.0, 187500.0, -187500.02235174447, 187500.0, -187500.02235174447, -187500.02235174447, -0.018000000000000002, 0.022, 0.992, 192.0, 0.0, 0.0, 0.0, 0.0, 0.0, 0.0, 0.0, 0.0, 0.0, 1.676047489662401E9, 0.0, 2023-02-10 11:44:49.662
123.0, 5835.5487389026575, 187500.0, 187500.0, 187500.0, -187500.02235174447, 187500.0, -187500.02235174447, -187500.02235174447, -0.018000000000000002, 0.022, 0.992, 192.0, 0.0, 0.0, 0.0, 0.0, 0.0, 0.0, 0.0, 0.0, 0.0, 1.676047489670439E9, 0.0, 2023-02-10 11:44:49.670
124.0, 5795.33795062756, 187500.0, 187500.0, 187500.0, -187500.02235174447, 187500.0, -187500.02235174447, -187500.02235174447, -0.018000000000000002, 0.022, 0.992, 192.0, 0.0, 0.0, 0.0, 0.0, 0.0, 0.0, 0.0, 0.0, 0.0, 1.676047489670473E9, 0.0, 2023-02-10 11:44:49.670
125.0, 6015.14500560105, 187500.0, 187500.0, 187500.0, -187500.02235174447, 187500.0, -187500.02235174447, -187500.02235174447, -0.012, 0.028, 0.994, 192.0, 255.0, 160.0, 0.0, 224.0, 31.0, 16.0, 0.0, 0.0, 0.0, 1.676047489678248E9, 0.0, 2023-02-10 11:44:49.678
126.0, 5999.856412393619, 187500.0, 187500.0, 187500.0, -187500.02235174447, 187500.0, -187500.02235174447, -187500.02235174447, -0.012, 0.028, 0.994, 192.0, 0.0, 0.0, 0.0, 0.0, 0.0, 0.0, 0.0, 0.0, 0.0, 1.67604748967828E9, 0.0, 2023-02-10 11:44:49.678
127.0, 5881.906256902964, 187500.0, 187500.0, 187500.0, -187500.02235174447, 187500.0, -187500.02235174447, -187500.02235174447, -0.012, 0.028, 0.994, 192.0, 0.0, 0.0, 0.0, 0.0, 0.0, 0.0, 0.0, 0.0, 0.0, 1.676047489684949E9, 0.0, 2023-02-10 11:44:49.684
128.0, 5886.533068005213, 187500.0, 187500.0, 187500.0, -187500.02235174447, 187500.0, -187500.02235174447, -187500.02235174447, -0.012, 0.028, 0.994, 192.0, 0.0, 0.0, 0.0, 0.0, 0.0, 0.0, 0.0, 0.0, 0.0, 1.676047489684977E9, 0.0, 2023-02-10 11:44:49.684
129.0, 6029.472473796902, 187500.0, 187500.0, 187500.0, -187500.02235174447, 187500.0, -187500.02235174447, -187500.02235174447, -0.012, 0.028, 0.994, 192.0, 0.0, 0.0, 0.0, 0.0, 0.0, 0.0, 0.0, 0.0, 0.0, 1.676047489694378E9, 0.0, 2023-02-10 11:44:49.694
130.0, 6043.129389659094, 187500.0, 187500.0, 187500.0, -187500.02235174447, 187500.0, -187500.02235174447, -187500.02235174447, -0.012, 0.028, 0.994, 192.0, 0.0, 0.0, 0.0, 0.0, 0.0, 0.0, 0.0, 0.0, 0.0, 1.676047489694433E9, 0.0, 2023-02-10 11:44:49.694
131.0, 5864.002509594263, 187500.0, 187500.0, 187500.0, -187500.02235174447, 187500.0, -187500.02235174447, -187500.02235174447, -0.012, 0.028, 0.994, 192.0, 0.0, 0.0, 0.0, 0.0, 0.0, 0.0, 0.0, 0.0, 0.0, 1.676047489700397E9, 0.0, 2023-02-10 11:44:49.700
132.0, 5752.288490806639, 187500.0, 187500.0, 187500.0, -187500.02235174447, 187500.0, -187500.02235174447, -187500.02235174447, -0.012, 0.028, 0.994, 192.0, 0.0, 0.0, 0.0, 0.0, 0.0, 0.0, 0.0, 0.0, 0.0, 1.676047489708077E9, 0.0, 2023-02-10 11:44:49.708
133.0, 5884.610817982057, 187500.0, 187500.0, 187500.0, -187500.02235174447, 187500.0, -187500.02235174447, -187500.02235174447, -0.012, 0.028, 0.994, 192.0, 0.0, 0.0, 0.0, 0.0, 0.0, 0.0, 0.0, 0.0, 0.0, 1.67604748970811E9, 0.0, 2023-02-10 11:44:49.708
134.0, 5980.723319139876, 187500.0, 187500.0, 187500.0, -187500.02235174447, 187500.0, -187500.02235174447, -187500.02235174447, -0.012, 0.028, 0.994, 192.0, 0.0, 0.0, 0.0, 0.0, 0.0, 0.0, 0.0, 0.0, 0.0, 1.676047489714599E9, 0.0, 2023-02-10 11:44:49.714
135.0, 5893.640922742, 187500.0, 187500.0, 187500.0, -187500.02235174447, 187500.0, -187500.02235174447, -187500.02235174447, -0.014, 0.03, 0.994, 192.0, 255.0, 144.0, 0.0, 240.0, 31.0, 16.0, 0.0, 0.0, 0.0, 1.676047489714626E9, 0.0, 2023-02-10 11:44:49.714
136.0, 5831.681887111889, 187500.0, 187500.0, 187500.0, -187500.02235174447, 187500.0, -187500.02235174447, -187500.02235174447, -0.014, 0.03, 0.994, 192.0, 0.0, 0.0, 0.0, 0.0, 0.0, 0.0, 0.0, 0.0, 0.0, 1.67604748972262E9, 0.0, 2023-02-10 11:44:49.722
137.0, 5994.000255346329, 187500.0, 187500.0, 187500.0, -187500.02235174447, 187500.0, -187500.02235174447, -187500.02235174447, -0.014, 0.03, 0.994, 192.0, 0.0, 0.0, 0.0, 0.0, 0.0, 0.0, 0.0, 0.0, 0.0, 1.676047489722648E9, 0.0, 2023-02-10 11:44:49.722
138.0, 6079.160401721049, 187500.0, 187500.0, 187500.0, -187500.02235174447, 187500.0, -187500.02235174447, -187500.02235174447, -0.014, 0.03, 0.994, 192.0, 0.0, 0.0, 0.0, 0.0, 0.0, 0.0, 0.0, 0.0, 0.0, 1.676047489730542E9, 0.0, 2023-02-10 11:44:49.730
139.0, 5917.758455009277, 187500.0, 187500.0, 187500.0, -187500.02235174447, 187500.0, -187500.02235174447, -187500.02235174447, -0.014, 0.03, 0.994, 192.0, 0.0, 0.0, 0.0, 0.0, 0.0, 0.0, 0.0, 0.0, 0.0, 1.676047489730566E9, 0.0, 2023-02-10 11:44:49.730
140.0, 5817.265011938216, 187500.0, 187500.0, 187500.0, -187500.02235174447, 187500.0, -187500.02235174447, -187500.02235174447, -0.014, 0.03, 0.994, 192.0, 0.0, 0.0, 0.0, 0.0, 0.0, 0.0, 0.0, 0.0, 0.0, 1.676047489737558E9, 0.0, 2023-02-10 11:44:49.737
141.0, 5853.273672255716, 187500.0, 187500.0, 187500.0, -187500.02235174447, 187500.0, -187500.02235174447, -187500.02235174447, -0.014, 0.03, 0.994, 192.0, 0.0, 0.0, 0.0, 0.0, 0.0, 0.0, 0.0, 0.0, 0.0, 1.676047489737586E9, 0.0, 2023-02-10 11:44:49.737
142.0, 5996.101319325128, 187500.0, 187500.0, 187500.0, -187500.02235174447, 187500.0, -187500.02235174447, -187500.02235174447, -0.014, 0.03, 0.994, 192.0, 0.0, 0.0, 0.0, 0.0, 0.0, 0.0, 0.0, 0.0, 0.0, 1.676047489745161E9, 0.0, 2023-02-10 11:44:49.745
143.0, 5889.59525699559, 187500.0, 187500.0, 187500.0, -187500.02235174447, 187500.0, -187500.02235174447, -187500.02235174447, -0.014, 0.03, 0.994, 192.0, 0.0, 0.0, 0.0, 0.0, 0.0, 0.0, 0.0, 0.0, 0.0, 1.67604748974519E9, 0.0, 2023-02-10 11:44:49.745
144.0, 5722.918298592365, 187500.0, 187500.0, 187500.0, -187500.02235174447, 187500.0, -187500.02235174447, -187500.02235174447, -0.014, 0.03, 0.994, 192.0, 0.0, 0.0, 0.0, 0.0, 0.0, 0.0, 0.0, 0.0, 0.0, 1.67604748975366E9, 0.0, 2023-02-10 11:44:49.753
145.0, 5866.170628806428, 187500.0, 187500.0, 187500.0, -187500.02235174447, 187500.0, -187500.02235174447, -187500.02235174447, -0.016, 0.034, 0.992, 192.0, 255.0, 128.0, 1.0, 16.0, 31.0, 0.0, 0.0, 0.0, 0.0, 1.676047489753707E9, 0.0, 2023-02-10 11:44:49.753
146.0, 5999.655246693522, 187500.0, 187500.0, 187500.0, -187500.02235174447, 187500.0, -187500.02235174447, -187500.02235174447, -0.016, 0.034, 0.992, 192.0, 0.0, 0.0, 0.0, 0.0, 0.0, 0.0, 0.0, 0.0, 0.0, 1.676047489760336E9, 0.0, 2023-02-10 11:44:49.760
147.0, 5982.109127296106, 187500.0, 187500.0, 187500.0, -187500.02235174447, 187500.0, -187500.02235174447, -187500.02235174447, -0.016, 0.034, 0.992, 192.0, 0.0, 0.0, 0.0, 0.0, 0.0, 0.0, 0.0, 0.0, 0.0, 1.676047489760632E9, 0.0, 2023-02-10 11:44:49.760
148.0, 5795.963799472309, 187500.0, 187500.0, 187500.0, -187500.02235174447, 187500.0, -187500.02235174447, -187500.02235174447, -0.016, 0.034, 0.992, 192.0, 0.0, 0.0, 0.0, 0.0, 0.0, 0.0, 0.0, 0.0, 0.0, 1.67604748976737E9, 0.0, 2023-02-10 11:44:49.767
149.0, 5832.419494678914, 187500.0, 187500.0, 187500.0, -187500.02235174447, 187500.0, -187500.02235174447, -187500.02235174447, -0.016, 0.034, 0.992, 192.0, 0.0, 0.0, 0.0, 0.0, 0.0, 0.0, 0.0, 0.0, 0.0, 1.67604748977504E9, 0.0, 2023-02-10 11:44:49.775
150.0, 6001.823365905687, 187500.0, 187500.0, 187500.0, -187500.02235174447, 187500.0, -187500.02235174447, -187500.02235174447, -0.016, 0.034, 0.992, 192.0, 0.0, 0.0, 0.0, 0.0, 0.0, 0.0, 0.0, 0.0, 0.0, 1.676047489775086E9, 0.0, 2023-02-10 11:44:49.775
151.0, 6020.911755670519, 187500.0, 187500.0, 187500.0, -187500.02235174447, 187500.0, -187500.02235174447, -187500.02235174447, -0.016, 0.034, 0.992, 192.0, 0.0, 0.0, 0.0, 0.0, 0.0, 0.0, 0.0, 0.0, 0.0, 1.676047489782997E9, 0.0, 2023-02-10 11:44:49.782
152.0, 5814.873375281498, 187500.0, 187500.0, 187500.0, -187500.02235174447, 187500.0, -187500.02235174447, -187500.02235174447, -0.016, 0.034, 0.992, 192.0, 0.0, 0.0, 0.0, 0.0, 0.0, 0.0, 0.0, 0.0, 0.0, 1.676047489783025E9, 0.0, 2023-02-10 11:44:49.783
153.0, 5700.410091925871, 187500.0, 187500.0, 187500.0, -187500.02235174447, 187500.0, -187500.02235174447, -187500.02235174447, -0.016, 0.034, 0.992, 192.0, 0.0, 0.0, 0.0, 0.0, 0.0, 0.0, 0.0, 0.0, 0.0, 1.676047489791063E9, 0.0, 2023-02-10 11:44:49.791
154.0, 5931.951812738396, 187500.0, 187500.0, 187500.0, -187500.02235174447, 187500.0, -187500.02235174447, -187500.02235174447, -0.016, 0.034, 0.992, 192.0, 0.0, 0.0, 0.0, 0.0, 0.0, 0.0, 0.0, 0.0, 0.0, 1.676047489791111E9, 0.0, 2023-02-10 11:44:49.791
155.0, 6014.765025945309, 187500.0, 187500.0, 187500.0, -187500.02235174447, 187500.0, -187500.02235174447, -187500.02235174447, -0.016, 0.028, 0.988, 192.0, 255.0, 128.0, 0.0, 224.0, 30.0, 224.0, 0.0, 0.0, 0.0, 1.676047489797418E9, 0.0, 2023-02-10 11:44:49.797
156.0, 5832.508901656735, 187500.0, 187500.0, 187500.0, -187500.02235174447, 187500.0, -187500.02235174447, -187500.02235174447, -0.016, 0.028, 0.988, 192.0, 0.0, 0.0, 0.0, 0.0, 0.0, 0.0, 0.0, 0.0, 0.0, 1.67604748979745E9, 0.0, 2023-02-10 11:44:49.797
157.0, 5760.178656599362, 187500.0, 187500.0, 187500.0, -187500.02235174447, 187500.0, -187500.02235174447, -187500.02235174447, -0.016, 0.028, 0.988, 192.0, 0.0, 0.0, 0.0, 0.0, 0.0, 0.0, 0.0, 0.0, 0.0, 1.676047489805535E9, 0.0, 2023-02-10 11:44:49.805
158.0, 5884.856687171065, 187500.0, 187500.0, 187500.0, -187500.02235174447, 187500.0, -187500.02235174447, -187500.02235174447, -0.016, 0.028, 0.988, 192.0, 0.0, 0.0, 0.0, 0.0, 0.0, 0.0, 0.0, 0.0, 0.0, 1.676047489805564E9, 0.0, 2023-02-10 11:44:49.805
159.0, 5951.84486530362, 187500.0, 187500.0, 187500.0, -187500.02235174447, 187500.0, -187500.02235174447, -187500.02235174447, -0.016, 0.028, 0.988, 192.0, 0.0, 0.0, 0.0, 0.0, 0.0, 0.0, 0.0, 0.0, 0.0, 1.676047489813556E9, 0.0, 2023-02-10 11:44:49.813
160.0, 5843.371849462014, 187500.0, 187500.0, 187500.0, -187500.02235174447, 187500.0, -187500.02235174447, -187500.02235174447, -0.016, 0.028, 0.988, 192.0, 0.0, 0.0, 0.0, 0.0, 0.0, 0.0, 0.0, 0.0, 0.0, 1.676047489813585E9, 0.0, 2023-02-10 11:44:49.813
161.0, 5727.835682372533, 187500.0, 187500.0, 187500.0, -187500.02235174447, 187500.0, -187500.02235174447, -187500.02235174447, -0.016, 0.028, 0.988, 192.0, 0.0, 0.0, 0.0, 0.0, 0.0, 0.0, 0.0, 0.0, 0.0, 1.676047489820069E9, 0.0, 2023-02-10 11:44:49.820
162.0, 5804.6139245765125, 187500.0, 187500.0, 187500.0, -187500.02235174447, 187500.0, -187500.02235174447, -187500.02235174447, -0.016, 0.028, 0.988, 192.0, 0.0, 0.0, 0.0, 0.0, 0.0, 0.0, 0.0, 0.0, 0.0, 1.676047489820271E9, 0.0, 2023-02-10 11:44:49.820
163.0, 5985.70775815341, 187500.0, 187500.0, 187500.0, -187500.02235174447, 187500.0, -187500.02235174447, -187500.02235174447, -0.016, 0.028, 0.988, 192.0, 0.0, 0.0, 0.0, 0.0, 0.0, 0.0, 0.0, 0.0, 0.0, 1.676047489827008E9, 0.0, 2023-02-10 11:44:49.827
164.0, 5915.6126875415675, 187500.0, 187500.0, 187500.0, -187500.02235174447, 187500.0, -187500.02235174447, -187500.02235174447, -0.016, 0.028, 0.988, 192.0, 0.0, 0.0, 0.0, 0.0, 0.0, 0.0, 0.0, 0.0, 0.0, 1.676047489835168E9, 0.0, 2023-02-10 11:44:49.835
165.0, 5771.198066615828, 187500.0, 187500.0, 187500.0, -187500.02235174447, 187500.0, -187500.02235174447, -187500.02235174447, -0.012, 0.032, 0.994, 192.0, 255.0, 160.0, 1.0, 0.0, 31.0, 16.0, 0.0, 0.0, 0.0, 1.676047489835206E9, 0.0, 2023-02-10 11:44:49.835
166.0, 5797.170793672895, 187500.0, 187500.0, 187500.0, -187500.02235174447, 187500.0, -187500.02235174447, -187500.02235174447, -0.012, 0.032, 0.994, 192.0, 0.0, 0.0, 0.0, 0.0, 0.0, 0.0, 0.0, 0.0, 0.0, 1.676047489843039E9, 0.0, 2023-02-10 11:44:49.843
167.0, 5936.802141285199, 187500.0, 187500.0, 187500.0, -187500.02235174447, 187500.0, -187500.02235174447, -187500.02235174447, -0.012, 0.032, 0.994, 192.0, 0.0, 0.0, 0.0, 0.0, 0.0, 0.0, 0.0, 0.0, 0.0, 1.676047489843125E9, 0.0, 2023-02-10 11:44:49.843
168.0, 5921.021809699751, 187500.0, 187500.0, 187500.0, -187500.02235174447, 187500.0, -187500.02235174447, -187500.02235174447, -0.012, 0.032, 0.994, 192.0, 0.0, 0.0, 0.0, 0.0, 0.0, 0.0, 0.0, 0.0, 0.0, 1.676047489849701E9, 0.0, 2023-02-10 11:44:49.849
169.0, 5738.162188310885, 187500.0, 187500.0, 187500.0, -187500.02235174447, 187500.0, -187500.02235174447, -187500.02235174447, -0.012, 0.032, 0.994, 192.0, 0.0, 0.0, 0.0, 0.0, 0.0, 0.0, 0.0, 0.0, 0.0, 1.676047489849729E9, 0.0, 2023-02-10 11:44:49.849
170.0, 5805.306828654627, 187500.0, 187500.0, 187500.0, -187500.02235174447, 187500.0, -187500.02235174447, -187500.02235174447, -0.012, 0.032, 0.994, 192.0, 0.0, 0.0, 0.0, 0.0, 0.0, 0.0, 0.0, 0.0, 0.0, 1.676047489857636E9, 0.0, 2023-02-10 11:44:49.857
171.0, 5931.12479819355, 187500.0, 187500.0, 187500.0, -187500.02235174447, 187500.0, -187500.02235174447, -187500.02235174447, -0.012, 0.032, 0.994, 192.0, 0.0, 0.0, 0.0, 0.0, 0.0, 0.0, 0.0, 0.0, 0.0, 1.676047489857667E9, 0.0, 2023-02-10 11:44:49.857
172.0, 5959.936196796441, 187500.0, 187500.0, 187500.0, -187500.02235174447, 187500.0, -187500.02235174447, -187500.02235174447, -0.012, 0.032, 0.994, 192.0, 0.0, 0.0, 0.0, 0.0, 0.0, 0.0, 0.0, 0.0, 0.0, 1.676047489865743E9, 0.0, 2023-02-10 11:44:49.865
173.0, 5729.623821928957, 187500.0, 187500.0, 187500.0, -187500.02235174447, 187500.0, -187500.02235174447, -187500.02235174447, -0.012, 0.032, 0.994, 192.0, 0.0, 0.0, 0.0, 0.0, 0.0, 0.0, 0.0, 0.0, 0.0, 1.676047489865768E9, 0.0, 2023-02-10 11:44:49.865
174.0, 5704.7463303502, 187500.0, 187500.0, 187500.0, -187500.02235174447, 187500.0, -187500.02235174447, -187500.02235174447, -0.016, 0.032, 0.994, 192.0, 255.0, 128.0, 1.0, 0.0, 31.0, 16.0, 0.0, 0.0, 0.0, 1.676047489873086E9, 0.0, 2023-02-10 11:44:49.873
175.0, 5898.267733844249, 187500.0, 187500.0, 187500.0, -187500.02235174447, 187500.0, -187500.02235174447, -187500.02235174447, -0.016, 0.032, 0.994, 192.0, 0.0, 0.0, 0.0, 0.0, 0.0, 0.0, 0.0, 0.0, 0.0, 1.676047489873154E9, 0.0, 2023-02-10 11:44:49.873
176.0, 5940.6242895870555, 187500.0, 187500.0, 187500.0, -187500.02235174447, 187500.0, -187500.02235174447, -187500.02235174447, -0.016, 0.032, 0.994, 192.0, 0.0, 0.0, 0.0, 0.0, 0.0, 0.0, 0.0, 0.0, 0.0, 1.676047489880361E9, 0.0, 2023-02-10 11:44:49.880
177.0, 5698.018455269153, 187500.0, 187500.0, 187500.0, -187500.02235174447, 187500.0, -187500.02235174447, -187500.02235174447, -0.016, 0.032, 0.994, 192.0, 0.0, 0.0, 0.0, 0.0, 0.0, 0.0, 0.0, 0.0, 0.0, 1.676047489880634E9, 0.0, 2023-02-10 11:44:49.880
178.0, 5706.288600717617, 187500.0, 187500.0, 187500.0, -187500.02235174447, 187500.0, -187500.02235174447, -187500.02235174447, -0.016, 0.032, 0.994, 192.0, 0.0, 0.0, 0.0, 0.0, 0.0, 0.0, 0.0, 0.0, 0.0, 1.676047489887503E9, 0.0, 2023-02-10 11:44:49.887
179.0, 5922.452321344891, 187500.0, 187500.0, 187500.0, -187500.02235174447, 187500.0, -187500.02235174447, -187500.02235174447, -0.016, 0.032, 0.994, 192.0, 0.0, 0.0, 0.0, 0.0, 0.0, 0.0, 0.0, 0.0, 0.0, 1.676047489895585E9, 0.0, 2023-02-10 11:44:49.895
180.0, 5955.868179305575, 187500.0, 187500.0, 187500.0, -187500.02235174447, 187500.0, -187500.02235174447, -187500.02235174447, -0.016, 0.032, 0.994, 192.0, 0.0, 0.0, 0.0, 0.0, 0.0, 0.0, 0.0, 0.0, 0.0, 1.676047489895617E9, 0.0, 2023-02-10 11:44:49.895
181.0, 5753.160208840395, 187500.0, 187500.0, 187500.0, -187500.02235174447, 187500.0, -187500.02235174447, -187500.02235174447, -0.016, 0.032, 0.994, 192.0, 0.0, 0.0, 0.0, 0.0, 0.0, 0.0, 0.0, 0.0, 0.0, 1.676047489902615E9, 0.0, 2023-02-10 11:44:49.902
182.0, 5585.566828914503, 187500.0, 187500.0, 187500.0, -187500.02235174447, 187500.0, -187500.02235174447, -187500.02235174447, -0.016, 0.032, 0.994, 192.0, 0.0, 0.0, 0.0, 0.0, 0.0, 0.0, 0.0, 0.0, 0.0, 1.676047489902645E9, 0.0, 2023-02-10 11:44:49.902
183.0, 5831.078390011596, 187500.0, 187500.0, 187500.0, -187500.02235174447, 187500.0, -187500.02235174447, -187500.02235174447, -0.016, 0.032, 0.994, 192.0, 0.0, 0.0, 0.0, 0.0, 0.0, 0.0, 0.0, 0.0, 0.0, 1.676047489910263E9, 0.0, 2023-02-10 11:44:49.910
184.0, 6038.927261701497, 187500.0, 187500.0, 187500.0, -187500.02235174447, 187500.0, -187500.02235174447, -187500.02235174447, -0.016, 0.03, 1.002, 192.0, 255.0, 128.0, 0.0, 240.0, 31.0, 80.0, 0.0, 0.0, 0.0, 1.676047489910304E9, 0.0, 2023-02-10 11:44:49.910
185.0, 5824.998715519752, 187500.0, 187500.0, 187500.0, -187500.02235174447, 187500.0, -187500.02235174447, -187500.02235174447, -0.016, 0.03, 1.002, 192.0, 0.0, 0.0, 0.0, 0.0, 0.0, 0.0, 0.0, 0.0, 0.0, 1.67604748991806E9, 0.0, 2023-02-10 11:44:49.918
186.0, 5699.1360424919185, 187500.0, 187500.0, 187500.0, -187500.02235174447, 187500.0, -187500.02235174447, -187500.02235174447, -0.016, 0.03, 1.002, 192.0, 0.0, 0.0, 0.0, 0.0, 0.0, 0.0, 0.0, 0.0, 0.0, 1.676047489918088E9, 0.0, 2023-02-10 11:44:49.918
187.0, 5791.538154070157, 187500.0, 187500.0, 187500.0, -187500.02235174447, 187500.0, -187500.02235174447, -187500.02235174447, -0.016, 0.03, 1.002, 192.0, 0.0, 0.0, 0.0, 0.0, 0.0, 0.0, 0.0, 0.0, 0.0, 1.676047489926115E9, 0.0, 2023-02-10 11:44:49.926
188.0, 5912.148167150995, 187500.0, 187500.0, 187500.0, -187500.02235174447, 187500.0, -187500.02235174447, -187500.02235174447, -0.016, 0.03, 1.002, 192.0, 0.0, 0.0, 0.0, 0.0, 0.0, 0.0, 0.0, 0.0, 0.0, 1.676047489926146E9, 0.0, 2023-02-10 11:44:49.926
189.0, 5851.194960021372, 187500.0, 187500.0, 187500.0, -187500.02235174447, 187500.0, -187500.02235174447, -187500.02235174447, -0.016, 0.03, 1.002, 192.0, 0.0, 0.0, 0.0, 0.0, 0.0, 0.0, 0.0, 0.0, 0.0, 1.676047489932623E9, 0.0, 2023-02-10 11:44:49.932
190.0, 5645.067172654531, 187500.0, 187500.0, 187500.0, -187500.02235174447, 187500.0, -187500.02235174447, -187500.02235174447, -0.016, 0.03, 1.002, 192.0, 0.0, 0.0, 0.0, 0.0, 0.0, 0.0, 0.0, 0.0, 0.0, 1.676047489932654E9, 0.0, 2023-02-10 11:44:49.932
191.0, 5836.129884258496, 187500.0, 187500.0, 187500.0, -187500.02235174447, 187500.0, -187500.02235174447, -187500.02235174447, -0.016, 0.03, 1.002, 192.0, 0.0, 0.0, 0.0, 0.0, 0.0, 0.0, 0.0, 0.0, 0.0, 1.67604748994076E9, 0.0, 2023-02-10 11:44:49.940
192.0, 5964.764173598787, 187500.0, 187500.0, 187500.0, -187500.02235174447, 187500.0, -187500.02235174447, -187500.02235174447, -0.016, 0.03, 1.002, 192.0, 0.0, 0.0, 0.0, 0.0, 0.0, 0.0, 0.0, 0.0, 0.0, 1.676047489940932E9, 0.0, 2023-02-10 11:44:49.940
193.0, 5849.496227442769, 187500.0, 187500.0, 187500.0, -187500.02235174447, 187500.0, -187500.02235174447, -187500.02235174447, -0.016, 0.03, 1.002, 192.0, 0.0, 0.0, 0.0, 0.0, 0.0, 0.0, 0.0, 0.0, 0.0, 1.676047489949189E9, 0.0, 2023-02-10 11:44:49.949
194.0, 5699.046635514097, 187500.0, 187500.0, 187500.0, -187500.02235174447, 187500.0, -187500.02235174447, -187500.02235174447, -0.014, 0.028, 0.998, 192.0, 255.0, 144.0, 0.0, 224.0, 31.0, 48.0, 0.0, 0.0, 0.0, 1.676047489955205E9, 0.0, 2023-02-10 11:44:49.955
195.0, 5709.08256877453, 187500.0, 187500.0, 187500.0, -187500.02235174447, 187500.0, -187500.02235174447, -187500.02235174447, -0.014, 0.028, 0.998, 192.0, 0.0, 0.0, 0.0, 0.0, 0.0, 0.0, 0.0, 0.0, 0.0, 1.676047489955236E9, 0.0, 2023-02-10 11:44:49.955
196.0, 5838.2532999817495, 187500.0, 187500.0, 187500.0, -187500.02235174447, 187500.0, -187500.02235174447, -187500.02235174447, -0.014, 0.028, 0.998, 192.0, 0.0, 0.0, 0.0, 0.0, 0.0, 0.0, 0.0, 0.0, 0.0, 1.676047489962288E9, 0.0, 2023-02-10 11:44:49.962
197.0, 5900.927591434431, 187500.0, 187500.0, 187500.0, -187500.02235174447, 187500.0, -187500.02235174447, -187500.02235174447, -0.014, 0.028, 0.998, 192.0, 0.0, 0.0, 0.0, 0.0, 0.0, 0.0, 0.0, 0.0, 0.0, 1.676047489962315E9, 0.0, 2023-02-10 11:44:49.962
198.0, 5776.04839516263, 187500.0, 187500.0, 187500.0, -187500.02235174447, 187500.0, -187500.02235174447, -187500.02235174447, -0.014, 0.028, 0.998, 192.0, 0.0, 0.0, 0.0, 0.0, 0.0, 0.0, 0.0, 0.0, 0.0, 1.676047489970332E9, 0.0, 2023-02-10 11:44:49.970
199.0, 5683.065138228552, 187500.0, 187500.0, 187500.0, -187500.02235174447, 187500.0, -187500.02235174447, -187500.02235174447, -0.014, 0.028, 0.998, 192.0, 0.0, 0.0, 0.0, 0.0, 0.0, 0.0, 0.0, 0.0, 0.0, 1.676047489970363E9, 0.0, 2023-02-10 11:44:49.970
200.0, 5855.307681001149, 187500.0, 187500.0, 187500.0, -187500.02235174447, 187500.0, -187500.02235174447, -187500.02235174447, -0.014, 0.028, 0.998, 192.0, 0.0, 0.0, 0.0, 0.0, 0.0, 0.0, 0.0, 0.0, 0.0, 1.676047489978266E9, 0.0, 2023-02-10 11:44:49.978
201.0, 5892.568039008145, 187500.0, 187500.0, 187500.0, -187500.02235174447, 187500.0, -187500.02235174447, -187500.02235174447, -0.014, 0.028, 0.998, 192.0, 0.0, 0.0, 0.0, 0.0, 0.0, 0.0, 0.0, 0.0, 0.0, 1.676047489978294E9, 0.0, 2023-02-10 11:44:49.978
202.0, 5647.145884888874, 187500.0, 187500.0, 187500.0, -187500.02235174447, 187500.0, -187500.02235174447, -187500.02235174447, -0.014, 0.028, 0.998, 192.0, 0.0, 0.0, 0.0, 0.0, 0.0, 0.0, 0.0, 0.0, 0.0, 1.676047489984861E9, 0.0, 2023-02-10 11:44:49.984
203.0, 5621.083750853986, 187500.0, 187500.0, 187500.0, -187500.02235174447, 187500.0, -187500.02235174447, -187500.02235174447, -0.014, 0.028, 0.998, 192.0, 0.0, 0.0, 0.0, 0.0, 0.0, 0.0, 0.0, 0.0, 0.0, 1.676047489984888E9, 0.0, 2023-02-10 11:44:49.984
204.0, 5860.716803159333, 187500.0, 187500.0, 187500.0, -187500.02235174447, 187500.0, -187500.02235174447, -187500.02235174447, -0.012, 0.026000000000000002, 0.996, 192.0, 255.0, 160.0, 0.0, 208.0, 31.0, 32.0, 0.0, 0.0, 0.0, 1.676047489992996E9, 0.0, 2023-02-10 11:44:49.992
205.0, 5934.298745906204, 187500.0, 187500.0, 187500.0, -187500.02235174447, 187500.0, -187500.02235174447, -187500.02235174447, -0.012, 0.026000000000000002, 0.996, 192.0, 0.0, 0.0, 0.0, 0.0, 0.0, 0.0, 0.0, 0.0, 0.0, 1.676047489993025E9, 0.0, 2023-02-10 11:44:49.993
206.0, 5730.0708568180635, 187500.0, 187500.0, 187500.0, -187500.02235174447, 187500.0, -187500.02235174447, -187500.02235174447, -0.012, 0.026000000000000002, 0.996, 192.0, 0.0, 0.0, 0.0, 0.0, 0.0, 0.0, 0.0, 0.0, 0.0, 1.676047490000977E9, 0.0, 2023-02-10 11:44:50.000
207.0, 5692.832850555522, 187500.0, 187500.0, 187500.0, -187500.02235174447, 187500.0, -187500.02235174447, -187500.02235174447, -0.012, 0.026000000000000002, 0.996, 192.0, 0.0, 0.0, 0.0, 0.0, 0.0, 0.0, 0.0, 0.0, 0.0, 1.676047490001153E9, 0.0, 2023-02-10 11:44:50.001
208.0, 5798.333084384571, 187500.0, 187500.0, 187500.0, -187500.02235174447, 187500.0, -187500.02235174447, -187500.02235174447, -0.012, 0.026000000000000002, 0.996, 192.0, 0.0, 0.0, 0.0, 0.0, 0.0, 0.0, 0.0, 0.0, 0.0, 1.676047490008235E9, 0.0, 2023-02-10 11:44:50.008
209.0, 5885.616646482546, 187500.0, 187500.0, 187500.0, -187500.02235174447, 187500.0, -187500.02235174447, -187500.02235174447, -0.012, 0.026000000000000002, 0.996, 192.0, 0.0, 0.0, 0.0, 0.0, 0.0, 0.0, 0.0, 0.0, 0.0, 1.67604749000827E9, 0.0, 2023-02-10 11:44:50.008
210.0, 5814.873375281498, 187500.0, 187500.0, 187500.0, -187500.02235174447, 187500.0, -187500.02235174447, -187500.02235174447, -0.012, 0.026000000000000002, 0.996, 192.0, 0.0, 0.0, 0.0, 0.0, 0.0, 0.0, 0.0, 0.0, 0.0, 1.676047490015017E9, 0.0, 2023-02-10 11:44:50.015
211.0, 5635.232405094195, 187500.0, 187500.0, 187500.0, -187500.02235174447, 187500.0, -187500.02235174447, -187500.02235174447, -0.012, 0.026000000000000002, 0.996, 192.0, 0.0, 0.0, 0.0, 0.0, 0.0, 0.0, 0.0, 0.0, 0.0, 1.676047490022624E9, 0.0, 2023-02-10 11:44:50.022
212.0, 5701.684141359823, 187500.0, 187500.0, 187500.0, -187500.02235174447, 187500.0, -187500.02235174447, -187500.02235174447, -0.012, 0.026000000000000002, 0.996, 192.0, 0.0, 0.0, 0.0, 0.0, 0.0, 0.0, 0.0, 0.0, 0.0, 1.676047490022651E9, 0.0, 2023-02-10 11:44:50.022
213.0, 5864.650710183467, 187500.0, 187500.0, 187500.0, -187500.02235174447, 187500.0, -187500.02235174447, -187500.02235174447, -0.012, 0.026000000000000002, 0.996, 192.0, 0.0, 0.0, 0.0, 0.0, 0.0, 0.0, 0.0, 0.0, 0.0, 1.676047490030651E9, 0.0, 2023-02-10 11:44:50.030
214.0, 5818.919041027909, 187500.0, 187500.0, 187500.0, -187500.02235174447, 187500.0, -187500.02235174447, -187500.02235174447, -0.014, 0.028, 0.99, 192.0, 255.0, 144.0, 0.0, 224.0, 30.0, 240.0, 0.0, 0.0, 0.0, 1.676047490030692E9, 0.0, 2023-02-10 11:44:50.030
215.0, 5569.965311284699, 187500.0, 187500.0, 187500.0, -187500.02235174447, 187500.0, -187500.02235174447, -187500.02235174447, -0.014, 0.028, 0.99, 192.0, 0.0, 0.0, 0.0, 0.0, 0.0, 0.0, 0.0, 0.0, 0.0, 1.676047490037744E9, 0.0, 2023-02-10 11:44:50.037
216.0, 5635.120646371919, 187500.0, 187500.0, 187500.0, -187500.02235174447, 187500.0, -187500.02235174447, -187500.02235174447, -0.014, 0.028, 0.99, 192.0, 0.0, 0.0, 0.0, 0.0, 0.0, 0.0, 0.0, 0.0, 0.0, 1.676047490037783E9, 0.0, 2023-02-10 11:44:50.037
217.0, 5903.83331821362, 187500.0, 187500.0, 187500.0, -187500.02235174447, 187500.0, -187500.02235174447, -187500.02235174447, -0.014, 0.028, 0.99, 192.0, 0.0, 0.0, 0.0, 0.0, 0.0, 0.0, 0.0, 0.0, 0.0, 1.676047490045245E9, 0.0, 2023-02-10 11:44:50.045
218.0, 5945.251100689305, 187500.0, 187500.0, 187500.0, -187500.02235174447, 187500.0, -187500.02235174447, -187500.02235174447, -0.014, 0.028, 0.99, 192.0, 0.0, 0.0, 0.0, 0.0, 0.0, 0.0, 0.0, 0.0, 0.0, 1.676047490045276E9, 0.0, 2023-02-10 11:44:50.045
219.0, 5675.577303836025, 187500.0, 187500.0, 187500.0, -187500.02235174447, 187500.0, -187500.02235174447, -187500.02235174447, -0.014, 0.028, 0.99, 192.0, 0.0, 0.0, 0.0, 0.0, 0.0, 0.0, 0.0, 0.0, 0.0, 1.676047490053167E9, 0.0, 2023-02-10 11:44:50.053
220.0, 5630.650297480857, 187500.0, 187500.0, 187500.0, -187500.02235174447, 187500.0, -187500.02235174447, -187500.02235174447, -0.014, 0.028, 0.99, 192.0, 0.0, 0.0, 0.0, 0.0, 0.0, 0.0, 0.0, 0.0, 0.0, 1.676047490053196E9, 0.0, 2023-02-10 11:44:50.053
221.0, 5829.558471388635, 187500.0, 187500.0, 187500.0, -187500.02235174447, 187500.0, -187500.02235174447, -187500.02235174447, -0.014, 0.028, 0.99, 192.0, 0.0, 0.0, 0.0, 0.0, 0.0, 0.0, 0.0, 0.0, 0.0, 1.676047490061138E9, 0.0, 2023-02-10 11:44:50.061
222.0, 5821.5788986180905, 187500.0, 187500.0, 187500.0, -187500.02235174447, 187500.0, -187500.02235174447, -187500.02235174447, -0.014, 0.028, 0.99, 192.0, 0.0, 0.0, 0.0, 0.0, 0.0, 0.0, 0.0, 0.0, 0.0, 1.676047490061295E9, 0.0, 2023-02-10 11:44:50.061
223.0, 5665.317853131039, 187500.0, 187500.0, 187500.0, -187500.02235174447, 187500.0, -187500.02235174447, -187500.02235174447, -0.014, 0.028, 0.99, 192.0, 0.0, 0.0, 0.0, 0.0, 0.0, 0.0, 0.0, 0.0, 0.0, 1.676047490067765E9, 0.0, 2023-02-10 11:44:50.067
224.0, 5615.115835084419, 187500.0, 187500.0, 187500.0, -187500.02235174447, 187500.0, -187500.02235174447, -187500.02235174447, -0.014, 0.03, 1.0, 192.0, 255.0, 144.0, 0.0, 240.0, 31.0, 64.0, 0.0, 0.0, 0.0, 1.676047490067787E9, 0.0, 2023-02-10 11:44:50.067
225.0, 5754.993051885731, 187500.0, 187500.0, 187500.0, -187500.02235174447, 187500.0, -187500.02235174447, -187500.02235174447, -0.014, 0.03, 1.0, 192.0, 0.0, 0.0, 0.0, 0.0, 0.0, 0.0, 0.0, 0.0, 0.0, 1.67604749007477E9, 0.0, 2023-02-10 11:44:50.074
226.0, 5869.009300352252, 187500.0, 187500.0, 187500.0, -187500.02235174447, 187500.0, -187500.02235174447, -187500.02235174447, -0.014, 0.03, 1.0, 192.0, 0.0, 0.0, 0.0, 0.0, 0.0, 0.0, 0.0, 0.0, 0.0, 1.676047490082802E9, 0.0, 2023-02-10 11:44:50.082
227.0, 5628.482178268692, 187500.0, 187500.0, 187500.0, -187500.02235174447, 187500.0, -187500.02235174447, -187500.02235174447, -0.014, 0.03, 1.0, 192.0, 0.0, 0.0, 0.0, 0.0, 0.0, 0.0, 0.0, 0.0, 0.0, 1.67604749008284E9, 0.0, 2023-02-10 11:44:50.082
228.0, 5630.762056203134, 187500.0, 187500.0, 187500.0, -187500.02235174447, 187500.0, -187500.02235174447, -187500.02235174447, -0.014, 0.03, 1.0, 192.0, 0.0, 0.0, 0.0, 0.0, 0.0, 0.0, 0.0, 0.0, 0.0, 1.676047490090921E9, 0.0, 2023-02-10 11:44:50.090
229.0, 5739.1680168113735, 187500.0, 187500.0, 187500.0, -187500.02235174447, 187500.0, -187500.02235174447, -187500.02235174447, -0.014, 0.03, 1.0, 192.0, 0.0, 0.0, 0.0, 0.0, 0.0, 0.0, 0.0, 0.0, 0.0, 1.676047490090957E9, 0.0, 2023-02-10 11:44:50.090
230.0, 5826.3398201870705, 187500.0, 187500.0, 187500.0, -187500.02235174447, 187500.0, -187500.02235174447, -187500.02235174447, -0.014, 0.03, 1.0, 192.0, 0.0, 0.0, 0.0, 0.0, 0.0, 0.0, 0.0, 0.0, 0.0, 1.676047490097425E9, 0.0, 2023-02-10 11:44:50.097
231.0, 5799.964761729809, 187500.0, 187500.0, 187500.0, -187500.02235174447, 187500.0, -187500.02235174447, -187500.02235174447, -0.014, 0.03, 1.0, 192.0, 0.0, 0.0, 0.0, 0.0, 0.0, 0.0, 0.0, 0.0, 0.0, 1.676047490097463E9, 0.0, 2023-02-10 11:44:50.097
232.0, 5651.2362541241955, 187500.0, 187500.0, 187500.0, -187500.02235174447, 187500.0, -187500.02235174447, -187500.02235174447, -0.014, 0.03, 1.0, 192.0, 0.0, 0.0, 0.0, 0.0, 0.0, 0.0, 0.0, 0.0, 0.0, 1.676047490105785E9, 0.0, 2023-02-10 11:44:50.105
233.0, 5711.965943809265, 187500.0, 187500.0, 187500.0, -187500.02235174447, 187500.0, -187500.02235174447, -187500.02235174447, -0.016, 0.026000000000000002, 1.0, 192.0, 255.0, 128.0, 0.0, 208.0, 31.0, 64.0, 0.0, 0.0, 0.0, 1.676047490105831E9, 0.0, 2023-02-10 11:44:50.105
234.0, 5833.358267946037, 187500.0, 187500.0, 187500.0, -187500.02235174447, 187500.0, -187500.02235174447, -187500.02235174447, -0.016, 0.026000000000000002, 1.0, 192.0, 0.0, 0.0, 0.0, 0.0, 0.0, 0.0, 0.0, 0.0, 0.0, 1.676047490113375E9, 0.0, 2023-02-10 11:44:50.113
235.0, 5702.1311762489295, 187500.0, 187500.0, 187500.0, -187500.02235174447, 187500.0, -187500.02235174447, -187500.02235174447, -0.016, 0.026000000000000002, 1.0, 192.0, 0.0, 0.0, 0.0, 0.0, 0.0, 0.0, 0.0, 0.0, 0.0, 1.676047490113407E9, 0.0, 2023-02-10 11:44:50.113
236.0, 5534.806017256501, 187500.0, 187500.0, 187500.0, -187500.02235174447, 187500.0, -187500.02235174447, -187500.02235174447, -0.016, 0.026000000000000002, 1.0, 192.0, 0.0, 0.0, 0.0, 0.0, 0.0, 0.0, 0.0, 0.0, 0.0, 1.676047490120005E9, 0.0, 2023-02-10 11:44:50.120
237.0, 5708.613182140968, 187500.0, 187500.0, 187500.0, -187500.02235174447, 187500.0, -187500.02235174447, -187500.02235174447, -0.016, 0.026000000000000002, 1.0, 192.0, 0.0, 0.0, 0.0, 0.0, 0.0, 0.0, 0.0, 0.0, 0.0, 1.676047490120147E9, 0.0, 2023-02-10 11:44:50.120
238.0, 5891.115175618551, 187500.0, 187500.0, 187500.0, -187500.02235174447, 187500.0, -187500.02235174447, -187500.02235174447, -0.016, 0.026000000000000002, 1.0, 192.0, 0.0, 0.0, 0.0, 0.0, 0.0, 0.0, 0.0, 0.0, 0.0, 1.676047490128195E9, 0.0, 2023-02-10 11:44:50.128
239.0, 5812.593497347057, 187500.0, 187500.0, 187500.0, -187500.02235174447, 187500.0, -187500.02235174447, -187500.02235174447, -0.016, 0.026000000000000002, 1.0, 192.0, 0.0, 0.0, 0.0, 0.0, 0.0, 0.0, 0.0, 0.0, 0.0, 1.676047490128264E9, 0.0, 2023-02-10 11:44:50.128
240.0, 5627.118721856919, 187500.0, 187500.0, 187500.0, -187500.02235174447, 187500.0, -187500.02235174447, -187500.02235174447, -0.016, 0.026000000000000002, 1.0, 192.0, 0.0, 0.0, 0.0, 0.0, 0.0, 0.0, 0.0, 0.0, 0.0, 1.676047490135234E9, 0.0, 2023-02-10 11:44:50.135
241.0, 5653.2926146140835, 187500.0, 187500.0, 187500.0, -187500.02235174447, 187500.0, -187500.02235174447, -187500.02235174447, -0.016, 0.026000000000000002, 1.0, 192.0, 0.0, 0.0, 0.0, 0.0, 0.0, 0.0, 0.0, 0.0, 0.0, 1.676047490143146E9, 0.0, 2023-02-10 11:44:50.143
242.0, 5772.203895116317, 187500.0, 187500.0, 187500.0, -187500.02235174447, 187500.0, -187500.02235174447, -187500.02235174447, -0.016, 0.026000000000000002, 1.0, 192.0, 0.0, 0.0, 0.0, 0.0, 0.0, 0.0, 0.0, 0.0, 0.0, 1.676047490143175E9, 0.0, 2023-02-10 11:44:50.143
243.0, 5760.268063577183, 187500.0, 187500.0, 187500.0, -187500.02235174447, 187500.0, -187500.02235174447, -187500.02235174447, -0.016, 0.028, 0.996, 192.0, 255.0, 128.0, 0.0, 224.0, 31.0, 32.0, 0.0, 0.0, 0.0, 1.676047490149805E9, 0.0, 2023-02-10 11:44:50.149
244.0, 5623.385980532883, 187500.0, 187500.0, 187500.0, -187500.02235174447, 187500.0, -187500.02235174447, -187500.02235174447, -0.016, 0.028, 0.996, 192.0, 0.0, 0.0, 0.0, 0.0, 0.0, 0.0, 0.0, 0.0, 0.0, 1.676047490149834E9, 0.0, 2023-02-10 11:44:50.149
245.0, 5597.390901731361, 187500.0, 187500.0, 187500.0, -187500.02235174447, 187500.0, -187500.02235174447, -187500.02235174447, -0.016, 0.028, 0.996, 192.0, 0.0, 0.0, 0.0, 0.0, 0.0, 0.0, 0.0, 0.0, 0.0, 1.676047490157979E9, 0.0, 2023-02-10 11:44:50.157
246.0, 5720.906641591388, 187500.0, 187500.0, 187500.0, -187500.02235174447, 187500.0, -187500.02235174447, -187500.02235174447, -0.016, 0.028, 0.996, 192.0, 0.0, 0.0, 0.0, 0.0, 0.0, 0.0, 0.0, 0.0, 0.0, 1.676047490158021E9, 0.0, 2023-02-10 11:44:50.158
247.0, 5832.86652956802, 187500.0, 187500.0, 187500.0, -187500.02235174447, 187500.0, -187500.02235174447, -187500.02235174447, -0.016, 0.028, 0.996, 192.0, 0.0, 0.0, 0.0, 0.0, 0.0, 0.0, 0.0, 0.0, 0.0, 1.676047490165644E9, 0.0, 2023-02-10 11:44:50.165
248.0, 5730.316726007071, 187500.0, 187500.0, 187500.0, -187500.02235174447, 187500.0, -187500.02235174447, -187500.02235174447, -0.016, 0.028, 0.996, 192.0, 0.0, 0.0, 0.0, 0.0, 0.0, 0.0, 0.0, 0.0, 0.0, 1.676047490165677E9, 0.0, 2023-02-10 11:44:50.165
249.0, 5660.802800751067, 187500.0, 187500.0, 187500.0, -187500.02235174447, 187500.0, -187500.02235174447, -187500.02235174447, -0.016, 0.028, 0.996, 192.0, 0.0, 0.0, 0.0, 0.0, 0.0, 0.0, 0.0, 0.0, 0.0, 1.676047490172838E9, 0.0, 2023-02-10 11:44:50.172
250.0, 5778.28356960816, 187500.0, 187500.0, 187500.0, -187500.02235174447, 187500.0, -187500.02235174447, -187500.02235174447, -0.016, 0.028, 0.996, 192.0, 0.0, 0.0, 0.0, 0.0, 0.0, 0.0, 0.0, 0.0, 0.0, 1.676047490172866E9, 0.0, 2023-02-10 11:44:50.172
251.0, 5828.530291143691, 187500.0, 187500.0, 187500.0, -187500.02235174447, 187500.0, -187500.02235174447, -187500.02235174447, -0.016, 0.028, 0.996, 192.0, 0.0, 0.0, 0.0, 0.0, 0.0, 0.0, 0.0, 0.0, 0.0, 1.676047490180312E9, 0.0, 2023-02-10 11:44:50.180
252.0, 5581.34234921245, 187500.0, 187500.0, 187500.0, -187500.02235174447, 187500.0, -187500.02235174447, -187500.02235174447, -0.016, 0.028, 0.996, 192.0, 0.0, 0.0, 0.0, 0.0, 0.0, 0.0, 0.0, 0.0, 0.0, 1.676047490180455E9, 0.0, 2023-02-10 11:44:50.180
253.0, 5541.690354548736, 187500.0, 187500.0, 187500.0, -187500.02235174447, 187500.0, -187500.02235174447, -187500.02235174447, -0.01, 0.026000000000000002, 0.998, 192.0, 255.0, 176.0, 0.0, 208.0, 31.0, 48.0, 0.0, 0.0, 0.0, 1.676047490188371E9, 0.0, 2023-02-10 11:44:50.188
254.0, 5754.993051885731, 187500.0, 187500.0, 187500.0, -187500.02235174447, 187500.0, -187500.02235174447, -187500.02235174447, -0.01, 0.026000000000000002, 0.998, 192.0, 0.0, 0.0, 0.0, 0.0, 0.0, 0.0, 0.0, 0.0, 0.0, 1.6760474901884E9, 0.0, 2023-02-10 11:44:50.188
255.0, 5828.642049865967, 187500.0, 187500.0, 187500.0, -187500.02235174447, 187500.0, -187500.02235174447, -187500.02235174447, -0.01, 0.026000000000000002, 0.998, 192.0, 0.0, 0.0, 0.0, 0.0, 0.0, 0.0, 0.0, 0.0, 0.0, 1.676047490195213E9, 0.0, 2023-02-10 11:44:50.195
0.0, 5613.484157739182, 187500.0, 187500.0, 187500.0, -187500.02235174447, 187500.0, -187500.02235174447, -187500.02235174447, -0.01, 0.026000000000000002, 0.998, 192.0, 0.0, 0.0, 0.0, 0.0, 0.0, 0.0, 0.0, 0.0, 0.0, 1.67604749020242E9, 0.0, 2023-02-10 11:44:50.202
1.0, 5496.204554582186, 187500.0, 187500.0, 187500.0, -187500.02235174447, 187500.0, -187500.02235174447, -187500.02235174447, -0.01, 0.026000000000000002, 0.998, 192.0, 0.0, 0.0, 0.0, 0.0, 0.0, 0.0, 0.0, 0.0, 0.0, 1.676047490202454E9, 0.0, 2023-02-10 11:44:50.202
2.0, 5688.138984219907, 187500.0, 187500.0, 187500.0, -187500.02235174447, 187500.0, -187500.02235174447, -187500.02235174447, -0.01, 0.026000000000000002, 0.998, 192.0, 0.0, 0.0, 0.0, 0.0, 0.0, 0.0, 0.0, 0.0, 0.0, 1.676047490210218E9, 0.0, 2023-02-10 11:44:50.210
3.0, 5899.340617578104, 187500.0, 187500.0, 187500.0, -187500.02235174447, 187500.0, -187500.02235174447, -187500.02235174447, -0.01, 0.026000000000000002, 0.998, 192.0, 0.0, 0.0, 0.0, 0.0, 0.0, 0.0, 0.0, 0.0, 0.0, 1.67604749021027E9, 0.0, 2023-02-10 11:44:50.210
4.0, 5743.146627324418, 187500.0, 187500.0, 187500.0, -187500.02235174447, 187500.0, -187500.02235174447, -187500.02235174447, -0.01, 0.026000000000000002, 0.998, 192.0, 0.0, 0.0, 0.0, 0.0, 0.0, 0.0, 0.0, 0.0, 0.0, 1.676047490218015E9, 0.0, 2023-02-10 11:44:50.218
5.0, 5544.216101672185, 187500.0, 187500.0, 187500.0, -187500.02235174447, 187500.0, -187500.02235174447, -187500.02235174447, -0.01, 0.026000000000000002, 0.998, 192.0, 0.0, 0.0, 0.0, 0.0, 0.0, 0.0, 0.0, 0.0, 0.0, 1.676047490218044E9, 0.0, 2023-02-10 11:44:50.218
6.0, 5675.912580002854, 187500.0, 187500.0, 187500.0, -187500.02235174447, 187500.0, -187500.02235174447, -187500.02235174447, -0.01, 0.026000000000000002, 0.998, 192.0, 0.0, 0.0, 0.0, 0.0, 0.0, 0.0, 0.0, 0.0, 0.0, 1.676047490226382E9, 0.0, 2023-02-10 11:44:50.226
7.0, 5784.944389455842, 187500.0, 187500.0, 187500.0, -187500.02235174447, 187500.0, -187500.02235174447, -187500.02235174447, -0.014, 0.026000000000000002, 0.998, 192.0, 255.0, 144.0, 0.0, 208.0, 31.0, 48.0, 0.0, 0.0, 0.0, 1.676047490226576E9, 0.0, 2023-02-10 11:44:50.226
8.0, 5803.921020498397, 187500.0, 187500.0, 187500.0, -187500.02235174447, 187500.0, -187500.02235174447, -187500.02235174447, -0.014, 0.026000000000000002, 0.998, 192.0, 0.0, 0.0, 0.0, 0.0, 0.0, 0.0, 0.0, 0.0, 0.0, 1.67604749023269E9, 0.0, 2023-02-10 11:44:50.232
9.0, 5605.01284659062, 187500.0, 187500.0, 187500.0, -187500.02235174447, 187500.0, -187500.02235174447, -187500.02235174447, -0.014, 0.026000000000000002, 0.998, 192.0, 0.0, 0.0, 0.0, 0.0, 0.0, 0.0, 0.0, 0.0, 0.0, 1.676047490232727E9, 0.0, 2023-02-10 11:44:50.232
10.0, 5553.201502943219, 187500.0, 187500.0, 187500.0, -187500.02235174447, 187500.0, -187500.02235174447, -187500.02235174447, -0.014, 0.026000000000000002, 0.998, 192.0, 0.0, 0.0, 0.0, 0.0, 0.0, 0.0, 0.0, 0.0, 0.0, 1.676047490240585E9, 0.0, 2023-02-10 11:44:50.240
11.0, 5743.370144768971, 187500.0, 187500.0, 187500.0, -187500.02235174447, 187500.0, -187500.02235174447, -187500.02235174447, -0.014, 0.026000000000000002, 0.998, 192.0, 0.0, 0.0, 0.0, 0.0, 0.0, 0.0, 0.0, 0.0, 0.0, 1.676047490240744E9, 0.0, 2023-02-10 11:44:50.240
12.0, 5786.6654737789, 187500.0, 187500.0, 187500.0, -187500.02235174447, 187500.0, -187500.02235174447, -187500.02235174447, -0.014, 0.026000000000000002, 0.998, 192.0, 0.0, 0.0, 0.0, 0.0, 0.0, 0.0, 0.0, 0.0, 0.0, 1.676047490248666E9, 0.0, 2023-02-10 11:44:50.248
13.0, 5541.578595826459, 187500.0, 187500.0, 187500.0, -187500.02235174447, 187500.0, -187500.02235174447, -187500.02235174447, -0.014, 0.026000000000000002, 0.998, 192.0, 0.0, 0.0, 0.0, 0.0, 0.0, 0.0, 0.0, 0.0, 0.0, 1.676047490248698E9, 0.0, 2023-02-10 11:44:50.248
14.0, 5519.182147882241, 187500.0, 187500.0, 187500.0, -187500.02235174447, 187500.0, -187500.02235174447, -187500.02235174447, -0.014, 0.026000000000000002, 0.998, 192.0, 0.0, 0.0, 0.0, 0.0, 0.0, 0.0, 0.0, 0.0, 0.0, 1.676047490255768E9, 0.0, 2023-02-10 11:44:50.255
15.0, 5808.637238578468, 187500.0, 187500.0, 187500.0, -187500.02235174447, 187500.0, -187500.02235174447, -187500.02235174447, -0.014, 0.026000000000000002, 0.998, 192.0, 0.0, 0.0, 0.0, 0.0, 0.0, 0.0, 0.0, 0.0, 0.0, 1.676047490255828E9, 0.0, 2023-02-10 11:44:50.255
16.0, 5830.184320233384, 187500.0, 187500.0, 187500.0, -187500.02235174447, 187500.0, -187500.02235174447, -187500.02235174447, -0.014, 0.026000000000000002, 0.998, 192.0, 0.0, 0.0, 0.0, 0.0, 0.0, 0.0, 0.0, 0.0, 0.0, 1.676047490262558E9, 0.0, 2023-02-10 11:44:50.262
17.0, 5657.360632104949, 187500.0, 187500.0, 187500.0, -187500.02235174447, 187500.0, -187500.02235174447, -187500.02235174447, -0.014, 0.028, 0.996, 192.0, 255.0, 144.0, 0.0, 224.0, 31.0, 32.0, 0.0, 0.0, 0.0, 1.676047490270373E9, 0.0, 2023-02-10 11:44:50.270
18.0, 5580.649445134335, 187500.0, 187500.0, 187500.0, -187500.02235174447, 187500.0, -187500.02235174447, -187500.02235174447, -0.014, 0.028, 0.996, 192.0, 0.0, 0.0, 0.0, 0.0, 0.0, 0.0, 0.0, 0.0, 0.0, 1.676047490270448E9, 0.0, 2023-02-10 11:44:50.270
19.0, 5715.60927815548, 187500.0, 187500.0, 187500.0, -187500.02235174447, 187500.0, -187500.02235174447, -187500.02235174447, -0.014, 0.028, 0.996, 192.0, 0.0, 0.0, 0.0, 0.0, 0.0, 0.0, 0.0, 0.0, 0.0, 1.676047490280032E9, 0.0, 2023-02-10 11:44:50.280
20.0, 5827.904442298943, 187500.0, 187500.0, 187500.0, -187500.02235174447, 187500.0, -187500.02235174447, -187500.02235174447, -0.014, 0.028, 0.996, 192.0, 0.0, 0.0, 0.0, 0.0, 0.0, 0.0, 0.0, 0.0, 0.0, 1.676047490280064E9, 0.0, 2023-02-10 11:44:50.280
21.0, 5638.987498162687, 187500.0, 187500.0, 187500.0, -187500.02235174447, 187500.0, -187500.02235174447, -187500.02235174447, -0.014, 0.028, 0.996, 192.0, 0.0, 0.0, 0.0, 0.0, 0.0, 0.0, 0.0, 0.0, 0.0, 1.676047490285887E9, 0.0, 2023-02-10 11:44:50.285
22.0, 5514.130653635341, 187500.0, 187500.0, 187500.0, -187500.02235174447, 187500.0, -187500.02235174447, -187500.02235174447, -0.014, 0.028, 0.996, 192.0, 0.0, 0.0, 0.0, 0.0, 0.0, 0.0, 0.0, 0.0, 0.0, 1.676047490285931E9, 0.0, 2023-02-10 11:44:50.285
23.0, 5650.073963412519, 187500.0, 187500.0, 187500.0, -187500.02235174447, 187500.0, -187500.02235174447, -187500.02235174447, -0.014, 0.028, 0.996, 192.0, 0.0, 0.0, 0.0, 0.0, 0.0, 0.0, 0.0, 0.0, 0.0, 1.676047490292946E9, 0.0, 2023-02-10 11:44:50.292
24.0, 5798.936581484864, 187500.0, 187500.0, 187500.0, -187500.02235174447, 187500.0, -187500.02235174447, -187500.02235174447, -0.014, 0.028, 0.996, 192.0, 0.0, 0.0, 0.0, 0.0, 0.0, 0.0, 0.0, 0.0, 0.0, 1.676047490292989E9, 0.0, 2023-02-10 11:44:50.292
25.0, 5665.764888020145, 187500.0, 187500.0, 187500.0, -187500.02235174447, 187500.0, -187500.02235174447, -187500.02235174447, -0.014, 0.028, 0.996, 192.0, 0.0, 0.0, 0.0, 0.0, 0.0, 0.0, 0.0, 0.0, 0.0, 1.676047490301028E9, 0.0, 2023-02-10 11:44:50.301
26.0, 5560.689337335746, 187500.0, 187500.0, 187500.0, -187500.02235174447, 187500.0, -187500.02235174447, -187500.02235174447, -0.012, 0.026000000000000002, 0.996, 192.0, 255.0, 160.0, 0.0, 208.0, 31.0, 32.0, 0.0, 0.0, 0.0, 1.676047490301067E9, 0.0, 2023-02-10 11:44:50.301
27.0, 5663.015623452142, 187500.0, 187500.0, 187500.0, -187500.02235174447, 187500.0, -187500.02235174447, -187500.02235174447, -0.012, 0.026000000000000002, 0.996, 192.0, 0.0, 0.0, 0.0, 0.0, 0.0, 0.0, 0.0, 0.0, 0.0, 1.676047490308264E9, 0.0, 2023-02-10 11:44:50.308
28.0, 5713.865842087966, 187500.0, 187500.0, 187500.0, -187500.02235174447, 187500.0, -187500.02235174447, -187500.02235174447, -0.012, 0.026000000000000002, 0.996, 192.0, 0.0, 0.0, 0.0, 0.0, 0.0, 0.0, 0.0, 0.0, 0.0, 1.676047490308352E9, 0.0, 2023-02-10 11:44:50.308
29.0, 5609.863175137422, 187500.0, 187500.0, 187500.0, -187500.02235174447, 187500.0, -187500.02235174447, -187500.02235174447, -0.012, 0.026000000000000002, 0.996, 192.0, 0.0, 0.0, 0.0, 0.0, 0.0, 0.0, 0.0, 0.0, 0.0, 1.676047490315641E9, 0.0, 2023-02-10 11:44:50.315
30.0, 5555.749601811123, 187500.0, 187500.0, 187500.0, -187500.02235174447, 187500.0, -187500.02235174447, -187500.02235174447, -0.012, 0.026000000000000002, 0.996, 192.0, 0.0, 0.0, 0.0, 0.0, 0.0, 0.0, 0.0, 0.0, 0.0, 1.676047490315676E9, 0.0, 2023-02-10 11:44:50.315
31.0, 5688.206039453273, 187500.0, 187500.0, 187500.0, -187500.02235174447, 187500.0, -187500.02235174447, -187500.02235174447, -0.012, 0.026000000000000002, 0.996, 192.0, 0.0, 0.0, 0.0, 0.0, 0.0, 0.0, 0.0, 0.0, 0.0, 1.676047490322613E9, 0.0, 2023-02-10 11:44:50.322
32.0, 5928.5319958367345, 187500.0, 187500.0, 187500.0, -187500.02235174447, 187500.0, -187500.02235174447, -187500.02235174447, -0.012, 0.026000000000000002, 0.996, 192.0, 0.0, 0.0, 0.0, 0.0, 0.0, 0.0, 0.0, 0.0, 0.0, 1.676047490330508E9, 0.0, 2023-02-10 11:44:50.330
33.0, 5747.058182604097, 187500.0, 187500.0, 187500.0, -187500.02235174447, 187500.0, -187500.02235174447, -187500.02235174447, -0.012, 0.026000000000000002, 0.996, 192.0, 0.0, 0.0, 0.0, 0.0, 0.0, 0.0, 0.0, 0.0, 0.0, 1.676047490330549E9, 0.0, 2023-02-10 11:44:50.330
34.0, 5545.154874939308, 187500.0, 187500.0, 187500.0, -187500.02235174447, 187500.0, -187500.02235174447, -187500.02235174447, -0.012, 0.026000000000000002, 0.996, 192.0, 0.0, 0.0, 0.0, 0.0, 0.0, 0.0, 0.0, 0.0, 0.0, 1.676047490339361E9, 0.0, 2023-02-10 11:44:50.339
35.0, 5580.872962578888, 187500.0, 187500.0, 187500.0, -187500.02235174447, 187500.0, -187500.02235174447, -187500.02235174447, -0.012, 0.026000000000000002, 0.996, 192.0, 0.0, 0.0, 0.0, 0.0, 0.0, 0.0, 0.0, 0.0, 0.0, 1.676047490339432E9, 0.0, 2023-02-10 11:44:50.339
36.0, 5706.422711184348, 187500.0, 187500.0, 187500.0, -187500.02235174447, 187500.0, -187500.02235174447, -187500.02235174447, -0.01, 0.028, 0.996, 192.0, 255.0, 176.0, 0.0, 224.0, 31.0, 32.0, 0.0, 0.0, 0.0, 1.676047490345483E9, 0.0, 2023-02-10 11:44:50.345
37.0, 5723.812368370577, 187500.0, 187500.0, 187500.0, -187500.02235174447, 187500.0, -187500.02235174447, -187500.02235174447, -0.01, 0.028, 0.996, 192.0, 0.0, 0.0, 0.0, 0.0, 0.0, 0.0, 0.0, 0.0, 0.0, 1.67604749034552E9, 0.0, 2023-02-10 11:44:50.345
38.0, 5532.973174211165, 187500.0, 187500.0, 187500.0, -187500.02235174447, 187500.0, -187500.02235174447, -187500.02235174447, -0.01, 0.028, 0.996, 192.0, 0.0, 0.0, 0.0, 0.0, 0.0, 0.0, 0.0, 0.0, 0.0, 1.676047490353342E9, 0.0, 2023-02-10 11:44:50.353
39.0, 5530.469778832171, 187500.0, 187500.0, 187500.0, -187500.02235174447, 187500.0, -187500.02235174447, -187500.02235174447, -0.01, 0.028, 0.996, 192.0, 0.0, 0.0, 0.0, 0.0, 0.0, 0.0, 0.0, 0.0, 0.0, 1.676047490353425E9, 0.0, 2023-02-10 11:44:50.353
40.0, 5636.953489417254, 187500.0, 187500.0, 187500.0, -187500.02235174447, 187500.0, -187500.02235174447, -187500.02235174447, -0.01, 0.028, 0.996, 192.0, 0.0, 0.0, 0.0, 0.0, 0.0, 0.0, 0.0, 0.0, 0.0, 1.676047490361404E9, 0.0, 2023-02-10 11:44:50.361
41.0, 5782.329235354571, 187500.0, 187500.0, 187500.0, -187500.02235174447, 187500.0, -187500.02235174447, -187500.02235174447, -0.01, 0.028, 0.996, 192.0, 0.0, 0.0, 0.0, 0.0, 0.0, 0.0, 0.0, 0.0, 0.0, 1.676047490361451E9, 0.0, 2023-02-10 11:44:50.361
42.0, 5716.771568867156, 187500.0, 187500.0, 187500.0, -187500.02235174447, 187500.0, -187500.02235174447, -187500.02235174447, -0.01, 0.028, 0.996, 192.0, 0.0, 0.0, 0.0, 0.0, 0.0, 0.0, 0.0, 0.0, 0.0, 1.676047490367829E9, 0.0, 2023-02-10 11:44:50.367
43.0, 5525.66415377428, 187500.0, 187500.0, 187500.0, -187500.02235174447, 187500.0, -187500.02235174447, -187500.02235174447, -0.01, 0.028, 0.996, 192.0, 0.0, 0.0, 0.0, 0.0, 0.0, 0.0, 0.0, 0.0, 0.0, 1.676047490367866E9, 0.0, 2023-02-10 11:44:50.367
44.0, 5783.245656877239, 187500.0, 187500.0, 187500.0, -187500.02235174447, 187500.0, -187500.02235174447, -187500.02235174447, -0.01, 0.028, 0.996, 192.0, 0.0, 0.0, 0.0, 0.0, 0.0, 0.0, 0.0, 0.0, 0.0, 1.676047490375864E9, 0.0, 2023-02-10 11:44:50.375
45.0, 5816.505052626736, 187500.0, 187500.0, 187500.0, -187500.02235174447, 187500.0, -187500.02235174447, -187500.02235174447, -0.01, 0.028, 0.996, 192.0, 0.0, 0.0, 0.0, 0.0, 0.0, 0.0, 0.0, 0.0, 0.0, 1.676047490375897E9, 0.0, 2023-02-10 11:44:50.375
46.0, 5547.010069729098, 187500.0, 187500.0, 187500.0, -187500.02235174447, 187500.0, -187500.02235174447, -187500.02235174447, -0.014, 0.026000000000000002, 0.996, 192.0, 255.0, 144.0, 0.0, 208.0, 31.0, 32.0, 0.0, 0.0, 0.0, 1.676047490382888E9, 0.0, 2023-02-10 11:44:50.382
47.0, 5476.825592139434, 187500.0, 187500.0, 187500.0, -187500.02235174447, 187500.0, -187500.02235174447, -187500.02235174447, -0.014, 0.026000000000000002, 0.996, 192.0, 0.0, 0.0, 0.0, 0.0, 0.0, 0.0, 0.0, 0.0, 0.0, 1.676047490391041E9, 0.0, 2023-02-10 11:44:50.391
48.0, 5614.78055891759, 187500.0, 187500.0, 187500.0, -187500.02235174447, 187500.0, -187500.02235174447, -187500.02235174447, -0.014, 0.026000000000000002, 0.996, 192.0, 0.0, 0.0, 0.0, 0.0, 0.0, 0.0, 0.0, 0.0, 0.0, 1.67604749039108E9, 0.0, 2023-02-10 11:44:50.391
49.0, 5742.699592435311, 187500.0, 187500.0, 187500.0, -187500.02235174447, 187500.0, -187500.02235174447, -187500.02235174447, -0.014, 0.026000000000000002, 0.996, 192.0, 0.0, 0.0, 0.0, 0.0, 0.0, 0.0, 0.0, 0.0, 0.0, 1.676047490397537E9, 0.0, 2023-02-10 11:44:50.397
50.0, 5691.64820809939, 187500.0, 187500.0, 187500.0, -187500.02235174447, 187500.0, -187500.02235174447, -187500.02235174447, -0.014, 0.026000000000000002, 0.996, 192.0, 0.0, 0.0, 0.0, 0.0, 0.0, 0.0, 0.0, 0.0, 0.0, 1.676047490397567E9, 0.0, 2023-02-10 11:44:50.397
51.0, 5482.525286975538, 187500.0, 187500.0, 187500.0, -187500.02235174447, 187500.0, -187500.02235174447, -187500.02235174447, -0.014, 0.026000000000000002, 0.996, 192.0, 0.0, 0.0, 0.0, 0.0, 0.0, 0.0, 0.0, 0.0, 0.0, 1.676047490405458E9, 0.0, 2023-02-10 11:44:50.405
52.0, 5642.653184253358, 187500.0, 187500.0, 187500.0, -187500.02235174447, 187500.0, -187500.02235174447, -187500.02235174447, -0.014, 0.026000000000000002, 0.996, 192.0, 0.0, 0.0, 0.0, 0.0, 0.0, 0.0, 0.0, 0.0, 0.0, 1.676047490405495E9, 0.0, 2023-02-10 11:44:50.405
53.0, 5762.391479300437, 187500.0, 187500.0, 187500.0, -187500.02235174447, 187500.0, -187500.02235174447, -187500.02235174447, -0.014, 0.026000000000000002, 0.996, 192.0, 0.0, 0.0, 0.0, 0.0, 0.0, 0.0, 0.0, 0.0, 0.0, 1.676047490413898E9, 0.0, 2023-02-10 11:44:50.413
54.0, 5644.061344154042, 187500.0, 187500.0, 187500.0, -187500.02235174447, 187500.0, -187500.02235174447, -187500.02235174447, -0.014, 0.026000000000000002, 0.996, 192.0, 0.0, 0.0, 0.0, 0.0, 0.0, 0.0, 0.0, 0.0, 0.0, 1.676047490413955E9, 0.0, 2023-02-10 11:44:50.413
55.0, 5487.554429477982, 187500.0, 187500.0, 187500.0, -187500.02235174447, 187500.0, -187500.02235174447, -187500.02235174447, -0.014, 0.026000000000000002, 0.996, 192.0, 0.0, 0.0, 0.0, 0.0, 0.0, 0.0, 0.0, 0.0, 0.0, 1.676047490420649E9, 0.0, 2023-02-10 11:44:50.420
56.0, 5604.878736123888, 187500.0, 187500.0, 187500.0, -187500.02235174447, 187500.0, -187500.02235174447, -187500.02235174447, -0.016, 0.028, 1.0, 192.0, 255.0, 128.0, 0.0, 224.0, 31.0, 64.0, 0.0, 0.0, 0.0, 1.67604749042069E9, 0.0, 2023-02-10 11:44:50.420
57.0, 5792.05224419263, 187500.0, 187500.0, 187500.0, -187500.02235174447, 187500.0, -187500.02235174447, -187500.02235174447, -0.016, 0.028, 1.0, 192.0, 0.0, 0.0, 0.0, 0.0, 0.0, 0.0, 0.0, 0.0, 0.0, 1.676047490428604E9, 0.0, 2023-02-10 11:44:50.428
58.0, 5787.7160057683, 187500.0, 187500.0, 187500.0, -187500.02235174447, 187500.0, -187500.02235174447, -187500.02235174447, -0.016, 0.028, 1.0, 192.0, 0.0, 0.0, 0.0, 0.0, 0.0, 0.0, 0.0, 0.0, 0.0, 1.676047490428659E9, 0.0, 2023-02-10 11:44:50.428
59.0, 5565.562017627003, 187500.0, 187500.0, 187500.0, -187500.02235174447, 187500.0, -187500.02235174447, -187500.02235174447, -0.016, 0.028, 1.0, 192.0, 0.0, 0.0, 0.0, 0.0, 0.0, 0.0, 0.0, 0.0, 0.0, 1.676047490436097E9, 0.0, 2023-02-10 11:44:50.436
60.0, 5523.026647928554, 187500.0, 187500.0, 187500.0, -187500.02235174447, 187500.0, -187500.02235174447, -187500.02235174447, -0.016, 0.028, 1.0, 192.0, 0.0, 0.0, 0.0, 0.0, 0.0, 0.0, 0.0, 0.0, 0.0, 1.676047490436126E9, 0.0, 2023-02-10 11:44:50.436
61.0, 5625.01765787812, 187500.0, 187500.0, 187500.0, -187500.02235174447, 187500.0, -187500.02235174447, -187500.02235174447, -0.016, 0.028, 1.0, 192.0, 0.0, 0.0, 0.0, 0.0, 0.0, 0.0, 0.0, 0.0, 0.0, 1.676047490443308E9, 0.0, 2023-02-10 11:44:50.443
62.0, 5631.410256792338, 187500.0, 187500.0, 187500.0, -187500.02235174447, 187500.0, -187500.02235174447, -187500.02235174447, -0.016, 0.028, 1.0, 192.0, 0.0, 0.0, 0.0, 0.0, 0.0, 0.0, 0.0, 0.0, 0.0, 1.676047490449811E9, 0.0, 2023-02-10 11:44:50.449
63.0, 5621.106102598442, 187500.0, 187500.0, 187500.0, -187500.02235174447, 187500.0, -187500.02235174447, -187500.02235174447, -0.016, 0.028, 1.0, 192.0, 0.0, 0.0, 0.0, 0.0, 0.0, 0.0, 0.0, 0.0, 0.0, 1.67604749044984E9, 0.0, 2023-02-10 11:44:50.449
64.0, 5595.558058686025, 187500.0, 187500.0, 187500.0, -187500.02235174447, 187500.0, -187500.02235174447, -187500.02235174447, -0.016, 0.028, 1.0, 192.0, 0.0, 0.0, 0.0, 0.0, 0.0, 0.0, 0.0, 0.0, 0.0, 1.676047490457759E9, 0.0, 2023-02-10 11:44:50.457
65.0, 5719.833757857533, 187500.0, 187500.0, 187500.0, -187500.02235174447, 187500.0, -187500.02235174447, -187500.02235174447, -0.016, 0.028, 1.0, 192.0, 0.0, 0.0, 0.0, 0.0, 0.0, 0.0, 0.0, 0.0, 0.0, 1.676047490457788E9, 0.0, 2023-02-10 11:44:50.457
66.0, 5797.86369775101, 187500.0, 187500.0, 187500.0, -187500.02235174447, 187500.0, -187500.02235174447, -187500.02235174447, -0.016, 0.026000000000000002, 0.996, 192.0, 255.0, 128.0, 0.0, 208.0, 31.0, 32.0, 0.0, 0.0, 0.0, 1.676047490465768E9, 0.0, 2023-02-10 11:44:50.465
67.0, 5584.717462625202, 187500.0, 187500.0, 187500.0, -187500.02235174447, 187500.0, -187500.02235174447, -187500.02235174447, -0.016, 0.026000000000000002, 0.996, 192.0, 0.0, 0.0, 0.0, 0.0, 0.0, 0.0, 0.0, 0.0, 0.0, 1.676047490465807E9, 0.0, 2023-02-10 11:44:50.465
68.0, 5412.2737541525075, 187500.0, 187500.0, 187500.0, -187500.02235174447, 187500.0, -187500.02235174447, -187500.02235174447, -0.016, 0.026000000000000002, 0.996, 192.0, 0.0, 0.0, 0.0, 0.0, 0.0, 0.0, 0.0, 0.0, 0.0, 1.676047490472859E9, 0.0, 2023-02-10 11:44:50.472
69.0, 5671.039899711597, 187500.0, 187500.0, 187500.0, -187500.02235174447, 187500.0, -187500.02235174447, -187500.02235174447, -0.016, 0.026000000000000002, 0.996, 192.0, 0.0, 0.0, 0.0, 0.0, 0.0, 0.0, 0.0, 0.0, 0.0, 1.676047490472894E9, 0.0, 2023-02-10 11:44:50.472
70.0, 5809.3748461454925, 187500.0, 187500.0, 187500.0, -187500.02235174447, 187500.0, -187500.02235174447, -187500.02235174447, -0.016, 0.026000000000000002, 0.996, 192.0, 0.0, 0.0, 0.0, 0.0, 0.0, 0.0, 0.0, 0.0, 0.0, 1.67604749048042E9, 0.0, 2023-02-10 11:44:50.480
71.0, 5581.074128278987, 187500.0, 187500.0, 187500.0, -187500.02235174447, 187500.0, -187500.02235174447, -187500.02235174447, -0.016, 0.026000000000000002, 0.996, 192.0, 0.0, 0.0, 0.0, 0.0, 0.0, 0.0, 0.0, 0.0, 0.0, 1.676047490480451E9, 0.0, 2023-02-10 11:44:50.480
72.0, 5437.240652709085, 187500.0, 187500.0, 187500.0, -187500.02235174447, 187500.0, -187500.02235174447, -187500.02235174447, -0.016, 0.026000000000000002, 0.996, 192.0, 0.0, 0.0, 0.0, 0.0, 0.0, 0.0, 0.0, 0.0, 0.0, 1.676047490488398E9, 0.0, 2023-02-10 11:44:50.488
73.0, 5589.634846405369, 187500.0, 187500.0, 187500.0, -187500.02235174447, 187500.0, -187500.02235174447, -187500.02235174447, -0.016, 0.026000000000000002, 0.996, 192.0, 0.0, 0.0, 0.0, 0.0, 0.0, 0.0, 0.0, 0.0, 0.0, 1.676047490488488E9, 0.0, 2023-02-10 11:44:50.488
74.0, 5685.814402796555, 187500.0, 187500.0, 187500.0, -187500.02235174447, 187500.0, -187500.02235174447, -187500.02235174447, -0.016, 0.026000000000000002, 0.996, 192.0, 0.0, 0.0, 0.0, 0.0, 0.0, 0.0, 0.0, 0.0, 0.0, 1.676047490496464E9, 0.0, 2023-02-10 11:44:50.496
75.0, 5631.231442836695, 187500.0, 187500.0, 187500.0, -187500.02235174447, 187500.0, -187500.02235174447, -187500.02235174447, -0.016, 0.026000000000000002, 0.996, 192.0, 0.0, 0.0, 0.0, 0.0, 0.0, 0.0, 0.0, 0.0, 0.0, 1.676047490496492E9, 0.0, 2023-02-10 11:44:50.496
76.0, 5562.723346081179, 187500.0, 187500.0, 187500.0, -187500.02235174447, 187500.0, -187500.02235174447, -187500.02235174447, -0.016, 0.024, 0.996, 192.0, 255.0, 128.0, 0.0, 192.0, 31.0, 32.0, 0.0, 0.0, 0.0, 1.676047490502529E9, 0.0, 2023-02-10 11:44:50.502
77.0, 5620.927288642799, 187500.0, 187500.0, 187500.0, -187500.02235174447, 187500.0, -187500.02235174447, -187500.02235174447, -0.016, 0.024, 0.996, 192.0, 0.0, 0.0, 0.0, 0.0, 0.0, 0.0, 0.0, 0.0, 0.0, 1.67604749050256E9, 0.0, 2023-02-10 11:44:50.502
78.0, 5658.411164094349, 187500.0, 187500.0, 187500.0, -187500.02235174447, 187500.0, -187500.02235174447, -187500.02235174447, -0.016, 0.024, 0.996, 192.0, 0.0, 0.0, 0.0, 0.0, 0.0, 0.0, 0.0, 0.0, 0.0, 1.676047490509972E9, 0.0, 2023-02-10 11:44:50.509
79.0, 5584.359834713917, 187500.0, 187500.0, 187500.0, -187500.02235174447, 187500.0, -187500.02235174447, -187500.02235174447, -0.016, 0.024, 0.996, 192.0, 0.0, 0.0, 0.0, 0.0, 0.0, 0.0, 0.0, 0.0, 0.0, 1.676047490517972E9, 0.0, 2023-02-10 11:44:50.517
80.0, 5536.281232390551, 187500.0, 187500.0, 187500.0, -187500.02235174447, 187500.0, -187500.02235174447, -187500.02235174447, -0.016, 0.024, 0.996, 192.0, 0.0, 0.0, 0.0, 0.0, 0.0, 0.0, 0.0, 0.0, 0.0, 1.676047490517996E9, 0.0, 2023-02-10 11:44:50.517
81.0, 5598.39673023185, 187500.0, 187500.0, 187500.0, -187500.02235174447, 187500.0, -187500.02235174447, -187500.02235174447, -0.016, 0.024, 0.996, 192.0, 0.0, 0.0, 0.0, 0.0, 0.0, 0.0, 0.0, 0.0, 0.0, 1.676047490525937E9, 0.0, 2023-02-10 11:44:50.525
82.0, 5739.726810422756, 187500.0, 187500.0, 187500.0, -187500.02235174447, 187500.0, -187500.02235174447, -187500.02235174447, -0.016, 0.024, 0.996, 192.0, 0.0, 0.0, 0.0, 0.0, 0.0, 0.0, 0.0, 0.0, 0.0, 1.676047490525966E9, 0.0, 2023-02-10 11:44:50.525
83.0, 5744.934766880842, 187500.0, 187500.0, 187500.0, -187500.02235174447, 187500.0, -187500.02235174447, -187500.02235174447, -0.016, 0.024, 0.996, 192.0, 0.0, 0.0, 0.0, 0.0, 0.0, 0.0, 0.0, 0.0, 0.0, 1.67604749053256E9, 0.0, 2023-02-10 11:44:50.532
84.0, 5565.249093204629, 187500.0, 187500.0, 187500.0, -187500.02235174447, 187500.0, -187500.02235174447, -187500.02235174447, -0.016, 0.024, 0.996, 192.0, 0.0, 0.0, 0.0, 0.0, 0.0, 0.0, 0.0, 0.0, 0.0, 1.67604749053259E9, 0.0, 2023-02-10 11:44:50.532
85.0, 5525.373581096361, 187500.0, 187500.0, 187500.0, -187500.02235174447, 187500.0, -187500.02235174447, -187500.02235174447, -0.016, 0.018000000000000002, 1.002, 192.0, 255.0, 128.0, 0.0, 144.0, 31.0, 80.0, 0.0, 0.0, 0.0, 1.676047490541213E9, 0.0, 2023-02-10 11:44:50.541
86.0, 5708.836699585521, 187500.0, 187500.0, 187500.0, -187500.02235174447, 187500.0, -187500.02235174447, -187500.02235174447, -0.016, 0.018000000000000002, 1.002, 192.0, 0.0, 0.0, 0.0, 0.0, 0.0, 0.0, 0.0, 0.0, 0.0, 1.676047490541528E9, 0.0, 2023-02-10 11:44:50.541
87.0, 5709.954286808287, 187500.0, 187500.0, 187500.0, -187500.02235174447, 187500.0, -187500.02235174447, -187500.02235174447, -0.016, 0.018000000000000002, 1.002, 192.0, 0.0, 0.0, 0.0, 0.0, 0.0, 0.0, 0.0, 0.0, 0.0, 1.676047490548608E9, 0.0, 2023-02-10 11:44:50.548
88.0, 5501.166641851264, 187500.0, 187500.0, 187500.0, -187500.02235174447, 187500.0, -187500.02235174447, -187500.02235174447, -0.016, 0.018000000000000002, 1.002, 192.0, 0.0, 0.0, 0.0, 0.0, 0.0, 0.0, 0.0, 0.0, 0.0, 1.676047490548644E9, 0.0, 2023-02-10 11:44:50.548
89.0, 5414.374818131307, 187500.0, 187500.0, 187500.0, -187500.02235174447, 187500.0, -187500.02235174447, -187500.02235174447, -0.016, 0.018000000000000002, 1.002, 192.0, 0.0, 0.0, 0.0, 0.0, 0.0, 0.0, 0.0, 0.0, 0.0, 1.67604749055568E9, 0.0, 2023-02-10 11:44:50.555
90.0, 5660.445172839782, 187500.0, 187500.0, 187500.0, -187500.02235174447, 187500.0, -187500.02235174447, -187500.02235174447, -0.016, 0.018000000000000002, 1.002, 192.0, 0.0, 0.0, 0.0, 0.0, 0.0, 0.0, 0.0, 0.0, 0.0, 1.676047490555707E9, 0.0, 2023-02-10 11:44:50.555
91.0, 5747.393458770926, 187500.0, 187500.0, 187500.0, -187500.02235174447, 187500.0, -187500.02235174447, -187500.02235174447, -0.016, 0.018000000000000002, 1.002, 192.0, 0.0, 0.0, 0.0, 0.0, 0.0, 0.0, 0.0, 0.0, 0.0, 1.676047490563335E9, 0.0, 2023-02-10 11:44:50.563
92.0, 5579.397747444838, 187500.0, 187500.0, 187500.0, -187500.02235174447, 187500.0, -187500.02235174447, -187500.02235174447, -0.016, 0.018000000000000002, 1.002, 192.0, 0.0, 0.0, 0.0, 0.0, 0.0, 0.0, 0.0, 0.0, 0.0, 1.676047490563368E9, 0.0, 2023-02-10 11:44:50.563
93.0, 5455.703193629169, 187500.0, 187500.0, 187500.0, -187500.02235174447, 187500.0, -187500.02235174447, -187500.02235174447, -0.016, 0.018000000000000002, 1.002, 192.0, 0.0, 0.0, 0.0, 0.0, 0.0, 0.0, 0.0, 0.0, 0.0, 1.676047490570372E9, 0.0, 2023-02-10 11:44:50.570
94.0, 5581.0964800234415, 187500.0, 187500.0, 187500.0, -187500.02235174447, 187500.0, -187500.02235174447, -187500.02235174447, -0.016, 0.018000000000000002, 1.002, 192.0, 0.0, 0.0, 0.0, 0.0, 0.0, 0.0, 0.0, 0.0, 0.0, 1.676047490578323E9, 0.0, 2023-02-10 11:44:50.578
95.0, 5763.464363034292, 187500.0, 187500.0, 187500.0, -187500.02235174447, 187500.0, -187500.02235174447, -187500.02235174447, -0.016, 0.022, 1.0, 192.0, 255.0, 128.0, 0.0, 176.0, 31.0, 64.0, 0.0, 0.0, 0.0, 1.676047490578354E9, 0.0, 2023-02-10 11:44:50.578
96.0, 5696.69970234629, 187500.0, 187500.0, 187500.0, -187500.02235174447, 187500.0, -187500.02235174447, -187500.02235174447, -0.016, 0.022, 1.0, 192.0, 0.0, 0.0, 0.0, 0.0, 0.0, 0.0, 0.0, 0.0, 0.0, 1.676047490586857E9, 0.0, 2023-02-10 11:44:50.586
97.0, 5545.199578428219, 187500.0, 187500.0, 187500.0, -187500.02235174447, 187500.0, -187500.02235174447, -187500.02235174447, -0.016, 0.022, 1.0, 192.0, 0.0, 0.0, 0.0, 0.0, 0.0, 0.0, 0.0, 0.0, 0.0, 1.676047490586886E9, 0.0, 2023-02-10 11:44:50.586
98.0, 5656.31010011555, 187500.0, 187500.0, 187500.0, -187500.02235174447, 187500.0, -187500.02235174447, -187500.02235174447, -0.016, 0.022, 1.0, 192.0, 0.0, 0.0, 0.0, 0.0, 0.0, 0.0, 0.0, 0.0, 0.0, 1.676047490593536E9, 0.0, 2023-02-10 11:44:50.593
99.0, 5697.705530846779, 187500.0, 187500.0, 187500.0, -187500.02235174447, 187500.0, -187500.02235174447, -187500.02235174447, -0.016, 0.022, 1.0, 192.0, 0.0, 0.0, 0.0, 0.0, 0.0, 0.0, 0.0, 0.0, 0.0, 1.67604749059358E9, 0.0, 2023-02-10 11:44:50.593
100.0, 5608.320904770006, 187500.0, 187500.0, 187500.0, -187500.02235174447, 187500.0, -187500.02235174447, -187500.02235174447, -0.016, 0.022, 1.0, 192.0, 0.0, 0.0, 0.0, 0.0, 0.0, 0.0, 0.0, 0.0, 0.0, 1.67604749060097E9, 0.0, 2023-02-10 11:44:50.600
101.0, 5452.618652894336, 187500.0, 187500.0, 187500.0, -187500.02235174447, 187500.0, -187500.02235174447, -187500.02235174447, -0.016, 0.022, 1.0, 192.0, 0.0, 0.0, 0.0, 0.0, 0.0, 0.0, 0.0, 0.0, 0.0, 1.676047490601001E9, 0.0, 2023-02-10 11:44:50.601
102.0, 5476.155039805775, 187500.0, 187500.0, 187500.0, -187500.02235174447, 187500.0, -187500.02235174447, -187500.02235174447, -0.016, 0.022, 1.0, 192.0, 0.0, 0.0, 0.0, 0.0, 0.0, 0.0, 0.0, 0.0, 0.0, 1.676047490608062E9, 0.0, 2023-02-10 11:44:50.608
103.0, 5643.323736587016, 187500.0, 187500.0, 187500.0, -187500.02235174447, 187500.0, -187500.02235174447, -187500.02235174447, -0.016, 0.022, 1.0, 192.0, 0.0, 0.0, 0.0, 0.0, 0.0, 0.0, 0.0, 0.0, 0.0, 1.676047490608106E9, 0.0, 2023-02-10 11:44:50.608
104.0, 5701.617086126457, 187500.0, 187500.0, 187500.0, -187500.02235174447, 187500.0, -187500.02235174447, -187500.02235174447, -0.016, 0.022, 1.0, 192.0, 0.0, 0.0, 0.0, 0.0, 0.0, 0.0, 0.0, 0.0, 0.0, 1.676047490615603E9, 0.0, 2023-02-10 11:44:50.615
105.0, 5553.894407021333, 187500.0, 187500.0, 187500.0, -187500.02235174447, 187500.0, -187500.02235174447, -187500.02235174447, -0.016, 0.026000000000000002, 1.002, 192.0, 255.0, 128.0, 0.0, 208.0, 31.0, 80.0, 0.0, 0.0, 0.0, 1.676047490615637E9, 0.0, 2023-02-10 11:44:50.615
106.0, 5504.027665141543, 187500.0, 187500.0, 187500.0, -187500.02235174447, 187500.0, -187500.02235174447, -187500.02235174447, -0.016, 0.026000000000000002, 1.002, 192.0, 0.0, 0.0, 0.0, 0.0, 0.0, 0.0, 0.0, 0.0, 0.0, 1.676047490623472E9, 0.0, 2023-02-10 11:44:50.623
107.0, 5672.3139491455495, 187500.0, 187500.0, 187500.0, -187500.02235174447, 187500.0, -187500.02235174447, -187500.02235174447, -0.016, 0.026000000000000002, 1.002, 192.0, 0.0, 0.0, 0.0, 0.0, 0.0, 0.0, 0.0, 0.0, 0.0, 1.676047490623506E9, 0.0, 2023-02-10 11:44:50.623
108.0, 5719.073798546052, 187500.0, 187500.0, 187500.0, -187500.02235174447, 187500.0, -187500.02235174447, -187500.02235174447, -0.016, 0.026000000000000002, 1.002, 192.0, 0.0, 0.0, 0.0, 0.0, 0.0, 0.0, 0.0, 0.0, 0.0, 1.676047490630433E9, 0.0, 2023-02-10 11:44:50.630
109.0, 5546.2277586731625, 187500.0, 187500.0, 187500.0, -187500.02235174447, 187500.0, -187500.02235174447, -187500.02235174447, -0.016, 0.026000000000000002, 1.002, 192.0, 0.0, 0.0, 0.0, 0.0, 0.0, 0.0, 0.0, 0.0, 0.0, 1.676047490637898E9, 0.0, 2023-02-10 11:44:50.637
110.0, 5612.0312943495865, 187500.0, 187500.0, 187500.0, -187500.02235174447, 187500.0, -187500.02235174447, -187500.02235174447, -0.016, 0.026000000000000002, 1.002, 192.0, 0.0, 0.0, 0.0, 0.0, 0.0, 0.0, 0.0, 0.0, 0.0, 1.676047490637938E9, 0.0, 2023-02-10 11:44:50.637
111.0, 5706.802690840089, 187500.0, 187500.0, 187500.0, -187500.02235174447, 187500.0, -187500.02235174447, -187500.02235174447, -0.016, 0.026000000000000002, 1.002, 192.0, 0.0, 0.0, 0.0, 0.0, 0.0, 0.0, 0.0, 0.0, 0.0, 1.676047490645346E9, 0.0, 2023-02-10 11:44:50.645
112.0, 5673.990329979698, 187500.0, 187500.0, 187500.0, -187500.02235174447, 187500.0, -187500.02235174447, -187500.02235174447, -0.016, 0.026000000000000002, 1.002, 192.0, 0.0, 0.0, 0.0, 0.0, 0.0, 0.0, 0.0, 0.0, 0.0, 1.676047490645377E9, 0.0, 2023-02-10 11:44:50.645
113.0, 5498.842060427912, 187500.0, 187500.0, 187500.0, -187500.02235174447, 187500.0, -187500.02235174447, -187500.02235174447, -0.016, 0.026000000000000002, 1.002, 192.0, 0.0, 0.0, 0.0, 0.0, 0.0, 0.0, 0.0, 0.0, 0.0, 1.676047490653364E9, 0.0, 2023-02-10 11:44:50.653
114.0, 5434.334925929896, 187500.0, 187500.0, 187500.0, -187500.02235174447, 187500.0, -187500.02235174447, -187500.02235174447, -0.016, 0.026000000000000002, 1.002, 192.0, 0.0, 0.0, 0.0, 0.0, 0.0, 0.0, 0.0, 0.0, 0.0, 1.676047490653411E9, 0.0, 2023-02-10 11:44:50.653
115.0, 5519.115092648875, 187500.0, 187500.0, 187500.0, -187500.02235174447, 187500.0, -187500.02235174447, -187500.02235174447, -0.014, 0.03, 0.998, 192.0, 255.0, 144.0, 0.0, 240.0, 31.0, 48.0, 0.0, 0.0, 0.0, 1.676047490661237E9, 0.0, 2023-02-10 11:44:50.661
116.0, 5673.900923001876, 187500.0, 187500.0, 187500.0, -187500.02235174447, 187500.0, -187500.02235174447, -187500.02235174447, -0.014, 0.03, 0.998, 192.0, 0.0, 0.0, 0.0, 0.0, 0.0, 0.0, 0.0, 0.0, 0.0, 1.67604749066127E9, 0.0, 2023-02-10 11:44:50.661
117.0, 5550.429886630761, 187500.0, 187500.0, 187500.0, -187500.02235174447, 187500.0, -187500.02235174447, -187500.02235174447, -0.014, 0.03, 0.998, 192.0, 0.0, 0.0, 0.0, 0.0, 0.0, 0.0, 0.0, 0.0, 0.0, 1.676047490667934E9, 0.0, 2023-02-10 11:44:50.667
118.0, 5410.463262851627, 187500.0, 187500.0, 187500.0, -187500.02235174447, 187500.0, -187500.02235174447, -187500.02235174447, -0.014, 0.03, 0.998, 192.0, 0.0, 0.0, 0.0, 0.0, 0.0, 0.0, 0.0, 0.0, 0.0, 1.67604749066796E9, 0.0, 2023-02-10 11:44:50.667
119.0, 5662.210960651751, 187500.0, 187500.0, 187500.0, -187500.02235174447, 187500.0, -187500.02235174447, -187500.02235174447, -0.014, 0.03, 0.998, 192.0, 0.0, 0.0, 0.0, 0.0, 0.0, 0.0, 0.0, 0.0, 0.0, 1.676047490675968E9, 0.0, 2023-02-10 11:44:50.675
120.0, 5749.673336705368, 187500.0, 187500.0, 187500.0, -187500.02235174447, 187500.0, -187500.02235174447, -187500.02235174447, -0.014, 0.03, 0.998, 192.0, 0.0, 0.0, 0.0, 0.0, 0.0, 0.0, 0.0, 0.0, 0.0, 1.676047490675998E9, 0.0, 2023-02-10 11:44:50.675
121.0, 5582.549343413037, 187500.0, 187500.0, 187500.0, -187500.02235174447, 187500.0, -187500.02235174447, -187500.02235174447, -0.014, 0.03, 0.998, 192.0, 0.0, 0.0, 0.0, 0.0, 0.0, 0.0, 0.0, 0.0, 0.0, 1.67604749068382E9, 0.0, 2023-02-10 11:44:50.683
122.0, 5466.633196667814, 187500.0, 187500.0, 187500.0, -187500.02235174447, 187500.0, -187500.02235174447, -187500.02235174447, -0.014, 0.03, 0.998, 192.0, 0.0, 0.0, 0.0, 0.0, 0.0, 0.0, 0.0, 0.0, 0.0, 1.67604749068385E9, 0.0, 2023-02-10 11:44:50.683
123.0, 5555.1461047108305, 187500.0, 187500.0, 187500.0, -187500.02235174447, 187500.0, -187500.02235174447, -187500.02235174447, -0.014, 0.03, 0.998, 192.0, 0.0, 0.0, 0.0, 0.0, 0.0, 0.0, 0.0, 0.0, 0.0, 1.676047490691013E9, 0.0, 2023-02-10 11:44:50.691
124.0, 5735.032944087141, 187500.0, 187500.0, 187500.0, -187500.02235174447, 187500.0, -187500.02235174447, -187500.02235174447, -0.014, 0.03, 0.998, 192.0, 0.0, 0.0, 0.0, 0.0, 0.0, 0.0, 0.0, 0.0, 0.0, 1.676047490697608E9, 0.0, 2023-02-10 11:44:50.697
125.0, 5600.698959910746, 187500.0, 187500.0, 187500.0, -187500.02235174447, 187500.0, -187500.02235174447, -187500.02235174447, -0.018000000000000002, 0.028, 1.0, 192.0, 255.0, 112.0, 0.0, 224.0, 31.0, 64.0, 0.0, 0.0, 0.0, 1.676047490697639E9, 0.0, 2023-02-10 11:44:50.697
126.0, 5427.249422937563, 187500.0, 187500.0, 187500.0, -187500.02235174447, 187500.0, -187500.02235174447, -187500.02235174447, -0.018000000000000002, 0.028, 1.0, 192.0, 0.0, 0.0, 0.0, 0.0, 0.0, 0.0, 0.0, 0.0, 0.0, 1.676047490705566E9, 0.0, 2023-02-10 11:44:50.705
127.0, 5540.103380692409, 187500.0, 187500.0, 187500.0, -187500.02235174447, 187500.0, -187500.02235174447, -187500.02235174447, -0.018000000000000002, 0.028, 1.0, 192.0, 0.0, 0.0, 0.0, 0.0, 0.0, 0.0, 0.0, 0.0, 0.0, 1.676047490705595E9, 0.0, 2023-02-10 11:44:50.705
128.0, 5699.672484358845, 187500.0, 187500.0, 187500.0, -187500.02235174447, 187500.0, -187500.02235174447, -187500.02235174447, -0.018000000000000002, 0.028, 1.0, 192.0, 0.0, 0.0, 0.0, 0.0, 0.0, 0.0, 0.0, 0.0, 0.0, 1.676047490713513E9, 0.0, 2023-02-10 11:44:50.713
129.0, 5652.532655302603, 187500.0, 187500.0, 187500.0, -187500.02235174447, 187500.0, -187500.02235174447, -187500.02235174447, -0.018000000000000002, 0.028, 1.0, 192.0, 0.0, 0.0, 0.0, 0.0, 0.0, 0.0, 0.0, 0.0, 0.0, 1.676047490713559E9, 0.0, 2023-02-10 11:44:50.713
130.0, 5393.028902176488, 187500.0, 187500.0, 187500.0, -187500.02235174447, 187500.0, -187500.02235174447, -187500.02235174447, -0.018000000000000002, 0.028, 1.0, 192.0, 0.0, 0.0, 0.0, 0.0, 0.0, 0.0, 0.0, 0.0, 0.0, 1.676047490720531E9, 0.0, 2023-02-10 11:44:50.720
131.0, 5374.566361256405, 187500.0, 187500.0, 187500.0, -187500.02235174447, 187500.0, -187500.02235174447, -187500.02235174447, -0.018000000000000002, 0.028, 1.0, 192.0, 0.0, 0.0, 0.0, 0.0, 0.0, 0.0, 0.0, 0.0, 0.0, 1.676047490720565E9, 0.0, 2023-02-10 11:44:50.720
132.0, 5685.926161518832, 187500.0, 187500.0, 187500.0, -187500.02235174447, 187500.0, -187500.02235174447, -187500.02235174447, -0.018000000000000002, 0.028, 1.0, 192.0, 0.0, 0.0, 0.0, 0.0, 0.0, 0.0, 0.0, 0.0, 0.0, 1.67604749072816E9, 0.0, 2023-02-10 11:44:50.728
133.0, 5684.786222551611, 187500.0, 187500.0, 187500.0, -187500.02235174447, 187500.0, -187500.02235174447, -187500.02235174447, -0.018000000000000002, 0.028, 1.0, 192.0, 0.0, 0.0, 0.0, 0.0, 0.0, 0.0, 0.0, 0.0, 0.0, 1.676047490728189E9, 0.0, 2023-02-10 11:44:50.728
134.0, 5478.70313867368, 187500.0, 187500.0, 187500.0, -187500.02235174447, 187500.0, -187500.02235174447, -187500.02235174447, -0.01, 0.024, 1.0, 192.0, 255.0, 176.0, 0.0, 192.0, 31.0, 64.0, 0.0, 0.0, 0.0, 1.676047490736107E9, 0.0, 2023-02-10 11:44:50.736
135.0, 5420.745065301069, 187500.0, 187500.0, 187500.0, -187500.02235174447, 187500.0, -187500.02235174447, -187500.02235174447, -0.01, 0.024, 1.0, 192.0, 0.0, 0.0, 0.0, 0.0, 0.0, 0.0, 0.0, 0.0, 0.0, 1.676047490736135E9, 0.0, 2023-02-10 11:44:50.736
136.0, 5643.569605776025, 187500.0, 187500.0, 187500.0, -187500.02235174447, 187500.0, -187500.02235174447, -187500.02235174447, -0.01, 0.024, 1.0, 192.0, 0.0, 0.0, 0.0, 0.0, 0.0, 0.0, 0.0, 0.0, 0.0, 1.676047490744442E9, 0.0, 2023-02-10 11:44:50.744
137.0, 5697.526716891136, 187500.0, 187500.0, 187500.0, -187500.02235174447, 187500.0, -187500.02235174447, -187500.02235174447, -0.01, 0.024, 1.0, 192.0, 0.0, 0.0, 0.0, 0.0, 0.0, 0.0, 0.0, 0.0, 0.0, 1.676047490744524E9, 0.0, 2023-02-10 11:44:50.744
138.0, 5475.0821560719205, 187500.0, 187500.0, 187500.0, -187500.02235174447, 187500.0, -187500.02235174447, -187500.02235174447, -0.01, 0.024, 1.0, 192.0, 0.0, 0.0, 0.0, 0.0, 0.0, 0.0, 0.0, 0.0, 0.0, 1.67604749075025E9, 0.0, 2023-02-10 11:44:50.750
139.0, 5426.735332815091, 187500.0, 187500.0, 187500.0, -187500.02235174447, 187500.0, -187500.02235174447, -187500.02235174447, -0.01, 0.024, 1.0, 192.0, 0.0, 0.0, 0.0, 0.0, 0.0, 0.0, 0.0, 0.0, 0.0, 1.676047490750282E9, 0.0, 2023-02-10 11:44:50.750
140.0, 5590.148936527841, 187500.0, 187500.0, 187500.0, -187500.02235174447, 187500.0, -187500.02235174447, -187500.02235174447, -0.01, 0.024, 1.0, 192.0, 0.0, 0.0, 0.0, 0.0, 0.0, 0.0, 0.0, 0.0, 0.0, 1.676047490757763E9, 0.0, 2023-02-10 11:44:50.757
141.0, 5682.908676017365, 187500.0, 187500.0, 187500.0, -187500.02235174447, 187500.0, -187500.02235174447, -187500.02235174447, -0.01, 0.024, 1.0, 192.0, 0.0, 0.0, 0.0, 0.0, 0.0, 0.0, 0.0, 0.0, 0.0, 1.676047490765753E9, 0.0, 2023-02-10 11:44:50.765
142.0, 5521.28321186104, 187500.0, 187500.0, 187500.0, -187500.02235174447, 187500.0, -187500.02235174447, -187500.02235174447, -0.01, 0.024, 1.0, 192.0, 0.0, 0.0, 0.0, 0.0, 0.0, 0.0, 0.0, 0.0, 0.0, 1.676047490765783E9, 0.0, 2023-02-10 11:44:50.765
143.0, 5400.315570868918, 187500.0, 187500.0, 187500.0, -187500.02235174447, 187500.0, -187500.02235174447, -187500.02235174447, -0.01, 0.024, 1.0, 192.0, 0.0, 0.0, 0.0, 0.0, 0.0, 0.0, 0.0, 0.0, 0.0, 1.676047490772859E9, 0.0, 2023-02-10 11:44:50.772
144.0, 5555.839008788945, 187500.0, 187500.0, 187500.0, -187500.02235174447, 187500.0, -187500.02235174447, -187500.02235174447, -0.01, 0.024, 0.996, 192.0, 255.0, 176.0, 0.0, 192.0, 31.0, 32.0, 0.0, 0.0, 0.0, 1.676047490772886E9, 0.0, 2023-02-10 11:44:50.772
145.0, 5683.132193461918, 187500.0, 187500.0, 187500.0, -187500.02235174447, 187500.0, -187500.02235174447, -187500.02235174447, -0.01, 0.024, 0.996, 192.0, 0.0, 0.0, 0.0, 0.0, 0.0, 0.0, 0.0, 0.0, 0.0, 1.67604749078041E9, 0.0, 2023-02-10 11:44:50.780
146.0, 5528.1451974088195, 187500.0, 187500.0, 187500.0, -187500.02235174447, 187500.0, -187500.02235174447, -187500.02235174447, -0.01, 0.024, 0.996, 192.0, 0.0, 0.0, 0.0, 0.0, 0.0, 0.0, 0.0, 0.0, 0.0, 1.676047490780442E9, 0.0, 2023-02-10 11:44:50.780
147.0, 5395.822870233402, 187500.0, 187500.0, 187500.0, -187500.02235174447, 187500.0, -187500.02235174447, -187500.02235174447, -0.01, 0.024, 0.996, 192.0, 0.0, 0.0, 0.0, 0.0, 0.0, 0.0, 0.0, 0.0, 0.0, 1.676047490788493E9, 0.0, 2023-02-10 11:44:50.788
148.0, 5535.409514356794, 187500.0, 187500.0, 187500.0, -187500.02235174447, 187500.0, -187500.02235174447, -187500.02235174447, -0.01, 0.024, 0.996, 192.0, 0.0, 0.0, 0.0, 0.0, 0.0, 0.0, 0.0, 0.0, 0.0, 1.676047490788532E9, 0.0, 2023-02-10 11:44:50.788
149.0, 5653.449076825271, 187500.0, 187500.0, 187500.0, -187500.02235174447, 187500.0, -187500.02235174447, -187500.02235174447, -0.01, 0.024, 0.996, 192.0, 0.0, 0.0, 0.0, 0.0, 0.0, 0.0, 0.0, 0.0, 0.0, 1.676047490796393E9, 0.0, 2023-02-10 11:44:50.796
150.0, 5505.927563420244, 187500.0, 187500.0, 187500.0, -187500.02235174447, 187500.0, -187500.02235174447, -187500.02235174447, -0.01, 0.024, 0.996, 192.0, 0.0, 0.0, 0.0, 0.0, 0.0, 0.0, 0.0, 0.0, 0.0, 1.676047490796424E9, 0.0, 2023-02-10 11:44:50.796
151.0, 5442.672126611725, 187500.0, 187500.0, 187500.0, -187500.02235174447, 187500.0, -187500.02235174447, -187500.02235174447, -0.01, 0.024, 0.996, 192.0, 0.0, 0.0, 0.0, 0.0, 0.0, 0.0, 0.0, 0.0, 0.0, 1.676047490802965E9, 0.0, 2023-02-10 11:44:50.802
152.0, 5564.936168782255, 187500.0, 187500.0, 187500.0, -187500.02235174447, 187500.0, -187500.02235174447, -187500.02235174447, -0.01, 0.024, 0.996, 192.0, 0.0, 0.0, 0.0, 0.0, 0.0, 0.0, 0.0, 0.0, 0.0, 1.676047490803051E9, 0.0, 2023-02-10 11:44:50.803
153.0, 5666.457792098259, 187500.0, 187500.0, 187500.0, -187500.02235174447, 187500.0, -187500.02235174447, -187500.02235174447, -0.01, 0.024, 0.996, 192.0, 0.0, 0.0, 0.0, 0.0, 0.0, 0.0, 0.0, 0.0, 0.0, 1.676047490811123E9, 0.0, 2023-02-10 11:44:50.811
154.0, 5603.716445412212, 187500.0, 187500.0, 187500.0, -187500.02235174447, 187500.0, -187500.02235174447, -187500.02235174447, -0.01, 0.022, 1.0, 192.0, 255.0, 176.0, 0.0, 176.0, 31.0, 64.0, 0.0, 0.0, 0.0, 1.676047490811156E9, 0.0, 2023-02-10 11:44:50.811
155.0, 5410.329152384896, 187500.0, 187500.0, 187500.0, -187500.02235174447, 187500.0, -187500.02235174447, -187500.02235174447, -0.01, 0.022, 1.0, 192.0, 0.0, 0.0, 0.0, 0.0, 0.0, 0.0, 0.0, 0.0, 0.0, 1.6760474908181E9, 0.0, 2023-02-10 11:44:50.818
156.0, 5413.681914053192, 187500.0, 187500.0, 187500.0, -187500.02235174447, 187500.0, -187500.02235174447, -187500.02235174447, -0.01, 0.022, 1.0, 192.0, 0.0, 0.0, 0.0, 0.0, 0.0, 0.0, 0.0, 0.0, 0.0, 1.676047490826121E9, 0.0, 2023-02-10 11:44:50.826
157.0, 5635.567681261025, 187500.0, 187500.0, 187500.0, -187500.02235174447, 187500.0, -187500.02235174447, -187500.02235174447, -0.01, 0.022, 1.0, 192.0, 0.0, 0.0, 0.0, 0.0, 0.0, 0.0, 0.0, 0.0, 0.0, 1.676047490826152E9, 0.0, 2023-02-10 11:44:50.826
158.0, 5649.671632012324, 187500.0, 187500.0, 187500.0, -187500.02235174447, 187500.0, -187500.02235174447, -187500.02235174447, -0.01, 0.022, 1.0, 192.0, 0.0, 0.0, 0.0, 0.0, 0.0, 0.0, 0.0, 0.0, 0.0, 1.676047490832631E9, 0.0, 2023-02-10 11:44:50.832
159.0, 5450.115257515342, 187500.0, 187500.0, 187500.0, -187500.02235174447, 187500.0, -187500.02235174447, -187500.02235174447, -0.01, 0.022, 1.0, 192.0, 0.0, 0.0, 0.0, 0.0, 0.0, 0.0, 0.0, 0.0, 0.0, 1.676047490832681E9, 0.0, 2023-02-10 11:44:50.832
160.0, 5416.297068154463, 187500.0, 187500.0, 187500.0, -187500.02235174447, 187500.0, -187500.02235174447, -187500.02235174447, -0.01, 0.022, 1.0, 192.0, 0.0, 0.0, 0.0, 0.0, 0.0, 0.0, 0.0, 0.0, 0.0, 1.676047490840645E9, 0.0, 2023-02-10 11:44:50.840
161.0, 5603.895259367855, 187500.0, 187500.0, 187500.0, -187500.02235174447, 187500.0, -187500.02235174447, -187500.02235174447, -0.01, 0.022, 1.0, 192.0, 0.0, 0.0, 0.0, 0.0, 0.0, 0.0, 0.0, 0.0, 0.0, 1.676047490840687E9, 0.0, 2023-02-10 11:44:50.840
162.0, 5728.70740040629, 187500.0, 187500.0, 187500.0, -187500.02235174447, 187500.0, -187500.02235174447, -187500.02235174447, -0.01, 0.022, 1.0, 192.0, 0.0, 0.0, 0.0, 0.0, 0.0, 0.0, 0.0, 0.0, 0.0, 1.676047490848705E9, 0.0, 2023-02-10 11:44:50.848
163.0, 5492.583571980425, 187500.0, 187500.0, 187500.0, -187500.02235174447, 187500.0, -187500.02235174447, -187500.02235174447, -0.01, 0.022, 1.0, 192.0, 0.0, 0.0, 0.0, 0.0, 0.0, 0.0, 0.0, 0.0, 0.0, 1.676047490848734E9, 0.0, 2023-02-10 11:44:50.848
164.0, 5299.017464997467, 187500.0, 187500.0, 187500.0, -187500.02235174447, 187500.0, -187500.02235174447, -187500.02235174447, -0.01, 0.028, 1.002, 192.0, 255.0, 176.0, 0.0, 224.0, 31.0, 80.0, 0.0, 0.0, 0.0, 1.67604749085578E9, 0.0, 2023-02-10 11:44:50.855
165.0, 5563.550360626025, 187500.0, 187500.0, 187500.0, -187500.02235174447, 187500.0, -187500.02235174447, -187500.02235174447, -0.01, 0.028, 1.002, 192.0, 0.0, 0.0, 0.0, 0.0, 0.0, 0.0, 0.0, 0.0, 0.0, 1.676047490855819E9, 0.0, 2023-02-10 11:44:50.855
166.0, 5696.7444058352, 187500.0, 187500.0, 187500.0, -187500.02235174447, 187500.0, -187500.02235174447, -187500.02235174447, -0.01, 0.028, 1.002, 192.0, 0.0, 0.0, 0.0, 0.0, 0.0, 0.0, 0.0, 0.0, 0.0, 1.676047490863206E9, 0.0, 2023-02-10 11:44:50.863
167.0, 5525.3288776074505, 187500.0, 187500.0, 187500.0, -187500.02235174447, 187500.0, -187500.02235174447, -187500.02235174447, -0.01, 0.028, 1.002, 192.0, 0.0, 0.0, 0.0, 0.0, 0.0, 0.0, 0.0, 0.0, 0.0, 1.676047490863237E9, 0.0, 2023-02-10 11:44:50.863
168.0, 5362.272901805985, 187500.0, 187500.0, 187500.0, -187500.02235174447, 187500.0, -187500.02235174447, -187500.02235174447, -0.01, 0.028, 1.002, 192.0, 0.0, 0.0, 0.0, 0.0, 0.0, 0.0, 0.0, 0.0, 0.0, 1.676047490871402E9, 0.0, 2023-02-10 11:44:50.871
169.0, 5526.245299130118, 187500.0, 187500.0, 187500.0, -187500.02235174447, 187500.0, -187500.02235174447, -187500.02235174447, -0.01, 0.028, 1.002, 192.0, 0.0, 0.0, 0.0, 0.0, 0.0, 0.0, 0.0, 0.0, 0.0, 1.676047490871448E9, 0.0, 2023-02-10 11:44:50.871
170.0, 5685.613237096458, 187500.0, 187500.0, 187500.0, -187500.02235174447, 187500.0, -187500.02235174447, -187500.02235174447, -0.01, 0.028, 1.002, 192.0, 0.0, 0.0, 0.0, 0.0, 0.0, 0.0, 0.0, 0.0, 0.0, 1.6760474908784E9, 0.0, 2023-02-10 11:44:50.878
171.0, 5528.0334386865425, 187500.0, 187500.0, 187500.0, -187500.02235174447, 187500.0, -187500.02235174447, -187500.02235174447, -0.01, 0.028, 1.002, 192.0, 0.0, 0.0, 0.0, 0.0, 0.0, 0.0, 0.0, 0.0, 0.0, 1.676047490885413E9, 0.0, 2023-02-10 11:44:50.885
172.0, 5312.093235503821, 187500.0, 187500.0, 187500.0, -187500.02235174447, 187500.0, -187500.02235174447, -187500.02235174447, -0.01, 0.028, 1.002, 192.0, 0.0, 0.0, 0.0, 0.0, 0.0, 0.0, 0.0, 0.0, 0.0, 1.676047490885473E9, 0.0, 2023-02-10 11:44:50.885
173.0, 5413.234879164085, 187500.0, 187500.0, 187500.0, -187500.02235174447, 187500.0, -187500.02235174447, -187500.02235174447, -0.01, 0.028, 1.002, 192.0, 0.0, 0.0, 0.0, 0.0, 0.0, 0.0, 0.0, 0.0, 0.0, 1.676047490892954E9, 0.0, 2023-02-10 11:44:50.892
174.0, 5562.879808292367, 187500.0, 187500.0, 187500.0, -187500.02235174447, 187500.0, -187500.02235174447, -187500.02235174447, -0.012, 0.032, 0.998, 192.0, 255.0, 160.0, 1.0, 0.0, 31.0, 48.0, 0.0, 0.0, 0.0, 1.676047490892987E9, 0.0, 2023-02-10 11:44:50.892
175.0, 5632.326678315006, 187500.0, 187500.0, 187500.0, -187500.02235174447, 187500.0, -187500.02235174447, -187500.02235174447, -0.012, 0.032, 0.998, 192.0, 0.0, 0.0, 0.0, 0.0, 0.0, 0.0, 0.0, 0.0, 0.0, 1.676047490900883E9, 0.0, 2023-02-10 11:44:50.900
176.0, 5448.863559825845, 187500.0, 187500.0, 187500.0, -187500.02235174447, 187500.0, -187500.02235174447, -187500.02235174447, -0.012, 0.032, 0.998, 192.0, 0.0, 0.0, 0.0, 0.0, 0.0, 0.0, 0.0, 0.0, 0.0, 1.676047490900908E9, 0.0, 2023-02-10 11:44:50.900
177.0, 5481.295941030496, 187500.0, 187500.0, 187500.0, -187500.02235174447, 187500.0, -187500.02235174447, -187500.02235174447, -0.012, 0.032, 0.998, 192.0, 0.0, 0.0, 0.0, 0.0, 0.0, 0.0, 0.0, 0.0, 0.0, 1.676047490908995E9, 0.0, 2023-02-10 11:44:50.908
178.0, 5598.307323254028, 187500.0, 187500.0, 187500.0, -187500.02235174447, 187500.0, -187500.02235174447, -187500.02235174447, -0.012, 0.032, 0.998, 192.0, 0.0, 0.0, 0.0, 0.0, 0.0, 0.0, 0.0, 0.0, 0.0, 1.676047490909031E9, 0.0, 2023-02-10 11:44:50.909
179.0, 5522.780778739546, 187500.0, 187500.0, 187500.0, -187500.02235174447, 187500.0, -187500.02235174447, -187500.02235174447, -0.012, 0.032, 0.998, 192.0, 0.0, 0.0, 0.0, 0.0, 0.0, 0.0, 0.0, 0.0, 0.0, 1.676047490915507E9, 0.0, 2023-02-10 11:44:50.915
180.0, 5426.802388048457, 187500.0, 187500.0, 187500.0, -187500.02235174447, 187500.0, -187500.02235174447, -187500.02235174447, -0.012, 0.032, 0.998, 192.0, 0.0, 0.0, 0.0, 0.0, 0.0, 0.0, 0.0, 0.0, 0.0, 1.676047490915533E9, 0.0, 2023-02-10 11:44:50.915
181.0, 5419.225146678108, 187500.0, 187500.0, 187500.0, -187500.02235174447, 187500.0, -187500.02235174447, -187500.02235174447, -0.012, 0.032, 0.998, 192.0, 0.0, 0.0, 0.0, 0.0, 0.0, 0.0, 0.0, 0.0, 0.0, 1.676047490923614E9, 0.0, 2023-02-10 11:44:50.923
182.0, 5561.449296647227, 187500.0, 187500.0, 187500.0, -187500.02235174447, 187500.0, -187500.02235174447, -187500.02235174447, -0.012, 0.032, 0.998, 192.0, 0.0, 0.0, 0.0, 0.0, 0.0, 0.0, 0.0, 0.0, 0.0, 1.676047490923645E9, 0.0, 2023-02-10 11:44:50.923
183.0, 5619.519128742115, 187500.0, 187500.0, 187500.0, -187500.02235174447, 187500.0, -187500.02235174447, -187500.02235174447, -0.012, 0.032, 0.998, 192.0, 0.0, 0.0, 0.0, 0.0, 0.0, 0.0, 0.0, 0.0, 0.0, 1.676047490931628E9, 0.0, 2023-02-10 11:44:50.931
184.0, 5331.762770624491, 187500.0, 187500.0, 187500.0, -187500.02235174447, 187500.0, -187500.02235174447, -187500.02235174447, -0.012, 0.032, 1.008, 192.0, 255.0, 160.0, 1.0, 0.0, 31.0, 128.0, 0.0, 0.0, 0.0, 1.676047490931657E9, 0.0, 2023-02-10 11:44:50.931
185.0, 5307.555831379394, 187500.0, 187500.0, 187500.0, -187500.02235174447, 187500.0, -187500.02235174447, -187500.02235174447, -0.012, 0.032, 1.008, 192.0, 0.0, 0.0, 0.0, 0.0, 0.0, 0.0, 0.0, 0.0, 0.0, 1.676047490937701E9, 0.0, 2023-02-10 11:44:50.937
186.0, 5593.3005324960395, 187500.0, 187500.0, 187500.0, -187500.02235174447, 187500.0, -187500.02235174447, -187500.02235174447, -0.012, 0.032, 1.008, 192.0, 0.0, 0.0, 0.0, 0.0, 0.0, 0.0, 0.0, 0.0, 0.0, 1.676047490945206E9, 0.0, 2023-02-10 11:44:50.945
187.0, 5653.516132058637, 187500.0, 187500.0, 187500.0, -187500.02235174447, 187500.0, -187500.02235174447, -187500.02235174447, -0.012, 0.032, 1.008, 192.0, 0.0, 0.0, 0.0, 0.0, 0.0, 0.0, 0.0, 0.0, 0.0, 1.676047490945235E9, 0.0, 2023-02-10 11:44:50.945
188.0, 5421.303858912452, 187500.0, 187500.0, 187500.0, -187500.02235174447, 187500.0, -187500.02235174447, -187500.02235174447, -0.012, 0.032, 1.008, 192.0, 0.0, 0.0, 0.0, 0.0, 0.0, 0.0, 0.0, 0.0, 0.0, 1.676047490953157E9, 0.0, 2023-02-10 11:44:50.953
189.0, 5347.2972330209295, 187500.0, 187500.0, 187500.0, -187500.02235174447, 187500.0, -187500.02235174447, -187500.02235174447, -0.012, 0.032, 1.008, 192.0, 0.0, 0.0, 0.0, 0.0, 0.0, 0.0, 0.0, 0.0, 0.0, 1.676047490953184E9, 0.0, 2023-02-10 11:44:50.953
190.0, 5606.577468702491, 187500.0, 187500.0, 187500.0, -187500.02235174447, 187500.0, -187500.02235174447, -187500.02235174447, -0.012, 0.032, 1.008, 192.0, 0.0, 0.0, 0.0, 0.0, 0.0, 0.0, 0.0, 0.0, 0.0, 1.676047490961397E9, 0.0, 2023-02-10 11:44:50.961
191.0, 5607.806814647533, 187500.0, 187500.0, 187500.0, -187500.02235174447, 187500.0, -187500.02235174447, -187500.02235174447, -0.012, 0.032, 1.008, 192.0, 0.0, 0.0, 0.0, 0.0, 0.0, 0.0, 0.0, 0.0, 0.0, 1.676047490961429E9, 0.0, 2023-02-10 11:44:50.961
192.0, 5397.275733622996, 187500.0, 187500.0, 187500.0, -187500.02235174447, 187500.0, -187500.02235174447, -187500.02235174447, -0.012, 0.032, 1.008, 192.0, 0.0, 0.0, 0.0, 0.0, 0.0, 0.0, 0.0, 0.0, 0.0, 1.676047490967806E9, 0.0, 2023-02-10 11:44:50.967
193.0, 5318.91051756269, 187500.0, 187500.0, 187500.0, -187500.02235174447, 187500.0, -187500.02235174447, -187500.02235174447, -0.01, 0.03, 1.006, 192.0, 255.0, 176.0, 0.0, 240.0, 31.0, 112.0, 0.0, 0.0, 0.0, 1.676047490967979E9, 0.0, 2023-02-10 11:44:50.967
194.0, 5453.088039527898, 187500.0, 187500.0, 187500.0, -187500.02235174447, 187500.0, -187500.02235174447, -187500.02235174447, -0.01, 0.03, 1.006, 192.0, 0.0, 0.0, 0.0, 0.0, 0.0, 0.0, 0.0, 0.0, 0.0, 1.676047490975763E9, 0.0, 2023-02-10 11:44:50.975
195.0, 5604.2752390235955, 187500.0, 187500.0, 187500.0, -187500.02235174447, 187500.0, -187500.02235174447, -187500.02235174447, -0.01, 0.03, 1.006, 192.0, 0.0, 0.0, 0.0, 0.0, 0.0, 0.0, 0.0, 0.0, 0.0, 1.676047490975789E9, 0.0, 2023-02-10 11:44:50.975
196.0, 5492.471813258149, 187500.0, 187500.0, 187500.0, -187500.02235174447, 187500.0, -187500.02235174447, -187500.02235174447, -0.01, 0.03, 1.006, 192.0, 0.0, 0.0, 0.0, 0.0, 0.0, 0.0, 0.0, 0.0, 0.0, 1.676047490983686E9, 0.0, 2023-02-10 11:44:50.983
197.0, 5366.653843719226, 187500.0, 187500.0, 187500.0, -187500.02235174447, 187500.0, -187500.02235174447, -187500.02235174447, -0.01, 0.03, 1.006, 192.0, 0.0, 0.0, 0.0, 0.0, 0.0, 0.0, 0.0, 0.0, 0.0, 1.676047490983706E9, 0.0, 2023-02-10 11:44:50.983
198.0, 5408.518661084016, 187500.0, 187500.0, 187500.0, -187500.02235174447, 187500.0, -187500.02235174447, -187500.02235174447, -0.01, 0.03, 1.006, 192.0, 0.0, 0.0, 0.0, 0.0, 0.0, 0.0, 0.0, 0.0, 0.0, 1.676047490991344E9, 0.0, 2023-02-10 11:44:50.991
199.0, 5564.198561215229, 187500.0, 187500.0, 187500.0, -187500.02235174447, 187500.0, -187500.02235174447, -187500.02235174447, -0.01, 0.03, 1.006, 192.0, 0.0, 0.0, 0.0, 0.0, 0.0, 0.0, 0.0, 0.0, 0.0, 1.676047490991409E9, 0.0, 2023-02-10 11:44:50.991
200.0, 5657.964129205243, 187500.0, 187500.0, 187500.0, -187500.02235174447, 187500.0, -187500.02235174447, -187500.02235174447, -0.01, 0.03, 1.006, 192.0, 0.0, 0.0, 0.0, 0.0, 0.0, 0.0, 0.0, 0.0, 0.0, 1.676047490997555E9, 0.0, 2023-02-10 11:44:50.997
201.0, 5404.137719170776, 187500.0, 187500.0, 187500.0, -187500.02235174447, 187500.0, -187500.02235174447, -187500.02235174447, -0.01, 0.03, 1.006, 192.0, 0.0, 0.0, 0.0, 0.0, 0.0, 0.0, 0.0, 0.0, 0.0, 1.676047490997597E9, 0.0, 2023-02-10 11:44:50.997
