%OpenBCI Raw EEG Data
%Number of channels = 8
%Sample Rate = 250 Hz
%Board = OpenBCI_GUI$BoardCytonSerial
Sample Index, EXG Channel 0, EXG Channel 1, EXG Channel 2, EXG Channel 3, EXG Channel 4, EXG Channel 5, EXG Channel 6, EXG Channel 7, Accel Channel 0, Accel Channel 1, Accel Channel 2, Other, Other, Other, Other, Other, Other, Other, Analog Channel 0, Analog Channel 1, Analog Channel 2, Timestamp, Other, Timestamp (Formatted)
118.0, 4587.606142473954, 187500.0, 187500.0, 187500.0, -187500.02235174447, -187500.02235174447, -187500.02235174447, -187500.02235174447, 0.0, 0.0, 0.0, 192.0, 0.0, 0.0, 0.0, 0.0, 0.0, 0.0, 0.0, 0.0, 0.0, 1.677528028870174E9, 0.0, 2023-02-27 15:00:28.870
119.0, 4554.592615913465, 187500.0, 187500.0, 187500.0, -187500.02235174447, -187500.02235174447, -187500.02235174447, -187500.02235174447, 0.0, 0.0, 0.0, 192.0, 0.0, 0.0, 0.0, 0.0, 0.0, 0.0, 0.0, 0.0, 0.0, 1.677528028870194E9, 0.0, 2023-02-27 15:00:28.870
120.0, 4520.394446896845, 187500.0, 187500.0, 187500.0, -187500.02235174447, -187500.02235174447, -187500.02235174447, -187500.02235174447, 0.0, 0.0, 0.0, 192.0, 0.0, 0.0, 0.0, 0.0, 0.0, 0.0, 0.0, 0.0, 0.0, 1.677528028870203E9, 0.0, 2023-02-27 15:00:28.870
121.0, 4572.295197522068, 187500.0, 187500.0, 187500.0, -187500.02235174447, -187500.02235174447, -187500.02235174447, -187500.02235174447, 0.0, 0.0, 0.0, 192.0, 0.0, 0.0, 0.0, 0.0, 0.0, 0.0, 0.0, 0.0, 0.0, 1.677528028870212E9, 0.0, 2023-02-27 15:00:28.870
0.0, 0.0, 0.0, 0.0, 0.0, 0.0, 0.0, 0.0, 0.0, 0.444, -0.024, 0.914, 192.0, 13.0, 224.0, 255.0, 64.0, 28.0, 144.0, 0.0, 0.0, 0.0, 1.677528028962087E9, 0.0, 2023-02-27 15:00:28.962
1.0, 3206.268335135977, 187500.0, 187500.0, 187500.0, -187500.02235174447, -187500.02235174447, -187500.02235174447, -187500.02235174447, 0.444, -0.024, 0.914, 192.0, 0.0, 0.0, 0.0, 0.0, 0.0, 0.0, 0.0, 0.0, 0.0, 1.677528028968174E9, 0.0, 2023-02-27 15:00:28.968
2.0, 2970.7480038104063, 187500.0, 187500.0, 187500.0, -187500.02235174447, -187500.02235174447, -187500.02235174447, -187500.02235174447, 0.444, -0.024, 0.914, 192.0, 0.0, 0.0, 0.0, 0.0, 0.0, 0.0, 0.0, 0.0, 0.0, 1.677528028968192E9, 0.0, 2023-02-27 15:00:28.968
3.0, 2864.3984036920556, 187500.0, 187500.0, 187500.0, -187500.02235174447, -187500.02235174447, -187500.02235174447, -187500.02235174447, 0.444, -0.024, 0.914, 192.0, 0.0, 0.0, 0.0, 0.0, 0.0, 0.0, 0.0, 0.0, 0.0, 1.67752802897445E9, 0.0, 2023-02-27 15:00:28.974
4.0, 3036.9985743759366, 187500.0, 187500.0, 187500.0, -187500.02235174447, -187500.02235174447, -187500.02235174447, -187500.02235174447, 0.444, -0.024, 0.914, 192.0, 0.0, 0.0, 0.0, 0.0, 0.0, 0.0, 0.0, 0.0, 0.0, 1.677528028974467E9, 0.0, 2023-02-27 15:00:28.974
5.0, 3488.1461844618543, 187500.0, 187500.0, 187500.0, -187500.02235174447, -187500.02235174447, -187500.02235174447, -187500.02235174447, 0.444, -0.024, 0.914, 192.0, 0.0, 0.0, 0.0, 0.0, 0.0, 0.0, 0.0, 0.0, 0.0, 1.677528028981698E9, 0.0, 2023-02-27 15:00:28.981
6.0, 3511.3025917175523, 187500.0, 187500.0, 187500.0, -187500.02235174447, -187500.02235174447, -187500.02235174447, -187500.02235174447, 0.444, -0.024, 0.914, 192.0, 0.0, 0.0, 0.0, 0.0, 0.0, 0.0, 0.0, 0.0, 0.0, 1.677528028981717E9, 0.0, 2023-02-27 15:00:28.981
7.0, 2578.094908964027, 187500.0, 187500.0, 187500.0, -187500.02235174447, -187500.02235174447, -187500.02235174447, -187500.02235174447, 0.446, -0.022, 0.914, 192.0, 13.0, 240.0, 255.0, 80.0, 28.0, 144.0, 0.0, 0.0, 0.0, 1.677528028988781E9, 0.0, 2023-02-27 15:00:28.988
8.0, 2728.1198177480483, 187500.0, 187500.0, 187500.0, -187500.02235174447, -187500.02235174447, -187500.02235174447, -187500.02235174447, 0.446, -0.022, 0.914, 192.0, 0.0, 0.0, 0.0, 0.0, 0.0, 0.0, 0.0, 0.0, 0.0, 1.677528028996852E9, 0.0, 2023-02-27 15:00:28.996
9.0, 2951.950186723493, 187500.0, 187500.0, 187500.0, -187500.02235174447, -187500.02235174447, -187500.02235174447, -187500.02235174447, 0.446, -0.022, 0.914, 192.0, 0.0, 0.0, 0.0, 0.0, 0.0, 0.0, 0.0, 0.0, 0.0, 1.677528028996877E9, 0.0, 2023-02-27 15:00:28.996
10.0, 3199.4734048215637, 187500.0, 187500.0, 187500.0, -187500.02235174447, -187500.02235174447, -187500.02235174447, -187500.02235174447, 0.446, -0.022, 0.914, 192.0, 0.0, 0.0, 0.0, 0.0, 0.0, 0.0, 0.0, 0.0, 0.0, 1.677528029003933E9, 0.0, 2023-02-27 15:00:29.003
11.0, 3381.1707354987548, 187500.0, 187500.0, 187500.0, -187500.02235174447, -187500.02235174447, -187500.02235174447, -187500.02235174447, 0.446, -0.022, 0.914, 192.0, 0.0, 0.0, 0.0, 0.0, 0.0, 0.0, 0.0, 0.0, 0.0, 1.677528029003948E9, 0.0, 2023-02-27 15:00:29.003
12.0, 2849.2439209513573, 187500.0, 187500.0, 187500.0, -187500.02235174447, -187500.02235174447, -187500.02235174447, -187500.02235174447, 0.446, -0.022, 0.914, 192.0, 0.0, 0.0, 0.0, 0.0, 0.0, 0.0, 0.0, 0.0, 0.0, 1.677528029011457E9, 0.0, 2023-02-27 15:00:29.011
13.0, 2948.887997733116, 187500.0, 187500.0, 187500.0, -187500.02235174447, -187500.02235174447, -187500.02235174447, -187500.02235174447, 0.446, -0.022, 0.914, 192.0, 0.0, 0.0, 0.0, 0.0, 0.0, 0.0, 0.0, 0.0, 0.0, 1.677528029011477E9, 0.0, 2023-02-27 15:00:29.011
14.0, 3056.0199089074026, 187500.0, 187500.0, 187500.0, -187500.02235174447, -187500.02235174447, -187500.02235174447, -187500.02235174447, 0.446, -0.022, 0.914, 192.0, 0.0, 0.0, 0.0, 0.0, 0.0, 0.0, 0.0, 0.0, 0.0, 1.677528029019438E9, 0.0, 2023-02-27 15:00:29.019
15.0, 3146.7009361625837, 187500.0, 187500.0, 187500.0, -187500.02235174447, -187500.02235174447, -187500.02235174447, -187500.02235174447, 0.446, -0.022, 0.914, 192.0, 0.0, 0.0, 0.0, 0.0, 0.0, 0.0, 0.0, 0.0, 0.0, 1.677528029019452E9, 0.0, 2023-02-27 15:00:29.019
16.0, 3177.7251574665497, 187500.0, 187500.0, 187500.0, -187500.02235174447, -187500.02235174447, -187500.02235174447, -187500.02235174447, 0.446, -0.022, 0.914, 192.0, 0.0, 0.0, 0.0, 0.0, 0.0, 0.0, 0.0, 0.0, 0.0, 1.677528029027468E9, 0.0, 2023-02-27 15:00:29.027
17.0, 3137.0673343023464, 187500.0, 187500.0, 187500.0, -187500.02235174447, -187500.02235174447, -187500.02235174447, -187500.02235174447, 0.444, -0.022, 0.92, 192.0, 13.0, 224.0, 255.0, 80.0, 28.0, 192.0, 0.0, 0.0, 0.0, 1.677528029027482E9, 0.0, 2023-02-27 15:00:29.027
18.0, 2979.7334050814397, 187500.0, 187500.0, 187500.0, -187500.02235174447, -187500.02235174447, -187500.02235174447, -187500.02235174447, 0.444, -0.022, 0.92, 192.0, 0.0, 0.0, 0.0, 0.0, 0.0, 0.0, 0.0, 0.0, 0.0, 1.677528029034014E9, 0.0, 2023-02-27 15:00:29.034
19.0, 3106.400740909665, 187500.0, 187500.0, 187500.0, -187500.02235174447, -187500.02235174447, -187500.02235174447, -187500.02235174447, 0.444, -0.022, 0.92, 192.0, 0.0, 0.0, 0.0, 0.0, 0.0, 0.0, 0.0, 0.0, 0.0, 1.677528029034038E9, 0.0, 2023-02-27 15:00:29.034
20.0, 3336.9142814772467, 187500.0, 187500.0, 187500.0, -187500.02235174447, -187500.02235174447, -187500.02235174447, -187500.02235174447, 0.444, -0.022, 0.92, 192.0, 0.0, 0.0, 0.0, 0.0, 0.0, 0.0, 0.0, 0.0, 0.0, 1.677528029042066E9, 0.0, 2023-02-27 15:00:29.042
21.0, 2996.7207308674733, 187500.0, 187500.0, 187500.0, -187500.02235174447, -187500.02235174447, -187500.02235174447, -187500.02235174447, 0.444, -0.022, 0.92, 192.0, 0.0, 0.0, 0.0, 0.0, 0.0, 0.0, 0.0, 0.0, 0.0, 1.677528029042091E9, 0.0, 2023-02-27 15:00:29.042
22.0, 3039.166693588101, 187500.0, 187500.0, 187500.0, -187500.02235174447, -187500.02235174447, -187500.02235174447, -187500.02235174447, 0.444, -0.022, 0.92, 192.0, 0.0, 0.0, 0.0, 0.0, 0.0, 0.0, 0.0, 0.0, 0.0, 1.677528029049002E9, 0.0, 2023-02-27 15:00:29.049
23.0, 3004.5885449157413, 187500.0, 187500.0, 187500.0, -187500.02235174447, -187500.02235174447, -187500.02235174447, -187500.02235174447, 0.444, -0.022, 0.92, 192.0, 0.0, 0.0, 0.0, 0.0, 0.0, 0.0, 0.0, 0.0, 0.0, 1.677528029049024E9, 0.0, 2023-02-27 15:00:29.049
24.0, 3001.369893714177, 187500.0, 187500.0, 187500.0, -187500.02235174447, -187500.02235174447, -187500.02235174447, -187500.02235174447, 0.444, -0.022, 0.92, 192.0, 0.0, 0.0, 0.0, 0.0, 0.0, 0.0, 0.0, 0.0, 0.0, 1.677528029057122E9, 0.0, 2023-02-27 15:00:29.057
25.0, 3165.588160227318, 187500.0, 187500.0, 187500.0, -187500.02235174447, -187500.02235174447, -187500.02235174447, -187500.02235174447, 0.444, -0.022, 0.92, 192.0, 0.0, 0.0, 0.0, 0.0, 0.0, 0.0, 0.0, 0.0, 0.0, 1.677528029063628E9, 0.0, 2023-02-27 15:00:29.063
26.0, 3138.073162802835, 187500.0, 187500.0, 187500.0, -187500.02235174447, -187500.02235174447, -187500.02235174447, -187500.02235174447, 0.444, -0.022, 0.92, 192.0, 0.0, 0.0, 0.0, 0.0, 0.0, 0.0, 0.0, 0.0, 0.0, 1.677528029063644E9, 0.0, 2023-02-27 15:00:29.063
27.0, 3092.6097145807403, 187500.0, 187500.0, 187500.0, -187500.02235174447, -187500.02235174447, -187500.02235174447, -187500.02235174447, 0.448, -0.022, 0.912, 192.0, 14.0, 0.0, 255.0, 80.0, 28.0, 128.0, 0.0, 0.0, 0.0, 1.677528029071614E9, 0.0, 2023-02-27 15:00:29.071
28.0, 3148.310261763366, 187500.0, 187500.0, 187500.0, -187500.02235174447, -187500.02235174447, -187500.02235174447, -187500.02235174447, 0.448, -0.022, 0.912, 192.0, 0.0, 0.0, 0.0, 0.0, 0.0, 0.0, 0.0, 0.0, 0.0, 1.677528029071692E9, 0.0, 2023-02-27 15:00:29.071
29.0, 3044.4193535350983, 187500.0, 187500.0, 187500.0, -187500.02235174447, -187500.02235174447, -187500.02235174447, -187500.02235174447, 0.448, -0.022, 0.912, 192.0, 0.0, 0.0, 0.0, 0.0, 0.0, 0.0, 0.0, 0.0, 0.0, 1.677528029079623E9, 0.0, 2023-02-27 15:00:29.079
30.0, 3356.583816597917, 187500.0, 187500.0, 187500.0, -187500.02235174447, -187500.02235174447, -187500.02235174447, -187500.02235174447, 0.448, -0.022, 0.912, 192.0, 0.0, 0.0, 0.0, 0.0, 0.0, 0.0, 0.0, 0.0, 0.0, 1.677528029079642E9, 0.0, 2023-02-27 15:00:29.079
31.0, 3785.245571761796, 187500.0, 187500.0, 187500.0, -187500.02235174447, -187500.02235174447, -187500.02235174447, -187500.02235174447, 0.448, -0.022, 0.912, 192.0, 0.0, 0.0, 0.0, 0.0, 0.0, 0.0, 0.0, 0.0, 0.0, 1.677528029086323E9, 0.0, 2023-02-27 15:00:29.086
32.0, 2844.3265371711896, 187500.0, 187500.0, 187500.0, -187500.02235174447, -187500.02235174447, -187500.02235174447, -187500.02235174447, 0.448, -0.022, 0.912, 192.0, 0.0, 0.0, 0.0, 0.0, 0.0, 0.0, 0.0, 0.0, 0.0, 1.677528029086336E9, 0.0, 2023-02-27 15:00:29.086
33.0, 2776.734861938341, 187500.0, 187500.0, 187500.0, -187500.02235174447, -187500.02235174447, -187500.02235174447, -187500.02235174447, 0.448, -0.022, 0.912, 192.0, 0.0, 0.0, 0.0, 0.0, 0.0, 0.0, 0.0, 0.0, 0.0, 1.677528029094333E9, 0.0, 2023-02-27 15:00:29.094
34.0, 3049.247330337445, 187500.0, 187500.0, 187500.0, -187500.02235174447, -187500.02235174447, -187500.02235174447, -187500.02235174447, 0.448, -0.022, 0.912, 192.0, 0.0, 0.0, 0.0, 0.0, 0.0, 0.0, 0.0, 0.0, 0.0, 1.677528029094351E9, 0.0, 2023-02-27 15:00:29.094
35.0, 3174.0594713758796, 187500.0, 187500.0, 187500.0, -187500.02235174447, -187500.02235174447, -187500.02235174447, -187500.02235174447, 0.448, -0.022, 0.912, 192.0, 0.0, 0.0, 0.0, 0.0, 0.0, 0.0, 0.0, 0.0, 0.0, 1.677528029102274E9, 0.0, 2023-02-27 15:00:29.102
36.0, 3397.8898403513244, 187500.0, 187500.0, 187500.0, -187500.02235174447, -187500.02235174447, -187500.02235174447, -187500.02235174447, 0.448, -0.022, 0.912, 192.0, 0.0, 0.0, 0.0, 0.0, 0.0, 0.0, 0.0, 0.0, 0.0, 1.677528029102289E9, 0.0, 2023-02-27 15:00:29.102
37.0, 3250.7930100909484, 187500.0, 187500.0, 187500.0, -187500.02235174447, -187500.02235174447, -187500.02235174447, -187500.02235174447, 0.44, -0.024, 0.914, 192.0, 13.0, 192.0, 255.0, 64.0, 28.0, 144.0, 0.0, 0.0, 0.0, 1.677528029109472E9, 0.0, 2023-02-27 15:00:29.109
38.0, 3377.7285668526374, 187500.0, 187500.0, 187500.0, -187500.02235174447, -187500.02235174447, -187500.02235174447, -187500.02235174447, 0.44, -0.024, 0.914, 192.0, 0.0, 0.0, 0.0, 0.0, 0.0, 0.0, 0.0, 0.0, 0.0, 1.677528029109498E9, 0.0, 2023-02-27 15:00:29.109
39.0, 3230.0505912364238, 187500.0, 187500.0, 187500.0, -187500.02235174447, -187500.02235174447, -187500.02235174447, -187500.02235174447, 0.44, -0.024, 0.914, 192.0, 0.0, 0.0, 0.0, 0.0, 0.0, 0.0, 0.0, 0.0, 0.0, 1.677528029115926E9, 0.0, 2023-02-27 15:00:29.115
40.0, 2859.481019911888, 187500.0, 187500.0, 187500.0, -187500.02235174447, -187500.02235174447, -187500.02235174447, -187500.02235174447, 0.44, -0.024, 0.914, 192.0, 0.0, 0.0, 0.0, 0.0, 0.0, 0.0, 0.0, 0.0, 0.0, 1.677528029124043E9, 0.0, 2023-02-27 15:00:29.124
41.0, 2932.2582998583675, 187500.0, 187500.0, 187500.0, -187500.02235174447, -187500.02235174447, -187500.02235174447, -187500.02235174447, 0.44, -0.024, 0.914, 192.0, 0.0, 0.0, 0.0, 0.0, 0.0, 0.0, 0.0, 0.0, 0.0, 1.677528029124055E9, 0.0, 2023-02-27 15:00:29.124
42.0, 3384.2329244891316, 187500.0, 187500.0, 187500.0, -187500.02235174447, -187500.02235174447, -187500.02235174447, -187500.02235174447, 0.44, -0.024, 0.914, 192.0, 0.0, 0.0, 0.0, 0.0, 0.0, 0.0, 0.0, 0.0, 0.0, 1.677528029132027E9, 0.0, 2023-02-27 15:00:29.132
43.0, 3355.287415419509, 187500.0, 187500.0, 187500.0, -187500.02235174447, -187500.02235174447, -187500.02235174447, -187500.02235174447, 0.44, -0.024, 0.914, 192.0, 0.0, 0.0, 0.0, 0.0, 0.0, 0.0, 0.0, 0.0, 0.0, 1.677528029132039E9, 0.0, 2023-02-27 15:00:29.132
44.0, 3097.4823948719973, 187500.0, 187500.0, 187500.0, -187500.02235174447, -187500.02235174447, -187500.02235174447, -187500.02235174447, 0.44, -0.024, 0.914, 192.0, 0.0, 0.0, 0.0, 0.0, 0.0, 0.0, 0.0, 0.0, 0.0, 1.677528029139082E9, 0.0, 2023-02-27 15:00:29.139
45.0, 3194.0419309189238, 187500.0, 187500.0, 187500.0, -187500.02235174447, -187500.02235174447, -187500.02235174447, -187500.02235174447, 0.44, -0.024, 0.914, 192.0, 0.0, 0.0, 0.0, 0.0, 0.0, 0.0, 0.0, 0.0, 0.0, 1.677528029139095E9, 0.0, 2023-02-27 15:00:29.139
46.0, 3325.649002271772, 187500.0, 187500.0, 187500.0, -187500.02235174447, -187500.02235174447, -187500.02235174447, -187500.02235174447, 0.44, -0.024, 0.914, 192.0, 0.0, 0.0, 0.0, 0.0, 0.0, 0.0, 0.0, 0.0, 0.0, 1.677528029146502E9, 0.0, 2023-02-27 15:00:29.146
47.0, 3228.7988935469266, 187500.0, 187500.0, 187500.0, -187500.02235174447, -187500.02235174447, -187500.02235174447, -187500.02235174447, 0.44, -0.024, 0.916, 192.0, 13.0, 192.0, 255.0, 64.0, 28.0, 160.0, 0.0, 0.0, 0.0, 1.67752802914652E9, 0.0, 2023-02-27 15:00:29.146
48.0, 3143.772857638938, 187500.0, 187500.0, 187500.0, -187500.02235174447, -187500.02235174447, -187500.02235174447, -187500.02235174447, 0.44, -0.024, 0.916, 192.0, 0.0, 0.0, 0.0, 0.0, 0.0, 0.0, 0.0, 0.0, 0.0, 1.677528029154588E9, 0.0, 2023-02-27 15:00:29.154
49.0, 3188.8339744608375, 187500.0, 187500.0, 187500.0, -187500.02235174447, -187500.02235174447, -187500.02235174447, -187500.02235174447, 0.44, -0.024, 0.916, 192.0, 0.0, 0.0, 0.0, 0.0, 0.0, 0.0, 0.0, 0.0, 0.0, 1.677528029154618E9, 0.0, 2023-02-27 15:00:29.154
50.0, 3161.3860322697205, 187500.0, 187500.0, 187500.0, -187500.02235174447, -187500.02235174447, -187500.02235174447, -187500.02235174447, 0.44, -0.024, 0.916, 192.0, 0.0, 0.0, 0.0, 0.0, 0.0, 0.0, 0.0, 0.0, 0.0, 1.677528029162616E9, 0.0, 2023-02-27 15:00:29.162
51.0, 3296.971714135613, 187500.0, 187500.0, 187500.0, -187500.02235174447, -187500.02235174447, -187500.02235174447, -187500.02235174447, 0.44, -0.024, 0.916, 192.0, 0.0, 0.0, 0.0, 0.0, 0.0, 0.0, 0.0, 0.0, 0.0, 1.677528029162631E9, 0.0, 2023-02-27 15:00:29.162
52.0, 3167.0186718724576, 187500.0, 187500.0, 187500.0, -187500.02235174447, -187500.02235174447, -187500.02235174447, -187500.02235174447, 0.44, -0.024, 0.916, 192.0, 0.0, 0.0, 0.0, 0.0, 0.0, 0.0, 0.0, 0.0, 0.0, 1.677528029169251E9, 0.0, 2023-02-27 15:00:29.169
53.0, 3069.7438800029613, 187500.0, 187500.0, 187500.0, -187500.02235174447, -187500.02235174447, -187500.02235174447, -187500.02235174447, 0.44, -0.024, 0.916, 192.0, 0.0, 0.0, 0.0, 0.0, 0.0, 0.0, 0.0, 0.0, 0.0, 1.677528029169269E9, 0.0, 2023-02-27 15:00:29.169
54.0, 3036.0598011088136, 187500.0, 187500.0, 187500.0, -187500.02235174447, -187500.02235174447, -187500.02235174447, -187500.02235174447, 0.44, -0.024, 0.916, 192.0, 0.0, 0.0, 0.0, 0.0, 0.0, 0.0, 0.0, 0.0, 0.0, 1.67752802917621E9, 0.0, 2023-02-27 15:00:29.176
55.0, 3258.973748561591, 187500.0, 187500.0, 187500.0, -187500.02235174447, -187500.02235174447, -187500.02235174447, -187500.02235174447, 0.44, -0.024, 0.916, 192.0, 0.0, 0.0, 0.0, 0.0, 0.0, 0.0, 0.0, 0.0, 0.0, 1.677528029184241E9, 0.0, 2023-02-27 15:00:29.184
56.0, 3264.8299056088813, 187500.0, 187500.0, 187500.0, -187500.02235174447, -187500.02235174447, -187500.02235174447, -187500.02235174447, 0.44, -0.024, 0.916, 192.0, 0.0, 0.0, 0.0, 0.0, 0.0, 0.0, 0.0, 0.0, 0.0, 1.677528029184259E9, 0.0, 2023-02-27 15:00:29.184
57.0, 3475.1374691888655, 187500.0, 187500.0, 187500.0, -187500.02235174447, -187500.02235174447, -187500.02235174447, -187500.02235174447, 0.442, -0.026000000000000002, 0.912, 192.0, 13.0, 208.0, 255.0, 48.0, 28.0, 128.0, 0.0, 0.0, 0.0, 1.677528029192114E9, 0.0, 2023-02-27 15:00:29.192
58.0, 3493.9799897646894, 187500.0, 187500.0, 187500.0, -187500.02235174447, -187500.02235174447, -187500.02235174447, -187500.02235174447, 0.442, -0.026000000000000002, 0.912, 192.0, 0.0, 0.0, 0.0, 0.0, 0.0, 0.0, 0.0, 0.0, 0.0, 1.677528029192141E9, 0.0, 2023-02-27 15:00:29.192
59.0, 3423.6614017082934, 187500.0, 187500.0, 187500.0, -187500.02235174447, -187500.02235174447, -187500.02235174447, -187500.02235174447, 0.442, -0.026000000000000002, 0.912, 192.0, 0.0, 0.0, 0.0, 0.0, 0.0, 0.0, 0.0, 0.0, 0.0, 1.677528029198769E9, 0.0, 2023-02-27 15:00:29.198
60.0, 3377.4603459191735, 187500.0, 187500.0, 187500.0, -187500.02235174447, -187500.02235174447, -187500.02235174447, -187500.02235174447, 0.442, -0.026000000000000002, 0.912, 192.0, 0.0, 0.0, 0.0, 0.0, 0.0, 0.0, 0.0, 0.0, 0.0, 1.677528029198792E9, 0.0, 2023-02-27 15:00:29.198
61.0, 3087.982903478492, 187500.0, 187500.0, 187500.0, -187500.02235174447, -187500.02235174447, -187500.02235174447, -187500.02235174447, 0.442, -0.026000000000000002, 0.912, 192.0, 0.0, 0.0, 0.0, 0.0, 0.0, 0.0, 0.0, 0.0, 0.0, 1.677528029206947E9, 0.0, 2023-02-27 15:00:29.206
62.0, 3180.6755877346504, 187500.0, 187500.0, 187500.0, -187500.02235174447, -187500.02235174447, -187500.02235174447, -187500.02235174447, 0.442, -0.026000000000000002, 0.912, 192.0, 0.0, 0.0, 0.0, 0.0, 0.0, 0.0, 0.0, 0.0, 0.0, 1.677528029206972E9, 0.0, 2023-02-27 15:00:29.206
63.0, 3370.2183807156543, 187500.0, 187500.0, 187500.0, -187500.02235174447, -187500.02235174447, -187500.02235174447, -187500.02235174447, 0.442, -0.026000000000000002, 0.912, 192.0, 0.0, 0.0, 0.0, 0.0, 0.0, 0.0, 0.0, 0.0, 0.0, 1.677528029214877E9, 0.0, 2023-02-27 15:00:29.214
64.0, 3313.444949799174, 187500.0, 187500.0, 187500.0, -187500.02235174447, -187500.02235174447, -187500.02235174447, -187500.02235174447, 0.442, -0.026000000000000002, 0.912, 192.0, 0.0, 0.0, 0.0, 0.0, 0.0, 0.0, 0.0, 0.0, 0.0, 1.677528029214892E9, 0.0, 2023-02-27 15:00:29.214
65.0, 3003.5827164152524, 187500.0, 187500.0, 187500.0, -187500.02235174447, -187500.02235174447, -187500.02235174447, -187500.02235174447, 0.442, -0.026000000000000002, 0.912, 192.0, 0.0, 0.0, 0.0, 0.0, 0.0, 0.0, 0.0, 0.0, 0.0, 1.677528029222011E9, 0.0, 2023-02-27 15:00:29.222
66.0, 3020.927670112571, 187500.0, 187500.0, 187500.0, -187500.02235174447, -187500.02235174447, -187500.02235174447, -187500.02235174447, 0.448, -0.026000000000000002, 0.908, 192.0, 14.0, 0.0, 255.0, 48.0, 28.0, 96.0, 0.0, 0.0, 0.0, 1.677528029222027E9, 0.0, 2023-02-27 15:00:29.222
67.0, 3151.260692031466, 187500.0, 187500.0, 187500.0, -187500.02235174447, -187500.02235174447, -187500.02235174447, -187500.02235174447, 0.448, -0.026000000000000002, 0.908, 192.0, 0.0, 0.0, 0.0, 0.0, 0.0, 0.0, 0.0, 0.0, 0.0, 1.677528029229632E9, 0.0, 2023-02-27 15:00:29.229
68.0, 3486.961542005723, 187500.0, 187500.0, 187500.0, -187500.02235174447, -187500.02235174447, -187500.02235174447, -187500.02235174447, 0.448, -0.026000000000000002, 0.908, 192.0, 0.0, 0.0, 0.0, 0.0, 0.0, 0.0, 0.0, 0.0, 0.0, 1.677528029229651E9, 0.0, 2023-02-27 15:00:29.229
69.0, 3351.2417496730986, 187500.0, 187500.0, 187500.0, -187500.02235174447, -187500.02235174447, -187500.02235174447, -187500.02235174447, 0.448, -0.026000000000000002, 0.908, 192.0, 0.0, 0.0, 0.0, 0.0, 0.0, 0.0, 0.0, 0.0, 0.0, 1.677528029236439E9, 0.0, 2023-02-27 15:00:29.236
70.0, 3224.9543935006136, 187500.0, 187500.0, 187500.0, -187500.02235174447, -187500.02235174447, -187500.02235174447, -187500.02235174447, 0.448, -0.026000000000000002, 0.908, 192.0, 0.0, 0.0, 0.0, 0.0, 0.0, 0.0, 0.0, 0.0, 0.0, 1.677528029244487E9, 0.0, 2023-02-27 15:00:29.244
71.0, 3290.4450047546634, 187500.0, 187500.0, 187500.0, -187500.02235174447, -187500.02235174447, -187500.02235174447, -187500.02235174447, 0.448, -0.026000000000000002, 0.908, 192.0, 0.0, 0.0, 0.0, 0.0, 0.0, 0.0, 0.0, 0.0, 0.0, 1.677528029244498E9, 0.0, 2023-02-27 15:00:29.244
72.0, 3261.6336061517727, 187500.0, 187500.0, 187500.0, -187500.02235174447, -187500.02235174447, -187500.02235174447, -187500.02235174447, 0.448, -0.026000000000000002, 0.908, 192.0, 0.0, 0.0, 0.0, 0.0, 0.0, 0.0, 0.0, 0.0, 0.0, 1.67752802925174E9, 0.0, 2023-02-27 15:00:29.251
73.0, 3191.58323902884, 187500.0, 187500.0, 187500.0, -187500.02235174447, -187500.02235174447, -187500.02235174447, -187500.02235174447, 0.448, -0.026000000000000002, 0.908, 192.0, 0.0, 0.0, 0.0, 0.0, 0.0, 0.0, 0.0, 0.0, 0.0, 1.677528029251759E9, 0.0, 2023-02-27 15:00:29.251
74.0, 3149.00316584148, 187500.0, 187500.0, 187500.0, -187500.02235174447, -187500.02235174447, -187500.02235174447, -187500.02235174447, 0.448, -0.026000000000000002, 0.908, 192.0, 0.0, 0.0, 0.0, 0.0, 0.0, 0.0, 0.0, 0.0, 0.0, 1.677528029259117E9, 0.0, 2023-02-27 15:00:29.259
75.0, 3213.8232247618707, 187500.0, 187500.0, 187500.0, -187500.02235174447, -187500.02235174447, -187500.02235174447, -187500.02235174447, 0.448, -0.026000000000000002, 0.908, 192.0, 0.0, 0.0, 0.0, 0.0, 0.0, 0.0, 0.0, 0.0, 0.0, 1.677528029259141E9, 0.0, 2023-02-27 15:00:29.259
76.0, 3404.125977054355, 187500.0, 187500.0, 187500.0, -187500.02235174447, -187500.02235174447, -187500.02235174447, -187500.02235174447, 0.444, -0.028, 0.906, 192.0, 13.0, 224.0, 255.0, 32.0, 28.0, 80.0, 0.0, 0.0, 0.0, 1.677528029267086E9, 0.0, 2023-02-27 15:00:29.267
77.0, 3390.67022689226, 187500.0, 187500.0, 187500.0, -187500.02235174447, -187500.02235174447, -187500.02235174447, -187500.02235174447, 0.444, -0.028, 0.906, 192.0, 0.0, 0.0, 0.0, 0.0, 0.0, 0.0, 0.0, 0.0, 0.0, 1.677528029267105E9, 0.0, 2023-02-27 15:00:29.267
78.0, 3254.3469374593424, 187500.0, 187500.0, 187500.0, -187500.02235174447, -187500.02235174447, -187500.02235174447, -187500.02235174447, 0.444, -0.028, 0.906, 192.0, 0.0, 0.0, 0.0, 0.0, 0.0, 0.0, 0.0, 0.0, 0.0, 1.677528029274174E9, 0.0, 2023-02-27 15:00:29.274
79.0, 3573.798069214591, 187500.0, 187500.0, 187500.0, -187500.02235174447, -187500.02235174447, -187500.02235174447, -187500.02235174447, 0.444, -0.028, 0.906, 192.0, 0.0, 0.0, 0.0, 0.0, 0.0, 0.0, 0.0, 0.0, 0.0, 1.677528029274191E9, 0.0, 2023-02-27 15:00:29.274
80.0, 3769.4875919208043, 187500.0, 187500.0, 187500.0, -187500.02235174447, -187500.02235174447, -187500.02235174447, -187500.02235174447, 0.444, -0.028, 0.906, 192.0, 0.0, 0.0, 0.0, 0.0, 0.0, 0.0, 0.0, 0.0, 0.0, 1.677528029281747E9, 0.0, 2023-02-27 15:00:29.281
81.0, 3482.2229721811977, 187500.0, 187500.0, 187500.0, -187500.02235174447, -187500.02235174447, -187500.02235174447, -187500.02235174447, 0.444, -0.028, 0.906, 192.0, 0.0, 0.0, 0.0, 0.0, 0.0, 0.0, 0.0, 0.0, 0.0, 1.677528029281771E9, 0.0, 2023-02-27 15:00:29.281
82.0, 3193.1478611407115, 187500.0, 187500.0, 187500.0, -187500.02235174447, -187500.02235174447, -187500.02235174447, -187500.02235174447, 0.444, -0.028, 0.906, 192.0, 0.0, 0.0, 0.0, 0.0, 0.0, 0.0, 0.0, 0.0, 0.0, 1.677528029289839E9, 0.0, 2023-02-27 15:00:29.289
83.0, 3491.6330565968824, 187500.0, 187500.0, 187500.0, -187500.02235174447, -187500.02235174447, -187500.02235174447, -187500.02235174447, 0.444, -0.028, 0.906, 192.0, 0.0, 0.0, 0.0, 0.0, 0.0, 0.0, 0.0, 0.0, 0.0, 1.677528029289857E9, 0.0, 2023-02-27 15:00:29.289
84.0, 3380.120203509355, 187500.0, 187500.0, 187500.0, -187500.02235174447, -187500.02235174447, -187500.02235174447, -187500.02235174447, 0.444, -0.028, 0.906, 192.0, 0.0, 0.0, 0.0, 0.0, 0.0, 0.0, 0.0, 0.0, 0.0, 1.677528029296862E9, 0.0, 2023-02-27 15:00:29.296
85.0, 3235.4373616501525, 187500.0, 187500.0, 187500.0, -187500.02235174447, -187500.02235174447, -187500.02235174447, -187500.02235174447, 0.444, -0.028, 0.906, 192.0, 0.0, 0.0, 0.0, 0.0, 0.0, 0.0, 0.0, 0.0, 0.0, 1.677528029296889E9, 0.0, 2023-02-27 15:00:29.296
86.0, 3399.677979907749, 187500.0, 187500.0, 187500.0, -187500.02235174447, -187500.02235174447, -187500.02235174447, -187500.02235174447, 0.442, -0.024, 0.906, 192.0, 13.0, 208.0, 255.0, 64.0, 28.0, 80.0, 0.0, 0.0, 0.0, 1.677528029304026E9, 0.0, 2023-02-27 15:00:29.304
87.0, 3132.909909833659, 187500.0, 187500.0, 187500.0, -187500.02235174447, -187500.02235174447, -187500.02235174447, -187500.02235174447, 0.442, -0.024, 0.906, 192.0, 0.0, 0.0, 0.0, 0.0, 0.0, 0.0, 0.0, 0.0, 0.0, 1.677528029311369E9, 0.0, 2023-02-27 15:00:29.311
88.0, 3264.204056764133, 187500.0, 187500.0, 187500.0, -187500.02235174447, -187500.02235174447, -187500.02235174447, -187500.02235174447, 0.442, -0.024, 0.906, 192.0, 0.0, 0.0, 0.0, 0.0, 0.0, 0.0, 0.0, 0.0, 0.0, 1.677528029311387E9, 0.0, 2023-02-27 15:00:29.311
89.0, 3516.7787691091025, 187500.0, 187500.0, 187500.0, -187500.02235174447, -187500.02235174447, -187500.02235174447, -187500.02235174447, 0.442, -0.024, 0.906, 192.0, 0.0, 0.0, 0.0, 0.0, 0.0, 0.0, 0.0, 0.0, 0.0, 1.677528029319394E9, 0.0, 2023-02-27 15:00:29.319
90.0, 3387.988017557623, 187500.0, 187500.0, 187500.0, -187500.02235174447, -187500.02235174447, -187500.02235174447, -187500.02235174447, 0.442, -0.024, 0.906, 192.0, 0.0, 0.0, 0.0, 0.0, 0.0, 0.0, 0.0, 0.0, 0.0, 1.677528029319421E9, 0.0, 2023-02-27 15:00:29.319
91.0, 3342.8151420134477, 187500.0, 187500.0, 187500.0, -187500.02235174447, -187500.02235174447, -187500.02235174447, -187500.02235174447, 0.442, -0.024, 0.906, 192.0, 0.0, 0.0, 0.0, 0.0, 0.0, 0.0, 0.0, 0.0, 0.0, 1.677528029327406E9, 0.0, 2023-02-27 15:00:29.327
92.0, 3310.6956852311714, 187500.0, 187500.0, 187500.0, -187500.02235174447, -187500.02235174447, -187500.02235174447, -187500.02235174447, 0.442, -0.024, 0.906, 192.0, 0.0, 0.0, 0.0, 0.0, 0.0, 0.0, 0.0, 0.0, 0.0, 1.677528029327429E9, 0.0, 2023-02-27 15:00:29.327
93.0, 3556.564874239549, 187500.0, 187500.0, 187500.0, -187500.02235174447, -187500.02235174447, -187500.02235174447, -187500.02235174447, 0.442, -0.024, 0.906, 192.0, 0.0, 0.0, 0.0, 0.0, 0.0, 0.0, 0.0, 0.0, 0.0, 1.677528029334195E9, 0.0, 2023-02-27 15:00:29.334
94.0, 3462.151105660332, 187500.0, 187500.0, 187500.0, -187500.02235174447, -187500.02235174447, -187500.02235174447, -187500.02235174447, 0.442, -0.024, 0.906, 192.0, 0.0, 0.0, 0.0, 0.0, 0.0, 0.0, 0.0, 0.0, 0.0, 1.677528029334208E9, 0.0, 2023-02-27 15:00:29.334
95.0, 3210.3363526268427, 187500.0, 187500.0, 187500.0, -187500.02235174447, -187500.02235174447, -187500.02235174447, -187500.02235174447, 0.442, -0.024, 0.906, 192.0, 0.0, 0.0, 0.0, 0.0, 0.0, 0.0, 0.0, 0.0, 0.0, 1.677528029341998E9, 0.0, 2023-02-27 15:00:29.341
96.0, 3221.646335321228, 187500.0, 187500.0, 187500.0, -187500.02235174447, -187500.02235174447, -187500.02235174447, -187500.02235174447, 0.446, -0.022, 0.908, 192.0, 13.0, 240.0, 255.0, 80.0, 28.0, 96.0, 0.0, 0.0, 0.0, 1.677528029342011E9, 0.0, 2023-02-27 15:00:29.342
97.0, 3331.192234896688, 187500.0, 187500.0, 187500.0, -187500.02235174447, -187500.02235174447, -187500.02235174447, -187500.02235174447, 0.446, -0.022, 0.908, 192.0, 0.0, 0.0, 0.0, 0.0, 0.0, 0.0, 0.0, 0.0, 0.0, 1.677528029349987E9, 0.0, 2023-02-27 15:00:29.349
98.0, 3476.567980834005, 187500.0, 187500.0, 187500.0, -187500.02235174447, -187500.02235174447, -187500.02235174447, -187500.02235174447, 0.446, -0.022, 0.908, 192.0, 0.0, 0.0, 0.0, 0.0, 0.0, 0.0, 0.0, 0.0, 0.0, 1.677528029350003E9, 0.0, 2023-02-27 15:00:29.350
99.0, 3634.8406833220347, 187500.0, 187500.0, 187500.0, -187500.02235174447, -187500.02235174447, -187500.02235174447, -187500.02235174447, 0.446, -0.022, 0.908, 192.0, 0.0, 0.0, 0.0, 0.0, 0.0, 0.0, 0.0, 0.0, 0.0, 1.677528029357221E9, 0.0, 2023-02-27 15:00:29.357
100.0, 3693.1563846059307, 187500.0, 187500.0, 187500.0, -187500.02235174447, -187500.02235174447, -187500.02235174447, -187500.02235174447, 0.446, -0.022, 0.908, 192.0, 0.0, 0.0, 0.0, 0.0, 0.0, 0.0, 0.0, 0.0, 0.0, 1.677528029357242E9, 0.0, 2023-02-27 15:00:29.357
101.0, 3730.1932251683743, 187500.0, 187500.0, 187500.0, -187500.02235174447, -187500.02235174447, -187500.02235174447, -187500.02235174447, 0.446, -0.022, 0.908, 192.0, 0.0, 0.0, 0.0, 0.0, 0.0, 0.0, 0.0, 0.0, 0.0, 1.677528029363752E9, 0.0, 2023-02-27 15:00:29.363
102.0, 3159.173209568645, 187500.0, 187500.0, 187500.0, -187500.02235174447, -187500.02235174447, -187500.02235174447, -187500.02235174447, 0.446, -0.022, 0.908, 192.0, 0.0, 0.0, 0.0, 0.0, 0.0, 0.0, 0.0, 0.0, 0.0, 1.677528029371732E9, 0.0, 2023-02-27 15:00:29.371
103.0, 3259.689004384161, 187500.0, 187500.0, 187500.0, -187500.02235174447, -187500.02235174447, -187500.02235174447, -187500.02235174447, 0.446, -0.022, 0.908, 192.0, 0.0, 0.0, 0.0, 0.0, 0.0, 0.0, 0.0, 0.0, 0.0, 1.677528029371749E9, 0.0, 2023-02-27 15:00:29.371
104.0, 3340.647022801283, 187500.0, 187500.0, 187500.0, -187500.02235174447, -187500.02235174447, -187500.02235174447, -187500.02235174447, 0.446, -0.022, 0.908, 192.0, 0.0, 0.0, 0.0, 0.0, 0.0, 0.0, 0.0, 0.0, 0.0, 1.67752802937978E9, 0.0, 2023-02-27 15:00:29.379
105.0, 3375.7392615961153, 187500.0, 187500.0, 187500.0, -187500.02235174447, -187500.02235174447, -187500.02235174447, -187500.02235174447, 0.446, -0.022, 0.908, 192.0, 0.0, 0.0, 0.0, 0.0, 0.0, 0.0, 0.0, 0.0, 0.0, 1.677528029379803E9, 0.0, 2023-02-27 15:00:29.379
106.0, 3793.336903254617, 187500.0, 187500.0, 187500.0, -187500.02235174447, -187500.02235174447, -187500.02235174447, -187500.02235174447, 0.446, -0.018000000000000002, 0.912, 192.0, 13.0, 240.0, 255.0, 112.0, 28.0, 128.0, 0.0, 0.0, 0.0, 1.67752802938693E9, 0.0, 2023-02-27 15:00:29.386
107.0, 3990.389882372604, 187500.0, 187500.0, 187500.0, -187500.02235174447, -187500.02235174447, -187500.02235174447, -187500.02235174447, 0.446, -0.018000000000000002, 0.912, 192.0, 0.0, 0.0, 0.0, 0.0, 0.0, 0.0, 0.0, 0.0, 0.0, 1.677528029386947E9, 0.0, 2023-02-27 15:00:29.386
108.0, 3112.0333805124023, 187500.0, 187500.0, 187500.0, -187500.02235174447, -187500.02235174447, -187500.02235174447, -187500.02235174447, 0.446, -0.018000000000000002, 0.912, 192.0, 0.0, 0.0, 0.0, 0.0, 0.0, 0.0, 0.0, 0.0, 0.0, 1.677528029394299E9, 0.0, 2023-02-27 15:00:29.394
109.0, 3214.5831840733513, 187500.0, 187500.0, 187500.0, -187500.02235174447, -187500.02235174447, -187500.02235174447, -187500.02235174447, 0.446, -0.018000000000000002, 0.912, 192.0, 0.0, 0.0, 0.0, 0.0, 0.0, 0.0, 0.0, 0.0, 0.0, 1.677528029394315E9, 0.0, 2023-02-27 15:00:29.394
110.0, 3431.6856779677487, 187500.0, 187500.0, 187500.0, -187500.02235174447, -187500.02235174447, -187500.02235174447, -187500.02235174447, 0.446, -0.018000000000000002, 0.912, 192.0, 0.0, 0.0, 0.0, 0.0, 0.0, 0.0, 0.0, 0.0, 0.0, 1.677528029402383E9, 0.0, 2023-02-27 15:00:29.402
111.0, 3482.826469281491, 187500.0, 187500.0, 187500.0, -187500.02235174447, -187500.02235174447, -187500.02235174447, -187500.02235174447, 0.446, -0.018000000000000002, 0.912, 192.0, 0.0, 0.0, 0.0, 0.0, 0.0, 0.0, 0.0, 0.0, 0.0, 1.677528029402406E9, 0.0, 2023-02-27 15:00:29.402
112.0, 3847.9869184478425, 187500.0, 187500.0, 187500.0, -187500.02235174447, -187500.02235174447, -187500.02235174447, -187500.02235174447, 0.446, -0.018000000000000002, 0.912, 192.0, 0.0, 0.0, 0.0, 0.0, 0.0, 0.0, 0.0, 0.0, 0.0, 1.677528029410344E9, 0.0, 2023-02-27 15:00:29.410
113.0, 3506.541670148572, 187500.0, 187500.0, 187500.0, -187500.02235174447, -187500.02235174447, -187500.02235174447, -187500.02235174447, 0.446, -0.018000000000000002, 0.912, 192.0, 0.0, 0.0, 0.0, 0.0, 0.0, 0.0, 0.0, 0.0, 0.0, 1.677528029410365E9, 0.0, 2023-02-27 15:00:29.410
114.0, 3359.1095637213666, 187500.0, 187500.0, 187500.0, -187500.02235174447, -187500.02235174447, -187500.02235174447, -187500.02235174447, 0.446, -0.018000000000000002, 0.912, 192.0, 0.0, 0.0, 0.0, 0.0, 0.0, 0.0, 0.0, 0.0, 0.0, 1.677528029417726E9, 0.0, 2023-02-27 15:00:29.417
115.0, 3584.66101701987, 187500.0, 187500.0, 187500.0, -187500.02235174447, -187500.02235174447, -187500.02235174447, -187500.02235174447, 0.446, -0.018000000000000002, 0.912, 192.0, 0.0, 0.0, 0.0, 0.0, 0.0, 0.0, 0.0, 0.0, 0.0, 1.677528029417738E9, 0.0, 2023-02-27 15:00:29.417
116.0, 3501.5348793905832, 187500.0, 187500.0, 187500.0, -187500.02235174447, -187500.02235174447, -187500.02235174447, -187500.02235174447, 0.444, -0.022, 0.916, 192.0, 13.0, 224.0, 255.0, 80.0, 28.0, 160.0, 0.0, 0.0, 0.0, 1.677528029423964E9, 0.0, 2023-02-27 15:00:29.423
117.0, 3378.4438226752072, 187500.0, 187500.0, 187500.0, -187500.02235174447, -187500.02235174447, -187500.02235174447, -187500.02235174447, 0.444, -0.022, 0.916, 192.0, 0.0, 0.0, 0.0, 0.0, 0.0, 0.0, 0.0, 0.0, 0.0, 1.677528029432079E9, 0.0, 2023-02-27 15:00:29.432
118.0, 3692.664646227914, 187500.0, 187500.0, 187500.0, -187500.02235174447, -187500.02235174447, -187500.02235174447, -187500.02235174447, 0.444, -0.022, 0.916, 192.0, 0.0, 0.0, 0.0, 0.0, 0.0, 0.0, 0.0, 0.0, 0.0, 1.677528029432099E9, 0.0, 2023-02-27 15:00:29.432
119.0, 3659.7852301341572, 187500.0, 187500.0, 187500.0, -187500.02235174447, -187500.02235174447, -187500.02235174447, -187500.02235174447, 0.444, -0.022, 0.916, 192.0, 0.0, 0.0, 0.0, 0.0, 0.0, 0.0, 0.0, 0.0, 0.0, 1.677528029439065E9, 0.0, 2023-02-27 15:00:29.439
120.0, 3347.7995810269813, 187500.0, 187500.0, 187500.0, -187500.02235174447, -187500.02235174447, -187500.02235174447, -187500.02235174447, 0.444, -0.022, 0.916, 192.0, 0.0, 0.0, 0.0, 0.0, 0.0, 0.0, 0.0, 0.0, 0.0, 1.677528029439086E9, 0.0, 2023-02-27 15:00:29.439
121.0, 3566.8690284334457, 187500.0, 187500.0, 187500.0, -187500.02235174447, -187500.02235174447, -187500.02235174447, -187500.02235174447, 0.444, -0.022, 0.916, 192.0, 0.0, 0.0, 0.0, 0.0, 0.0, 0.0, 0.0, 0.0, 0.0, 1.677528029446734E9, 0.0, 2023-02-27 15:00:29.446
122.0, 3808.5807929731363, 187500.0, 187500.0, 187500.0, -187500.02235174447, -187500.02235174447, -187500.02235174447, -187500.02235174447, 0.444, -0.022, 0.916, 192.0, 0.0, 0.0, 0.0, 0.0, 0.0, 0.0, 0.0, 0.0, 0.0, 1.677528029446762E9, 0.0, 2023-02-27 15:00:29.446
123.0, 3898.166584750007, 187500.0, 187500.0, 187500.0, -187500.02235174447, -187500.02235174447, -187500.02235174447, -187500.02235174447, 0.444, -0.022, 0.916, 192.0, 0.0, 0.0, 0.0, 0.0, 0.0, 0.0, 0.0, 0.0, 0.0, 1.677528029454571E9, 0.0, 2023-02-27 15:00:29.454
124.0, 3396.1687560282658, 187500.0, 187500.0, 187500.0, -187500.02235174447, -187500.02235174447, -187500.02235174447, -187500.02235174447, 0.444, -0.022, 0.916, 192.0, 0.0, 0.0, 0.0, 0.0, 0.0, 0.0, 0.0, 0.0, 0.0, 1.677528029454583E9, 0.0, 2023-02-27 15:00:29.454
125.0, 3411.2338317911426, 187500.0, 187500.0, 187500.0, -187500.02235174447, -187500.02235174447, -187500.02235174447, -187500.02235174447, 0.444, -0.022, 0.916, 192.0, 13.0, 224.0, 255.0, 80.0, 28.0, 160.0, 0.0, 0.0, 0.0, 1.677528029462716E9, 0.0, 2023-02-27 15:00:29.462
126.0, 3644.496636926727, 187500.0, 187500.0, 187500.0, -187500.02235174447, -187500.02235174447, -187500.02235174447, -187500.02235174447, 0.444, -0.022, 0.916, 192.0, 0.0, 0.0, 0.0, 0.0, 0.0, 0.0, 0.0, 0.0, 0.0, 1.677528029462738E9, 0.0, 2023-02-27 15:00:29.462
127.0, 3793.9404003549103, 187500.0, 187500.0, 187500.0, -187500.02235174447, -187500.02235174447, -187500.02235174447, -187500.02235174447, 0.444, -0.022, 0.916, 192.0, 0.0, 0.0, 0.0, 0.0, 0.0, 0.0, 0.0, 0.0, 0.0, 1.677528029469196E9, 0.0, 2023-02-27 15:00:29.469
128.0, 3728.4721408453156, 187500.0, 187500.0, 187500.0, -187500.02235174447, -187500.02235174447, -187500.02235174447, -187500.02235174447, 0.444, -0.022, 0.916, 192.0, 0.0, 0.0, 0.0, 0.0, 0.0, 0.0, 0.0, 0.0, 0.0, 1.677528029469254E9, 0.0, 2023-02-27 15:00:29.469
129.0, 3516.0411615420776, 187500.0, 187500.0, 187500.0, -187500.02235174447, -187500.02235174447, -187500.02235174447, -187500.02235174447, 0.444, -0.022, 0.916, 192.0, 0.0, 0.0, 0.0, 0.0, 0.0, 0.0, 0.0, 0.0, 0.0, 1.67752802947725E9, 0.0, 2023-02-27 15:00:29.477
130.0, 3837.9956886763202, 187500.0, 187500.0, 187500.0, -187500.02235174447, -187500.02235174447, -187500.02235174447, -187500.02235174447, 0.444, -0.022, 0.916, 192.0, 0.0, 0.0, 0.0, 0.0, 0.0, 0.0, 0.0, 0.0, 0.0, 1.677528029477268E9, 0.0, 2023-02-27 15:00:29.477
131.0, 3772.169801255441, 187500.0, 187500.0, 187500.0, -187500.02235174447, -187500.02235174447, -187500.02235174447, -187500.02235174447, 0.444, -0.022, 0.916, 192.0, 0.0, 0.0, 0.0, 0.0, 0.0, 0.0, 0.0, 0.0, 0.0, 1.677528029484228E9, 0.0, 2023-02-27 15:00:29.484
132.0, 3585.0633484200657, 187500.0, 187500.0, 187500.0, -187500.02235174447, -187500.02235174447, -187500.02235174447, -187500.02235174447, 0.444, -0.022, 0.916, 192.0, 0.0, 0.0, 0.0, 0.0, 0.0, 0.0, 0.0, 0.0, 0.0, 1.677528029513842E9, 0.0, 2023-02-27 15:00:29.513
133.0, 3686.182640335875, 187500.0, 187500.0, 187500.0, -187500.02235174447, -187500.02235174447, -187500.02235174447, -187500.02235174447, 0.444, -0.022, 0.916, 192.0, 0.0, 0.0, 0.0, 0.0, 0.0, 0.0, 0.0, 0.0, 0.0, 1.677528029513872E9, 0.0, 2023-02-27 15:00:29.513
134.0, 3716.893937217467, 187500.0, 187500.0, 187500.0, -187500.02235174447, -187500.02235174447, -187500.02235174447, -187500.02235174447, 0.444, -0.022, 0.916, 192.0, 0.0, 0.0, 0.0, 0.0, 0.0, 0.0, 0.0, 0.0, 0.0, 1.677528029513936E9, 0.0, 2023-02-27 15:00:29.513
135.0, 3929.459026987437, 187500.0, 187500.0, 187500.0, -187500.02235174447, -187500.02235174447, -187500.02235174447, -187500.02235174447, 0.442, -0.02, 0.916, 192.0, 13.0, 208.0, 255.0, 96.0, 28.0, 160.0, 0.0, 0.0, 0.0, 1.677528029513954E9, 0.0, 2023-02-27 15:00:29.513
136.0, 4588.589619229987, 187500.0, 187500.0, 187500.0, -187500.02235174447, -187500.02235174447, -187500.02235174447, -187500.02235174447, 0.442, -0.02, 0.916, 192.0, 0.0, 0.0, 0.0, 0.0, 0.0, 0.0, 0.0, 0.0, 0.0, 1.677528029514092E9, 0.0, 2023-02-27 15:00:29.514
137.0, 3309.153414863755, 187500.0, 187500.0, 187500.0, -187500.02235174447, -187500.02235174447, -187500.02235174447, -187500.02235174447, 0.442, -0.02, 0.916, 192.0, 0.0, 0.0, 0.0, 0.0, 0.0, 0.0, 0.0, 0.0, 0.0, 1.677528029514104E9, 0.0, 2023-02-27 15:00:29.514
138.0, 3279.0903185713673, 187500.0, 187500.0, 187500.0, -187500.02235174447, -187500.02235174447, -187500.02235174447, -187500.02235174447, 0.442, -0.02, 0.916, 192.0, 0.0, 0.0, 0.0, 0.0, 0.0, 0.0, 0.0, 0.0, 0.0, 1.677528029514873E9, 0.0, 2023-02-27 15:00:29.514
139.0, 3600.4189968608616, 187500.0, 187500.0, 187500.0, -187500.02235174447, -187500.02235174447, -187500.02235174447, -187500.02235174447, 0.442, -0.02, 0.916, 192.0, 0.0, 0.0, 0.0, 0.0, 0.0, 0.0, 0.0, 0.0, 0.0, 1.677528029514885E9, 0.0, 2023-02-27 15:00:29.514
140.0, 3622.6142791049815, 187500.0, 187500.0, 187500.0, -187500.02235174447, -187500.02235174447, -187500.02235174447, -187500.02235174447, 0.442, -0.02, 0.916, 192.0, 0.0, 0.0, 0.0, 0.0, 0.0, 0.0, 0.0, 0.0, 0.0, 1.67752802952193E9, 0.0, 2023-02-27 15:00:29.521
141.0, 3794.074510821642, 187500.0, 187500.0, 187500.0, -187500.02235174447, -187500.02235174447, -187500.02235174447, -187500.02235174447, 0.442, -0.02, 0.916, 192.0, 0.0, 0.0, 0.0, 0.0, 0.0, 0.0, 0.0, 0.0, 0.0, 1.677528029521945E9, 0.0, 2023-02-27 15:00:29.521
142.0, 3813.4534732643933, 187500.0, 187500.0, 187500.0, -187500.02235174447, -187500.02235174447, -187500.02235174447, -187500.02235174447, 0.442, -0.02, 0.916, 192.0, 0.0, 0.0, 0.0, 0.0, 0.0, 0.0, 0.0, 0.0, 0.0, 1.677528029529361E9, 0.0, 2023-02-27 15:00:29.529
143.0, 3690.0271403821876, 187500.0, 187500.0, 187500.0, -187500.02235174447, -187500.02235174447, -187500.02235174447, -187500.02235174447, 0.442, -0.02, 0.916, 192.0, 0.0, 0.0, 0.0, 0.0, 0.0, 0.0, 0.0, 0.0, 0.0, 1.677528029529384E9, 0.0, 2023-02-27 15:00:29.529
144.0, 3632.9407850433336, 187500.0, 187500.0, 187500.0, -187500.02235174447, -187500.02235174447, -187500.02235174447, -187500.02235174447, 0.442, -0.02, 0.916, 192.0, 0.0, 0.0, 0.0, 0.0, 0.0, 0.0, 0.0, 0.0, 0.0, 1.67752802953739E9, 0.0, 2023-02-27 15:00:29.537
145.0, 3667.340119760051, 187500.0, 187500.0, 187500.0, -187500.02235174447, -187500.02235174447, -187500.02235174447, -187500.02235174447, 0.442, -0.024, 0.916, 192.0, 13.0, 208.0, 255.0, 64.0, 28.0, 160.0, 0.0, 0.0, 0.0, 1.677528029537406E9, 0.0, 2023-02-27 15:00:29.537
146.0, 3913.544584935258, 187500.0, 187500.0, 187500.0, -187500.02235174447, -187500.02235174447, -187500.02235174447, -187500.02235174447, 0.442, -0.024, 0.916, 192.0, 0.0, 0.0, 0.0, 0.0, 0.0, 0.0, 0.0, 0.0, 0.0, 1.677528029544617E9, 0.0, 2023-02-27 15:00:29.544
147.0, 3965.557094282758, 187500.0, 187500.0, 187500.0, -187500.02235174447, -187500.02235174447, -187500.02235174447, -187500.02235174447, 0.442, -0.024, 0.916, 192.0, 0.0, 0.0, 0.0, 0.0, 0.0, 0.0, 0.0, 0.0, 0.0, 1.677528029544671E9, 0.0, 2023-02-27 15:00:29.544
148.0, 3841.974299189365, 187500.0, 187500.0, 187500.0, -187500.02235174447, -187500.02235174447, -187500.02235174447, -187500.02235174447, 0.442, -0.024, 0.916, 192.0, 0.0, 0.0, 0.0, 0.0, 0.0, 0.0, 0.0, 0.0, 0.0, 1.677528029551654E9, 0.0, 2023-02-27 15:00:29.551
149.0, 3901.2511254848396, 187500.0, 187500.0, 187500.0, -187500.02235174447, -187500.02235174447, -187500.02235174447, -187500.02235174447, 0.442, -0.024, 0.916, 192.0, 0.0, 0.0, 0.0, 0.0, 0.0, 0.0, 0.0, 0.0, 0.0, 1.67752802955905E9, 0.0, 2023-02-27 15:00:29.559
150.0, 3967.0546611612635, 187500.0, 187500.0, 187500.0, -187500.02235174447, -187500.02235174447, -187500.02235174447, -187500.02235174447, 0.442, -0.024, 0.916, 192.0, 0.0, 0.0, 0.0, 0.0, 0.0, 0.0, 0.0, 0.0, 0.0, 1.677528029559067E9, 0.0, 2023-02-27 15:00:29.559
151.0, 3680.9970356222434, 187500.0, 187500.0, 187500.0, -187500.02235174447, -187500.02235174447, -187500.02235174447, -187500.02235174447, 0.442, -0.024, 0.916, 192.0, 0.0, 0.0, 0.0, 0.0, 0.0, 0.0, 0.0, 0.0, 0.0, 1.677528029567178E9, 0.0, 2023-02-27 15:00:29.567
152.0, 3680.39353852195, 187500.0, 187500.0, 187500.0, -187500.02235174447, -187500.02235174447, -187500.02235174447, -187500.02235174447, 0.442, -0.024, 0.916, 192.0, 0.0, 0.0, 0.0, 0.0, 0.0, 0.0, 0.0, 0.0, 0.0, 1.677528029567195E9, 0.0, 2023-02-27 15:00:29.567
153.0, 3729.232100156796, 187500.0, 187500.0, 187500.0, -187500.02235174447, -187500.02235174447, -187500.02235174447, -187500.02235174447, 0.442, -0.024, 0.916, 192.0, 0.0, 0.0, 0.0, 0.0, 0.0, 0.0, 0.0, 0.0, 0.0, 1.677528029575101E9, 0.0, 2023-02-27 15:00:29.575
154.0, 3666.5578087041154, 187500.0, 187500.0, 187500.0, -187500.02235174447, -187500.02235174447, -187500.02235174447, -187500.02235174447, 0.442, -0.024, 0.916, 192.0, 0.0, 0.0, 0.0, 0.0, 0.0, 0.0, 0.0, 0.0, 0.0, 1.677528029575123E9, 0.0, 2023-02-27 15:00:29.575
155.0, 3880.1287269745744, 187500.0, 187500.0, 187500.0, -187500.02235174447, -187500.02235174447, -187500.02235174447, -187500.02235174447, 0.442, -0.024, 0.91, 192.0, 13.0, 208.0, 255.0, 64.0, 28.0, 112.0, 0.0, 0.0, 0.0, 1.677528029581752E9, 0.0, 2023-02-27 15:00:29.581
156.0, 4001.766920300355, 187500.0, 187500.0, 187500.0, -187500.02235174447, -187500.02235174447, -187500.02235174447, -187500.02235174447, 0.442, -0.024, 0.91, 192.0, 0.0, 0.0, 0.0, 0.0, 0.0, 0.0, 0.0, 0.0, 0.0, 1.677528029581764E9, 0.0, 2023-02-27 15:00:29.581
157.0, 3957.8904459345877, 187500.0, 187500.0, 187500.0, -187500.02235174447, -187500.02235174447, -187500.02235174447, -187500.02235174447, 0.442, -0.024, 0.91, 192.0, 0.0, 0.0, 0.0, 0.0, 0.0, 0.0, 0.0, 0.0, 0.0, 1.677528029589797E9, 0.0, 2023-02-27 15:00:29.589
158.0, 4118.890061246164, 187500.0, 187500.0, 187500.0, -187500.02235174447, -187500.02235174447, -187500.02235174447, -187500.02235174447, 0.442, -0.024, 0.91, 192.0, 0.0, 0.0, 0.0, 0.0, 0.0, 0.0, 0.0, 0.0, 0.0, 1.677528029589818E9, 0.0, 2023-02-27 15:00:29.589
159.0, 4078.1428311041395, 187500.0, 187500.0, 187500.0, -187500.02235174447, -187500.02235174447, -187500.02235174447, -187500.02235174447, 0.442, -0.024, 0.91, 192.0, 0.0, 0.0, 0.0, 0.0, 0.0, 0.0, 0.0, 0.0, 0.0, 1.677528029597847E9, 0.0, 2023-02-27 15:00:29.597
160.0, 3727.2204431558184, 187500.0, 187500.0, 187500.0, -187500.02235174447, -187500.02235174447, -187500.02235174447, -187500.02235174447, 0.442, -0.024, 0.91, 192.0, 0.0, 0.0, 0.0, 0.0, 0.0, 0.0, 0.0, 0.0, 0.0, 1.67752802959787E9, 0.0, 2023-02-27 15:00:29.597
161.0, 3992.8262225182325, 187500.0, 187500.0, 187500.0, -187500.02235174447, -187500.02235174447, -187500.02235174447, -187500.02235174447, 0.442, -0.024, 0.91, 192.0, 0.0, 0.0, 0.0, 0.0, 0.0, 0.0, 0.0, 0.0, 0.0, 1.677528029604944E9, 0.0, 2023-02-27 15:00:29.604
162.0, 3740.296213662173, 187500.0, 187500.0, 187500.0, -187500.02235174447, -187500.02235174447, -187500.02235174447, -187500.02235174447, 0.442, -0.024, 0.91, 192.0, 0.0, 0.0, 0.0, 0.0, 0.0, 0.0, 0.0, 0.0, 0.0, 1.677528029605039E9, 0.0, 2023-02-27 15:00:29.605
163.0, 4122.913375248119, 187500.0, 187500.0, 187500.0, -187500.02235174447, -187500.02235174447, -187500.02235174447, -187500.02235174447, 0.442, -0.024, 0.91, 192.0, 0.0, 0.0, 0.0, 0.0, 0.0, 0.0, 0.0, 0.0, 0.0, 1.677528029611395E9, 0.0, 2023-02-27 15:00:29.611
164.0, 4156.44099193108, 187500.0, 187500.0, 187500.0, -187500.02235174447, -187500.02235174447, -187500.02235174447, -187500.02235174447, 0.442, -0.024, 0.91, 192.0, 0.0, 0.0, 0.0, 0.0, 0.0, 0.0, 0.0, 0.0, 0.0, 1.67752802961936E9, 0.0, 2023-02-27 15:00:29.619
165.0, 3832.0054211622983, 187500.0, 187500.0, 187500.0, -187500.02235174447, -187500.02235174447, -187500.02235174447, -187500.02235174447, 0.444, -0.026000000000000002, 0.914, 192.0, 13.0, 224.0, 255.0, 48.0, 28.0, 144.0, 0.0, 0.0, 0.0, 1.677528029619382E9, 0.0, 2023-02-27 15:00:29.619
166.0, 3815.532185498737, 187500.0, 187500.0, 187500.0, -187500.02235174447, -187500.02235174447, -187500.02235174447, -187500.02235174447, 0.444, -0.026000000000000002, 0.914, 192.0, 0.0, 0.0, 0.0, 0.0, 0.0, 0.0, 0.0, 0.0, 0.0, 1.677528029627428E9, 0.0, 2023-02-27 15:00:29.627
167.0, 3834.5535200302033, 187500.0, 187500.0, 187500.0, -187500.02235174447, -187500.02235174447, -187500.02235174447, -187500.02235174447, 0.444, -0.026000000000000002, 0.914, 192.0, 0.0, 0.0, 0.0, 0.0, 0.0, 0.0, 0.0, 0.0, 0.0, 1.677528029627446E9, 0.0, 2023-02-27 15:00:29.627
168.0, 4156.217474486527, 187500.0, 187500.0, 187500.0, -187500.02235174447, -187500.02235174447, -187500.02235174447, -187500.02235174447, 0.444, -0.026000000000000002, 0.914, 192.0, 0.0, 0.0, 0.0, 0.0, 0.0, 0.0, 0.0, 0.0, 0.0, 1.677528029633973E9, 0.0, 2023-02-27 15:00:29.633
169.0, 4002.102196467185, 187500.0, 187500.0, 187500.0, -187500.02235174447, -187500.02235174447, -187500.02235174447, -187500.02235174447, 0.444, -0.026000000000000002, 0.914, 192.0, 0.0, 0.0, 0.0, 0.0, 0.0, 0.0, 0.0, 0.0, 0.0, 1.677528029633996E9, 0.0, 2023-02-27 15:00:29.633
170.0, 4088.089357386751, 187500.0, 187500.0, 187500.0, -187500.02235174447, -187500.02235174447, -187500.02235174447, -187500.02235174447, 0.444, -0.026000000000000002, 0.914, 192.0, 0.0, 0.0, 0.0, 0.0, 0.0, 0.0, 0.0, 0.0, 0.0, 1.677528029641985E9, 0.0, 2023-02-27 15:00:29.641
171.0, 4140.7500673234545, 187500.0, 187500.0, 187500.0, -187500.02235174447, -187500.02235174447, -187500.02235174447, -187500.02235174447, 0.444, -0.026000000000000002, 0.914, 192.0, 0.0, 0.0, 0.0, 0.0, 0.0, 0.0, 0.0, 0.0, 0.0, 1.677528029641999E9, 0.0, 2023-02-27 15:00:29.641
172.0, 4025.6832868675338, 187500.0, 187500.0, 187500.0, -187500.02235174447, -187500.02235174447, -187500.02235174447, -187500.02235174447, 0.444, -0.026000000000000002, 0.914, 192.0, 0.0, 0.0, 0.0, 0.0, 0.0, 0.0, 0.0, 0.0, 0.0, 1.677528029649994E9, 0.0, 2023-02-27 15:00:29.649
173.0, 3955.7670302113333, 187500.0, 187500.0, 187500.0, -187500.02235174447, -187500.02235174447, -187500.02235174447, -187500.02235174447, 0.444, -0.026000000000000002, 0.914, 192.0, 0.0, 0.0, 0.0, 0.0, 0.0, 0.0, 0.0, 0.0, 0.0, 1.677528029650021E9, 0.0, 2023-02-27 15:00:29.650
174.0, 4067.1681245765835, 187500.0, 187500.0, 187500.0, -187500.02235174447, -187500.02235174447, -187500.02235174447, -187500.02235174447, 0.444, -0.026000000000000002, 0.914, 192.0, 0.0, 0.0, 0.0, 0.0, 0.0, 0.0, 0.0, 0.0, 0.0, 1.677528029657147E9, 0.0, 2023-02-27 15:00:29.657
175.0, 4048.8173423787766, 187500.0, 187500.0, 187500.0, -187500.02235174447, -187500.02235174447, -187500.02235174447, -187500.02235174447, 0.438, -0.026000000000000002, 0.91, 192.0, 13.0, 176.0, 255.0, 48.0, 28.0, 112.0, 0.0, 0.0, 0.0, 1.677528029657222E9, 0.0, 2023-02-27 15:00:29.657
176.0, 4061.8931128851314, 187500.0, 187500.0, 187500.0, -187500.02235174447, -187500.02235174447, -187500.02235174447, -187500.02235174447, 0.438, -0.026000000000000002, 0.91, 192.0, 0.0, 0.0, 0.0, 0.0, 0.0, 0.0, 0.0, 0.0, 0.0, 1.677528029664689E9, 0.0, 2023-02-27 15:00:29.664
177.0, 4709.26668754419, 187500.0, 187500.0, 187500.0, -187500.02235174447, -187500.02235174447, -187500.02235174447, -187500.02235174447, 0.438, -0.026000000000000002, 0.91, 192.0, 0.0, 0.0, 0.0, 0.0, 0.0, 0.0, 0.0, 0.0, 0.0, 1.677528029664739E9, 0.0, 2023-02-27 15:00:29.664
178.0, 4162.006576300451, 187500.0, 187500.0, 187500.0, -187500.02235174447, -187500.02235174447, -187500.02235174447, -187500.02235174447, 0.438, -0.026000000000000002, 0.91, 192.0, 0.0, 0.0, 0.0, 0.0, 0.0, 0.0, 0.0, 0.0, 0.0, 1.677528029671688E9, 0.0, 2023-02-27 15:00:29.671
179.0, 3503.0324462690887, 187500.0, 187500.0, 187500.0, -187500.02235174447, -187500.02235174447, -187500.02235174447, -187500.02235174447, 0.438, -0.026000000000000002, 0.91, 192.0, 0.0, 0.0, 0.0, 0.0, 0.0, 0.0, 0.0, 0.0, 0.0, 1.677528029679724E9, 0.0, 2023-02-27 15:00:29.679
180.0, 4081.7414619614437, 187500.0, 187500.0, 187500.0, -187500.02235174447, -187500.02235174447, -187500.02235174447, -187500.02235174447, 0.438, -0.026000000000000002, 0.91, 192.0, 0.0, 0.0, 0.0, 0.0, 0.0, 0.0, 0.0, 0.0, 0.0, 1.677528029679741E9, 0.0, 2023-02-27 15:00:29.679
181.0, 4272.1112694872945, 187500.0, 187500.0, 187500.0, -187500.02235174447, -187500.02235174447, -187500.02235174447, -187500.02235174447, 0.438, -0.026000000000000002, 0.91, 192.0, 0.0, 0.0, 0.0, 0.0, 0.0, 0.0, 0.0, 0.0, 0.0, 1.677528029686867E9, 0.0, 2023-02-27 15:00:29.686
182.0, 4043.139999287129, 187500.0, 187500.0, 187500.0, -187500.02235174447, -187500.02235174447, -187500.02235174447, -187500.02235174447, 0.438, -0.026000000000000002, 0.91, 192.0, 0.0, 0.0, 0.0, 0.0, 0.0, 0.0, 0.0, 0.0, 0.0, 1.677528029686884E9, 0.0, 2023-02-27 15:00:29.686
183.0, 4003.152728456584, 187500.0, 187500.0, 187500.0, -187500.02235174447, -187500.02235174447, -187500.02235174447, -187500.02235174447, 0.438, -0.026000000000000002, 0.91, 192.0, 0.0, 0.0, 0.0, 0.0, 0.0, 0.0, 0.0, 0.0, 0.0, 1.677528029694654E9, 0.0, 2023-02-27 15:00:29.694
184.0, 4084.7589474629103, 187500.0, 187500.0, 187500.0, -187500.02235174447, -187500.02235174447, -187500.02235174447, -187500.02235174447, 0.444, -0.026000000000000002, 0.918, 192.0, 13.0, 224.0, 255.0, 48.0, 28.0, 176.0, 0.0, 0.0, 0.0, 1.677528029694678E9, 0.0, 2023-02-27 15:00:29.694
185.0, 4253.581673333844, 187500.0, 187500.0, 187500.0, -187500.02235174447, -187500.02235174447, -187500.02235174447, -187500.02235174447, 0.444, -0.026000000000000002, 0.918, 192.0, 0.0, 0.0, 0.0, 0.0, 0.0, 0.0, 0.0, 0.0, 0.0, 1.677528029702277E9, 0.0, 2023-02-27 15:00:29.702
186.0, 4154.496390163468, 187500.0, 187500.0, 187500.0, -187500.02235174447, -187500.02235174447, -187500.02235174447, -187500.02235174447, 0.444, -0.026000000000000002, 0.918, 192.0, 0.0, 0.0, 0.0, 0.0, 0.0, 0.0, 0.0, 0.0, 0.0, 1.677528029702298E9, 0.0, 2023-02-27 15:00:29.702
187.0, 4041.0389353083297, 187500.0, 187500.0, 187500.0, -187500.02235174447, -187500.02235174447, -187500.02235174447, -187500.02235174447, 0.444, -0.026000000000000002, 0.918, 192.0, 0.0, 0.0, 0.0, 0.0, 0.0, 0.0, 0.0, 0.0, 0.0, 1.677528029710346E9, 0.0, 2023-02-27 15:00:29.710
188.0, 4150.540131394879, 187500.0, 187500.0, 187500.0, -187500.02235174447, -187500.02235174447, -187500.02235174447, -187500.02235174447, 0.444, -0.026000000000000002, 0.918, 192.0, 0.0, 0.0, 0.0, 0.0, 0.0, 0.0, 0.0, 0.0, 0.0, 1.677528029710361E9, 0.0, 2023-02-27 15:00:29.710
189.0, 4405.886460052307, 187500.0, 187500.0, 187500.0, -187500.02235174447, -187500.02235174447, -187500.02235174447, -187500.02235174447, 0.444, -0.026000000000000002, 0.918, 192.0, 0.0, 0.0, 0.0, 0.0, 0.0, 0.0, 0.0, 0.0, 0.0, 1.677528029716892E9, 0.0, 2023-02-27 15:00:29.716
190.0, 4274.078222999361, 187500.0, 187500.0, 187500.0, -187500.02235174447, -187500.02235174447, -187500.02235174447, -187500.02235174447, 0.444, -0.026000000000000002, 0.918, 192.0, 0.0, 0.0, 0.0, 0.0, 0.0, 0.0, 0.0, 0.0, 0.0, 1.677528029716903E9, 0.0, 2023-02-27 15:00:29.716
191.0, 4203.714931454055, 187500.0, 187500.0, 187500.0, -187500.02235174447, -187500.02235174447, -187500.02235174447, -187500.02235174447, 0.444, -0.026000000000000002, 0.918, 192.0, 0.0, 0.0, 0.0, 0.0, 0.0, 0.0, 0.0, 0.0, 0.0, 1.677528029724987E9, 0.0, 2023-02-27 15:00:29.724
192.0, 4446.678393683243, 187500.0, 187500.0, 187500.0, -187500.02235174447, -187500.02235174447, -187500.02235174447, -187500.02235174447, 0.444, -0.026000000000000002, 0.918, 192.0, 0.0, 0.0, 0.0, 0.0, 0.0, 0.0, 0.0, 0.0, 0.0, 1.677528029725061E9, 0.0, 2023-02-27 15:00:29.725
193.0, 4306.801176881931, 187500.0, 187500.0, 187500.0, -187500.02235174447, -187500.02235174447, -187500.02235174447, -187500.02235174447, 0.444, -0.026000000000000002, 0.918, 192.0, 0.0, 0.0, 0.0, 0.0, 0.0, 0.0, 0.0, 0.0, 0.0, 1.677528029731951E9, 0.0, 2023-02-27 15:00:29.731
194.0, 4491.136013404848, 187500.0, 187500.0, 187500.0, -187500.02235174447, -187500.02235174447, -187500.02235174447, -187500.02235174447, 0.444, -0.024, 0.916, 192.0, 13.0, 224.0, 255.0, 64.0, 28.0, 160.0, 0.0, 0.0, 0.0, 1.677528029740234E9, 0.0, 2023-02-27 15:00:29.740
195.0, 4147.38853542668, 187500.0, 187500.0, 187500.0, -187500.02235174447, -187500.02235174447, -187500.02235174447, -187500.02235174447, 0.444, -0.024, 0.916, 192.0, 0.0, 0.0, 0.0, 0.0, 0.0, 0.0, 0.0, 0.0, 0.0, 1.677528029740258E9, 0.0, 2023-02-27 15:00:29.740
196.0, 4082.3002555728267, 187500.0, 187500.0, 187500.0, -187500.02235174447, -187500.02235174447, -187500.02235174447, -187500.02235174447, 0.444, -0.024, 0.916, 192.0, 0.0, 0.0, 0.0, 0.0, 0.0, 0.0, 0.0, 0.0, 0.0, 1.677528029746605E9, 0.0, 2023-02-27 15:00:29.746
197.0, 4494.108795417404, 187500.0, 187500.0, 187500.0, -187500.02235174447, -187500.02235174447, -187500.02235174447, -187500.02235174447, 0.444, -0.024, 0.916, 192.0, 0.0, 0.0, 0.0, 0.0, 0.0, 0.0, 0.0, 0.0, 0.0, 1.677528029746629E9, 0.0, 2023-02-27 15:00:29.746
198.0, 4648.514646114665, 187500.0, 187500.0, 187500.0, -187500.02235174447, -187500.02235174447, -187500.02235174447, -187500.02235174447, 0.444, -0.024, 0.916, 192.0, 0.0, 0.0, 0.0, 0.0, 0.0, 0.0, 0.0, 0.0, 0.0, 1.677528029754688E9, 0.0, 2023-02-27 15:00:29.754
199.0, 4317.977049109584, 187500.0, 187500.0, 187500.0, -187500.02235174447, -187500.02235174447, -187500.02235174447, -187500.02235174447, 0.444, -0.024, 0.916, 192.0, 0.0, 0.0, 0.0, 0.0, 0.0, 0.0, 0.0, 0.0, 0.0, 1.677528029754709E9, 0.0, 2023-02-27 15:00:29.754
200.0, 4222.490396796513, 187500.0, 187500.0, 187500.0, -187500.02235174447, -187500.02235174447, -187500.02235174447, -187500.02235174447, 0.444, -0.024, 0.916, 192.0, 0.0, 0.0, 0.0, 0.0, 0.0, 0.0, 0.0, 0.0, 0.0, 1.677528029762585E9, 0.0, 2023-02-27 15:00:29.762
201.0, 4282.795403336931, 187500.0, 187500.0, 187500.0, -187500.02235174447, -187500.02235174447, -187500.02235174447, -187500.02235174447, 0.444, -0.024, 0.916, 192.0, 0.0, 0.0, 0.0, 0.0, 0.0, 0.0, 0.0, 0.0, 0.0, 1.677528029762602E9, 0.0, 2023-02-27 15:00:29.762
202.0, 4273.072394498872, 187500.0, 187500.0, 187500.0, -187500.02235174447, -187500.02235174447, -187500.02235174447, -187500.02235174447, 0.444, -0.024, 0.916, 192.0, 0.0, 0.0, 0.0, 0.0, 0.0, 0.0, 0.0, 0.0, 0.0, 1.677528029769682E9, 0.0, 2023-02-27 15:00:29.769
203.0, 4314.691342674654, 187500.0, 187500.0, 187500.0, -187500.02235174447, -187500.02235174447, -187500.02235174447, -187500.02235174447, 0.444, -0.024, 0.916, 192.0, 0.0, 0.0, 0.0, 0.0, 0.0, 0.0, 0.0, 0.0, 0.0, 1.677528029769693E9, 0.0, 2023-02-27 15:00:29.769
204.0, 4257.403821635702, 187500.0, 187500.0, 187500.0, -187500.02235174447, -187500.02235174447, -187500.02235174447, -187500.02235174447, 0.444, -0.028, 0.912, 192.0, 13.0, 224.0, 255.0, 32.0, 28.0, 128.0, 0.0, 0.0, 0.0, 1.677528029777233E9, 0.0, 2023-02-27 15:00:29.777
205.0, 4347.548407023955, 187500.0, 187500.0, 187500.0, -187500.02235174447, -187500.02235174447, -187500.02235174447, -187500.02235174447, 0.444, -0.028, 0.912, 192.0, 0.0, 0.0, 0.0, 0.0, 0.0, 0.0, 0.0, 0.0, 0.0, 1.677528029777256E9, 0.0, 2023-02-27 15:00:29.777
206.0, 4453.339213530924, 187500.0, 187500.0, 187500.0, -187500.02235174447, -187500.02235174447, -187500.02235174447, -187500.02235174447, 0.444, -0.028, 0.912, 192.0, 0.0, 0.0, 0.0, 0.0, 0.0, 0.0, 0.0, 0.0, 0.0, 1.67752802978522E9, 0.0, 2023-02-27 15:00:29.785
207.0, 4669.078251013548, 187500.0, 187500.0, 187500.0, -187500.02235174447, -187500.02235174447, -187500.02235174447, -187500.02235174447, 0.444, -0.028, 0.912, 192.0, 0.0, 0.0, 0.0, 0.0, 0.0, 0.0, 0.0, 0.0, 0.0, 1.677528029785285E9, 0.0, 2023-02-27 15:00:29.785
208.0, 4394.531773869011, 187500.0, 187500.0, 187500.0, -187500.02235174447, -187500.02235174447, -187500.02235174447, -187500.02235174447, 0.444, -0.028, 0.912, 192.0, 0.0, 0.0, 0.0, 0.0, 0.0, 0.0, 0.0, 0.0, 0.0, 1.67752802979249E9, 0.0, 2023-02-27 15:00:29.792
209.0, 4190.30388478087, 187500.0, 187500.0, 187500.0, -187500.02235174447, -187500.02235174447, -187500.02235174447, -187500.02235174447, 0.444, -0.028, 0.912, 192.0, 0.0, 0.0, 0.0, 0.0, 0.0, 0.0, 0.0, 0.0, 0.0, 1.677528029792505E9, 0.0, 2023-02-27 15:00:29.792
210.0, 4393.548297112978, 187500.0, 187500.0, 187500.0, -187500.02235174447, -187500.02235174447, -187500.02235174447, -187500.02235174447, 0.444, -0.028, 0.912, 192.0, 0.0, 0.0, 0.0, 0.0, 0.0, 0.0, 0.0, 0.0, 0.0, 1.677528029798871E9, 0.0, 2023-02-27 15:00:29.798
211.0, 4545.875435575895, 187500.0, 187500.0, 187500.0, -187500.02235174447, -187500.02235174447, -187500.02235174447, -187500.02235174447, 0.444, -0.028, 0.912, 192.0, 0.0, 0.0, 0.0, 0.0, 0.0, 0.0, 0.0, 0.0, 0.0, 1.677528029806893E9, 0.0, 2023-02-27 15:00:29.806
212.0, 4890.025244954258, 187500.0, 187500.0, 187500.0, -187500.02235174447, -187500.02235174447, -187500.02235174447, -187500.02235174447, 0.444, -0.028, 0.912, 192.0, 0.0, 0.0, 0.0, 0.0, 0.0, 0.0, 0.0, 0.0, 0.0, 1.677528029806909E9, 0.0, 2023-02-27 15:00:29.806
213.0, 4340.731124965087, 187500.0, 187500.0, 187500.0, -187500.02235174447, -187500.02235174447, -187500.02235174447, -187500.02235174447, 0.444, -0.028, 0.912, 192.0, 0.0, 0.0, 0.0, 0.0, 0.0, 0.0, 0.0, 0.0, 0.0, 1.677528029814915E9, 0.0, 2023-02-27 15:00:29.814
214.0, 4352.689308248676, 187500.0, 187500.0, 187500.0, -187500.02235174447, -187500.02235174447, -187500.02235174447, -187500.02235174447, 0.442, -0.022, 0.912, 192.0, 13.0, 208.0, 255.0, 80.0, 28.0, 128.0, 0.0, 0.0, 0.0, 1.67752802981493E9, 0.0, 2023-02-27 15:00:29.814
215.0, 4392.743634312586, 187500.0, 187500.0, 187500.0, -187500.02235174447, -187500.02235174447, -187500.02235174447, -187500.02235174447, 0.442, -0.022, 0.912, 192.0, 0.0, 0.0, 0.0, 0.0, 0.0, 0.0, 0.0, 0.0, 0.0, 1.677528029822184E9, 0.0, 2023-02-27 15:00:29.822
216.0, 4436.217777278159, 187500.0, 187500.0, 187500.0, -187500.02235174447, -187500.02235174447, -187500.02235174447, -187500.02235174447, 0.442, -0.022, 0.912, 192.0, 0.0, 0.0, 0.0, 0.0, 0.0, 0.0, 0.0, 0.0, 0.0, 1.677528029822207E9, 0.0, 2023-02-27 15:00:29.822
217.0, 4615.881099209917, 187500.0, 187500.0, 187500.0, -187500.02235174447, -187500.02235174447, -187500.02235174447, -187500.02235174447, 0.442, -0.022, 0.912, 192.0, 0.0, 0.0, 0.0, 0.0, 0.0, 0.0, 0.0, 0.0, 0.0, 1.677528029829538E9, 0.0, 2023-02-27 15:00:29.829
218.0, 4781.351063412555, 187500.0, 187500.0, 187500.0, -187500.02235174447, -187500.02235174447, -187500.02235174447, -187500.02235174447, 0.442, -0.022, 0.912, 192.0, 0.0, 0.0, 0.0, 0.0, 0.0, 0.0, 0.0, 0.0, 0.0, 1.677528029829557E9, 0.0, 2023-02-27 15:00:29.829
219.0, 4665.099640500503, 187500.0, 187500.0, 187500.0, -187500.02235174447, -187500.02235174447, -187500.02235174447, -187500.02235174447, 0.442, -0.022, 0.912, 192.0, 0.0, 0.0, 0.0, 0.0, 0.0, 0.0, 0.0, 0.0, 0.0, 1.677528029837634E9, 0.0, 2023-02-27 15:00:29.837
220.0, 4249.536007587434, 187500.0, 187500.0, 187500.0, -187500.02235174447, -187500.02235174447, -187500.02235174447, -187500.02235174447, 0.442, -0.022, 0.912, 192.0, 0.0, 0.0, 0.0, 0.0, 0.0, 0.0, 0.0, 0.0, 0.0, 1.677528029837654E9, 0.0, 2023-02-27 15:00:29.837
221.0, 4462.16815259077, 187500.0, 187500.0, 187500.0, -187500.02235174447, -187500.02235174447, -187500.02235174447, -187500.02235174447, 0.442, -0.022, 0.912, 192.0, 0.0, 0.0, 0.0, 0.0, 0.0, 0.0, 0.0, 0.0, 0.0, 1.67752802984557E9, 0.0, 2023-02-27 15:00:29.845
222.0, 4842.751305431283, 187500.0, 187500.0, 187500.0, -187500.02235174447, -187500.02235174447, -187500.02235174447, -187500.02235174447, 0.442, -0.022, 0.912, 192.0, 0.0, 0.0, 0.0, 0.0, 0.0, 0.0, 0.0, 0.0, 0.0, 1.677528029845635E9, 0.0, 2023-02-27 15:00:29.845
223.0, 4524.395409154345, 187500.0, 187500.0, 187500.0, -187500.02235174447, -187500.02235174447, -187500.02235174447, -187500.02235174447, 0.442, -0.022, 0.912, 192.0, 0.0, 0.0, 0.0, 0.0, 0.0, 0.0, 0.0, 0.0, 0.0, 1.677528029852014E9, 0.0, 2023-02-27 15:00:29.852
224.0, 4441.02340233605, 187500.0, 187500.0, 187500.0, -187500.02235174447, -187500.02235174447, -187500.02235174447, -187500.02235174447, 0.446, -0.026000000000000002, 0.908, 192.0, 13.0, 240.0, 255.0, 48.0, 28.0, 96.0, 0.0, 0.0, 0.0, 1.677528029852026E9, 0.0, 2023-02-27 15:00:29.852
225.0, 4529.648069101342, 187500.0, 187500.0, 187500.0, -187500.02235174447, -187500.02235174447, -187500.02235174447, -187500.02235174447, 0.446, -0.026000000000000002, 0.908, 192.0, 0.0, 0.0, 0.0, 0.0, 0.0, 0.0, 0.0, 0.0, 0.0, 1.677528029859159E9, 0.0, 2023-02-27 15:00:29.859
226.0, 4664.719660844763, 187500.0, 187500.0, 187500.0, -187500.02235174447, -187500.02235174447, -187500.02235174447, -187500.02235174447, 0.446, -0.026000000000000002, 0.908, 192.0, 0.0, 0.0, 0.0, 0.0, 0.0, 0.0, 0.0, 0.0, 0.0, 1.677528029867259E9, 0.0, 2023-02-27 15:00:29.867
227.0, 4805.8038718466605, 187500.0, 187500.0, 187500.0, -187500.02235174447, -187500.02235174447, -187500.02235174447, -187500.02235174447, 0.446, -0.026000000000000002, 0.908, 192.0, 0.0, 0.0, 0.0, 0.0, 0.0, 0.0, 0.0, 0.0, 0.0, 1.677528029867282E9, 0.0, 2023-02-27 15:00:29.867
228.0, 4716.508652747709, 187500.0, 187500.0, 187500.0, -187500.02235174447, -187500.02235174447, -187500.02235174447, -187500.02235174447, 0.446, -0.026000000000000002, 0.908, 192.0, 0.0, 0.0, 0.0, 0.0, 0.0, 0.0, 0.0, 0.0, 0.0, 1.67752802987514E9, 0.0, 2023-02-27 15:00:29.875
229.0, 4612.193061374791, 187500.0, 187500.0, 187500.0, -187500.02235174447, -187500.02235174447, -187500.02235174447, -187500.02235174447, 0.446, -0.026000000000000002, 0.908, 192.0, 0.0, 0.0, 0.0, 0.0, 0.0, 0.0, 0.0, 0.0, 0.0, 1.677528029875159E9, 0.0, 2023-02-27 15:00:29.875
230.0, 4616.10461665447, 187500.0, 187500.0, 187500.0, -187500.02235174447, -187500.02235174447, -187500.02235174447, -187500.02235174447, 0.446, -0.026000000000000002, 0.908, 192.0, 0.0, 0.0, 0.0, 0.0, 0.0, 0.0, 0.0, 0.0, 0.0, 1.677528029881768E9, 0.0, 2023-02-27 15:00:29.881
231.0, 5207.218850519521, 187500.0, 187500.0, 187500.0, -187500.02235174447, -187500.02235174447, -187500.02235174447, -187500.02235174447, 0.446, -0.026000000000000002, 0.908, 192.0, 0.0, 0.0, 0.0, 0.0, 0.0, 0.0, 0.0, 0.0, 0.0, 1.677528029881782E9, 0.0, 2023-02-27 15:00:29.881
232.0, 4766.263635905223, 187500.0, 187500.0, 187500.0, -187500.02235174447, -187500.02235174447, -187500.02235174447, -187500.02235174447, 0.446, -0.026000000000000002, 0.908, 192.0, 0.0, 0.0, 0.0, 0.0, 0.0, 0.0, 0.0, 0.0, 0.0, 1.677528029889853E9, 0.0, 2023-02-27 15:00:29.889
233.0, 4315.898336875241, 187500.0, 187500.0, 187500.0, -187500.02235174447, -187500.02235174447, -187500.02235174447, -187500.02235174447, 0.442, -0.022, 0.906, 192.0, 13.0, 208.0, 255.0, 80.0, 28.0, 80.0, 0.0, 0.0, 0.0, 1.677528029889868E9, 0.0, 2023-02-27 15:00:29.889
234.0, 4596.81506118954, 187500.0, 187500.0, 187500.0, -187500.02235174447, -187500.02235174447, -187500.02235174447, -187500.02235174447, 0.442, -0.022, 0.906, 192.0, 0.0, 0.0, 0.0, 0.0, 0.0, 0.0, 0.0, 0.0, 0.0, 1.677528029897959E9, 0.0, 2023-02-27 15:00:29.897
235.0, 4740.313260592611, 187500.0, 187500.0, 187500.0, -187500.02235174447, -187500.02235174447, -187500.02235174447, -187500.02235174447, 0.442, -0.022, 0.906, 192.0, 0.0, 0.0, 0.0, 0.0, 0.0, 0.0, 0.0, 0.0, 0.0, 1.677528029897973E9, 0.0, 2023-02-27 15:00:29.897
236.0, 4942.328326979677, 187500.0, 187500.0, 187500.0, -187500.02235174447, -187500.02235174447, -187500.02235174447, -187500.02235174447, 0.442, -0.022, 0.906, 192.0, 0.0, 0.0, 0.0, 0.0, 0.0, 0.0, 0.0, 0.0, 0.0, 1.677528029904932E9, 0.0, 2023-02-27 15:00:29.904
237.0, 4936.78509435476, 187500.0, 187500.0, 187500.0, -187500.02235174447, -187500.02235174447, -187500.02235174447, -187500.02235174447, 0.442, -0.022, 0.906, 192.0, 0.0, 0.0, 0.0, 0.0, 0.0, 0.0, 0.0, 0.0, 0.0, 1.677528029905007E9, 0.0, 2023-02-27 15:00:29.905
238.0, 4521.780255053074, 187500.0, 187500.0, 187500.0, -187500.02235174447, -187500.02235174447, -187500.02235174447, -187500.02235174447, 0.442, -0.022, 0.906, 192.0, 0.0, 0.0, 0.0, 0.0, 0.0, 0.0, 0.0, 0.0, 0.0, 1.677528029912374E9, 0.0, 2023-02-27 15:00:29.912
239.0, 4728.399780797932, 187500.0, 187500.0, 187500.0, -187500.02235174447, -187500.02235174447, -187500.02235174447, -187500.02235174447, 0.442, -0.022, 0.906, 192.0, 0.0, 0.0, 0.0, 0.0, 0.0, 0.0, 0.0, 0.0, 0.0, 1.677528029912394E9, 0.0, 2023-02-27 15:00:29.912
240.0, 4809.290743981689, 187500.0, 187500.0, 187500.0, -187500.02235174447, -187500.02235174447, -187500.02235174447, -187500.02235174447, 0.442, -0.022, 0.906, 192.0, 0.0, 0.0, 0.0, 0.0, 0.0, 0.0, 0.0, 0.0, 0.0, 1.677528029919338E9, 0.0, 2023-02-27 15:00:29.919
241.0, 4761.905045736438, 187500.0, 187500.0, 187500.0, -187500.02235174447, -187500.02235174447, -187500.02235174447, -187500.02235174447, 0.442, -0.022, 0.906, 192.0, 0.0, 0.0, 0.0, 0.0, 0.0, 0.0, 0.0, 0.0, 0.0, 1.677528029927523E9, 0.0, 2023-02-27 15:00:29.927
242.0, 4848.003965378281, 187500.0, 187500.0, 187500.0, -187500.02235174447, -187500.02235174447, -187500.02235174447, -187500.02235174447, 0.442, -0.022, 0.906, 192.0, 0.0, 0.0, 0.0, 0.0, 0.0, 0.0, 0.0, 0.0, 0.0, 1.677528029927534E9, 0.0, 2023-02-27 15:00:29.927
243.0, 5036.362115903154, 187500.0, 187500.0, 187500.0, -187500.02235174447, -187500.02235174447, -187500.02235174447, -187500.02235174447, 0.44, -0.016, 0.906, 192.0, 13.0, 192.0, 255.0, 128.0, 28.0, 80.0, 0.0, 0.0, 0.0, 1.677528029934447E9, 0.0, 2023-02-27 15:00:29.934
244.0, 5097.516488732874, 187500.0, 187500.0, 187500.0, -187500.02235174447, -187500.02235174447, -187500.02235174447, -187500.02235174447, 0.44, -0.016, 0.906, 192.0, 0.0, 0.0, 0.0, 0.0, 0.0, 0.0, 0.0, 0.0, 0.0, 1.677528029934466E9, 0.0, 2023-02-27 15:00:29.934
245.0, 4626.699343526286, 187500.0, 187500.0, 187500.0, -187500.02235174447, -187500.02235174447, -187500.02235174447, -187500.02235174447, 0.44, -0.016, 0.906, 192.0, 0.0, 0.0, 0.0, 0.0, 0.0, 0.0, 0.0, 0.0, 0.0, 1.677528029942043E9, 0.0, 2023-02-27 15:00:29.942
246.0, 4665.926655045349, 187500.0, 187500.0, 187500.0, -187500.02235174447, -187500.02235174447, -187500.02235174447, -187500.02235174447, 0.44, -0.016, 0.906, 192.0, 0.0, 0.0, 0.0, 0.0, 0.0, 0.0, 0.0, 0.0, 0.0, 1.67752802994206E9, 0.0, 2023-02-27 15:00:29.942
247.0, 4934.907547820514, 187500.0, 187500.0, 187500.0, -187500.02235174447, -187500.02235174447, -187500.02235174447, -187500.02235174447, 0.44, -0.016, 0.906, 192.0, 0.0, 0.0, 0.0, 0.0, 0.0, 0.0, 0.0, 0.0, 0.0, 1.677528029950229E9, 0.0, 2023-02-27 15:00:29.950
248.0, 5212.27034476642, 187500.0, 187500.0, 187500.0, -187500.02235174447, -187500.02235174447, -187500.02235174447, -187500.02235174447, 0.44, -0.016, 0.906, 192.0, 0.0, 0.0, 0.0, 0.0, 0.0, 0.0, 0.0, 0.0, 0.0, 1.677528029950248E9, 0.0, 2023-02-27 15:00:29.950
249.0, 4959.717984165905, 187500.0, 187500.0, 187500.0, -187500.02235174447, -187500.02235174447, -187500.02235174447, -187500.02235174447, 0.44, -0.016, 0.906, 192.0, 0.0, 0.0, 0.0, 0.0, 0.0, 0.0, 0.0, 0.0, 0.0, 1.677528029957173E9, 0.0, 2023-02-27 15:00:29.957
250.0, 4694.40277748141, 187500.0, 187500.0, 187500.0, -187500.02235174447, -187500.02235174447, -187500.02235174447, -187500.02235174447, 0.44, -0.016, 0.906, 192.0, 0.0, 0.0, 0.0, 0.0, 0.0, 0.0, 0.0, 0.0, 0.0, 1.677528029957184E9, 0.0, 2023-02-27 15:00:29.957
251.0, 4928.559652395207, 187500.0, 187500.0, 187500.0, -187500.02235174447, -187500.02235174447, -187500.02235174447, -187500.02235174447, 0.44, -0.016, 0.906, 192.0, 0.0, 0.0, 0.0, 0.0, 0.0, 0.0, 0.0, 0.0, 0.0, 1.677528029964686E9, 0.0, 2023-02-27 15:00:29.964
252.0, 5174.697062337049, 187500.0, 187500.0, 187500.0, -187500.02235174447, -187500.02235174447, -187500.02235174447, -187500.02235174447, 0.44, -0.016, 0.906, 192.0, 0.0, 0.0, 0.0, 0.0, 0.0, 0.0, 0.0, 0.0, 0.0, 1.677528029964724E9, 0.0, 2023-02-27 15:00:29.964
253.0, 5115.710808719494, 187500.0, 187500.0, 187500.0, -187500.02235174447, -187500.02235174447, -187500.02235174447, -187500.02235174447, 0.442, -0.02, 0.91, 192.0, 13.0, 208.0, 255.0, 96.0, 28.0, 112.0, 0.0, 0.0, 0.0, 1.677528029972673E9, 0.0, 2023-02-27 15:00:29.972
254.0, 4896.641361313029, 187500.0, 187500.0, 187500.0, -187500.02235174447, -187500.02235174447, -187500.02235174447, -187500.02235174447, 0.442, -0.02, 0.91, 192.0, 0.0, 0.0, 0.0, 0.0, 0.0, 0.0, 0.0, 0.0, 0.0, 1.67752802997269E9, 0.0, 2023-02-27 15:00:29.972
255.0, 4881.4645268278755, 187500.0, 187500.0, 187500.0, -187500.02235174447, -187500.02235174447, -187500.02235174447, -187500.02235174447, 0.442, -0.02, 0.91, 192.0, 0.0, 0.0, 0.0, 0.0, 0.0, 0.0, 0.0, 0.0, 0.0, 1.67752802997965E9, 0.0, 2023-02-27 15:00:29.979
0.0, 5261.868865712746, 187500.0, 187500.0, 187500.0, -187500.02235174447, -187500.02235174447, -187500.02235174447, -187500.02235174447, 0.442, -0.02, 0.91, 192.0, 0.0, 0.0, 0.0, 0.0, 0.0, 0.0, 0.0, 0.0, 0.0, 1.677528029986951E9, 0.0, 2023-02-27 15:00:29.986
1.0, 5349.86768363329, 187500.0, 187500.0, 187500.0, -187500.02235174447, -187500.02235174447, -187500.02235174447, -187500.02235174447, 0.442, -0.02, 0.91, 192.0, 0.0, 0.0, 0.0, 0.0, 0.0, 0.0, 0.0, 0.0, 0.0, 1.677528029986972E9, 0.0, 2023-02-27 15:00:29.986
2.0, 4744.023650172192, 187500.0, 187500.0, 187500.0, -187500.02235174447, -187500.02235174447, -187500.02235174447, -187500.02235174447, 0.442, -0.02, 0.91, 192.0, 0.0, 0.0, 0.0, 0.0, 0.0, 0.0, 0.0, 0.0, 0.0, 1.677528029994266E9, 0.0, 2023-02-27 15:00:29.994
3.0, 4836.582223961619, 187500.0, 187500.0, 187500.0, -187500.02235174447, -187500.02235174447, -187500.02235174447, -187500.02235174447, 0.442, -0.02, 0.91, 192.0, 0.0, 0.0, 0.0, 0.0, 0.0, 0.0, 0.0, 0.0, 0.0, 1.677528029994292E9, 0.0, 2023-02-27 15:00:29.994
4.0, 5212.046827321867, 187500.0, 187500.0, 187500.0, -187500.02235174447, -187500.02235174447, -187500.02235174447, -187500.02235174447, 0.442, -0.02, 0.91, 192.0, 0.0, 0.0, 0.0, 0.0, 0.0, 0.0, 0.0, 0.0, 0.0, 1.677528030002233E9, 0.0, 2023-02-27 15:00:30.002
5.0, 5303.577220866349, 187500.0, 187500.0, 187500.0, -187500.02235174447, -187500.02235174447, -187500.02235174447, -187500.02235174447, 0.442, -0.02, 0.91, 192.0, 0.0, 0.0, 0.0, 0.0, 0.0, 0.0, 0.0, 0.0, 0.0, 1.677528030002254E9, 0.0, 2023-02-27 15:00:30.002
6.0, 5074.382433221631, 187500.0, 187500.0, 187500.0, -187500.02235174447, -187500.02235174447, -187500.02235174447, -187500.02235174447, 0.442, -0.02, 0.91, 192.0, 0.0, 0.0, 0.0, 0.0, 0.0, 0.0, 0.0, 0.0, 0.0, 1.677528030010316E9, 0.0, 2023-02-27 15:00:30.010
7.0, 4878.178820392945, 187500.0, 187500.0, 187500.0, -187500.02235174447, -187500.02235174447, -187500.02235174447, -187500.02235174447, 0.444, -0.022, 0.912, 192.0, 13.0, 224.0, 255.0, 80.0, 28.0, 128.0, 0.0, 0.0, 0.0, 1.677528030010337E9, 0.0, 2023-02-27 15:00:30.010
8.0, 5147.562044568306, 187500.0, 187500.0, 187500.0, -187500.02235174447, -187500.02235174447, -187500.02235174447, -187500.02235174447, 0.444, -0.022, 0.912, 192.0, 0.0, 0.0, 0.0, 0.0, 0.0, 0.0, 0.0, 0.0, 0.0, 1.677528030016886E9, 0.0, 2023-02-27 15:00:30.016
9.0, 5284.8464590128015, 187500.0, 187500.0, 187500.0, -187500.02235174447, -187500.02235174447, -187500.02235174447, -187500.02235174447, 0.444, -0.022, 0.912, 192.0, 0.0, 0.0, 0.0, 0.0, 0.0, 0.0, 0.0, 0.0, 0.0, 1.677528030016901E9, 0.0, 2023-02-27 15:00:30.016
10.0, 5426.355353159351, 187500.0, 187500.0, 187500.0, -187500.02235174447, -187500.02235174447, -187500.02235174447, -187500.02235174447, 0.444, -0.022, 0.912, 192.0, 0.0, 0.0, 0.0, 0.0, 0.0, 0.0, 0.0, 0.0, 0.0, 1.677528030024912E9, 0.0, 2023-02-27 15:00:30.024
11.0, 5100.422215512063, 187500.0, 187500.0, 187500.0, -187500.02235174447, -187500.02235174447, -187500.02235174447, -187500.02235174447, 0.444, -0.022, 0.912, 192.0, 0.0, 0.0, 0.0, 0.0, 0.0, 0.0, 0.0, 0.0, 0.0, 1.677528030024954E9, 0.0, 2023-02-27 15:00:30.024
12.0, 5369.8948466652455, 187500.0, 187500.0, 187500.0, -187500.02235174447, -187500.02235174447, -187500.02235174447, -187500.02235174447, 0.444, -0.022, 0.912, 192.0, 0.0, 0.0, 0.0, 0.0, 0.0, 0.0, 0.0, 0.0, 0.0, 1.677528030032942E9, 0.0, 2023-02-27 15:00:30.032
13.0, 5388.424442818695, 187500.0, 187500.0, 187500.0, -187500.02235174447, -187500.02235174447, -187500.02235174447, -187500.02235174447, 0.444, -0.022, 0.912, 192.0, 0.0, 0.0, 0.0, 0.0, 0.0, 0.0, 0.0, 0.0, 0.0, 1.677528030032969E9, 0.0, 2023-02-27 15:00:30.032
14.0, 5122.595146011728, 187500.0, 187500.0, 187500.0, -187500.02235174447, -187500.02235174447, -187500.02235174447, -187500.02235174447, 0.444, -0.022, 0.912, 192.0, 0.0, 0.0, 0.0, 0.0, 0.0, 0.0, 0.0, 0.0, 0.0, 1.677528030040135E9, 0.0, 2023-02-27 15:00:30.040
15.0, 5183.8836293081795, 187500.0, 187500.0, 187500.0, -187500.02235174447, -187500.02235174447, -187500.02235174447, -187500.02235174447, 0.444, -0.022, 0.912, 192.0, 0.0, 0.0, 0.0, 0.0, 0.0, 0.0, 0.0, 0.0, 0.0, 1.677528030040159E9, 0.0, 2023-02-27 15:00:30.040
16.0, 5270.876618728235, 187500.0, 187500.0, 187500.0, -187500.02235174447, -187500.02235174447, -187500.02235174447, -187500.02235174447, 0.444, -0.022, 0.912, 192.0, 0.0, 0.0, 0.0, 0.0, 0.0, 0.0, 0.0, 0.0, 0.0, 1.677528030047083E9, 0.0, 2023-02-27 15:00:30.047
17.0, 5187.88459156568, 187500.0, 187500.0, 187500.0, -187500.02235174447, -187500.02235174447, -187500.02235174447, -187500.02235174447, 0.442, -0.024, 0.91, 192.0, 13.0, 208.0, 255.0, 64.0, 28.0, 112.0, 0.0, 0.0, 0.0, 1.677528030054605E9, 0.0, 2023-02-27 15:00:30.054
18.0, 5109.005285382901, 187500.0, 187500.0, 187500.0, -187500.02235174447, -187500.02235174447, -187500.02235174447, -187500.02235174447, 0.442, -0.024, 0.91, 192.0, 0.0, 0.0, 0.0, 0.0, 0.0, 0.0, 0.0, 0.0, 0.0, 1.677528030054619E9, 0.0, 2023-02-27 15:00:30.054
19.0, 5189.918600311113, 187500.0, 187500.0, 187500.0, -187500.02235174447, -187500.02235174447, -187500.02235174447, -187500.02235174447, 0.442, -0.024, 0.91, 192.0, 0.0, 0.0, 0.0, 0.0, 0.0, 0.0, 0.0, 0.0, 0.0, 1.677528030062587E9, 0.0, 2023-02-27 15:00:30.062
20.0, 5487.643836455803, 187500.0, 187500.0, 187500.0, -187500.02235174447, -187500.02235174447, -187500.02235174447, -187500.02235174447, 0.442, -0.024, 0.91, 192.0, 0.0, 0.0, 0.0, 0.0, 0.0, 0.0, 0.0, 0.0, 0.0, 1.6775280300626E9, 0.0, 2023-02-27 15:00:30.062
21.0, 5387.060986406921, 187500.0, 187500.0, 187500.0, -187500.02235174447, -187500.02235174447, -187500.02235174447, -187500.02235174447, 0.442, -0.024, 0.91, 192.0, 0.0, 0.0, 0.0, 0.0, 0.0, 0.0, 0.0, 0.0, 0.0, 1.677528030069838E9, 0.0, 2023-02-27 15:00:30.069
22.0, 5290.724967804547, 187500.0, 187500.0, 187500.0, -187500.02235174447, -187500.02235174447, -187500.02235174447, -187500.02235174447, 0.442, -0.024, 0.91, 192.0, 0.0, 0.0, 0.0, 0.0, 0.0, 0.0, 0.0, 0.0, 0.0, 1.677528030069867E9, 0.0, 2023-02-27 15:00:30.069
23.0, 5428.031733993499, 187500.0, 187500.0, 187500.0, -187500.02235174447, -187500.02235174447, -187500.02235174447, -187500.02235174447, 0.442, -0.024, 0.91, 192.0, 0.0, 0.0, 0.0, 0.0, 0.0, 0.0, 0.0, 0.0, 0.0, 1.677528030077305E9, 0.0, 2023-02-27 15:00:30.077
24.0, 5491.242467313107, 187500.0, 187500.0, 187500.0, -187500.02235174447, -187500.02235174447, -187500.02235174447, -187500.02235174447, 0.442, -0.024, 0.91, 192.0, 0.0, 0.0, 0.0, 0.0, 0.0, 0.0, 0.0, 0.0, 0.0, 1.677528030077326E9, 0.0, 2023-02-27 15:00:30.077
25.0, 5526.2676508745735, 187500.0, 187500.0, 187500.0, -187500.02235174447, -187500.02235174447, -187500.02235174447, -187500.02235174447, 0.442, -0.024, 0.91, 192.0, 0.0, 0.0, 0.0, 0.0, 0.0, 0.0, 0.0, 0.0, 0.0, 1.677528030085197E9, 0.0, 2023-02-27 15:00:30.085
26.0, 5458.810086108457, 187500.0, 187500.0, 187500.0, -187500.02235174447, -187500.02235174447, -187500.02235174447, -187500.02235174447, 0.442, -0.024, 0.91, 192.0, 0.0, 0.0, 0.0, 0.0, 0.0, 0.0, 0.0, 0.0, 0.0, 1.677528030085244E9, 0.0, 2023-02-27 15:00:30.085
27.0, 5366.765602441502, 187500.0, 187500.0, 187500.0, -187500.02235174447, -187500.02235174447, -187500.02235174447, -187500.02235174447, 0.448, -0.024, 0.91, 192.0, 14.0, 0.0, 255.0, 64.0, 28.0, 112.0, 0.0, 0.0, 0.0, 1.677528030093235E9, 0.0, 2023-02-27 15:00:30.093
28.0, 5892.5456872636905, 187500.0, 187500.0, 187500.0, -187500.02235174447, -187500.02235174447, -187500.02235174447, -187500.02235174447, 0.448, -0.024, 0.91, 192.0, 0.0, 0.0, 0.0, 0.0, 0.0, 0.0, 0.0, 0.0, 0.0, 1.677528030093259E9, 0.0, 2023-02-27 15:00:30.093
29.0, 5589.970122572198, 187500.0, 187500.0, 187500.0, -187500.02235174447, -187500.02235174447, -187500.02235174447, -187500.02235174447, 0.448, -0.024, 0.91, 192.0, 0.0, 0.0, 0.0, 0.0, 0.0, 0.0, 0.0, 0.0, 0.0, 1.677528030099981E9, 0.0, 2023-02-27 15:00:30.099
30.0, 5224.832025150303, 187500.0, 187500.0, 187500.0, -187500.02235174447, -187500.02235174447, -187500.02235174447, -187500.02235174447, 0.448, -0.024, 0.91, 192.0, 0.0, 0.0, 0.0, 0.0, 0.0, 0.0, 0.0, 0.0, 0.0, 1.677528030099994E9, 0.0, 2023-02-27 15:00:30.099
31.0, 5296.245848685008, 187500.0, 187500.0, 187500.0, -187500.02235174447, -187500.02235174447, -187500.02235174447, -187500.02235174447, 0.448, -0.024, 0.91, 192.0, 0.0, 0.0, 0.0, 0.0, 0.0, 0.0, 0.0, 0.0, 0.0, 1.67752803010699E9, 0.0, 2023-02-27 15:00:30.106
32.0, 5647.458809311248, 187500.0, 187500.0, 187500.0, -187500.02235174447, -187500.02235174447, -187500.02235174447, -187500.02235174447, 0.448, -0.024, 0.91, 192.0, 0.0, 0.0, 0.0, 0.0, 0.0, 0.0, 0.0, 0.0, 0.0, 1.677528030114851E9, 0.0, 2023-02-27 15:00:30.114
33.0, 5721.46543520277, 187500.0, 187500.0, 187500.0, -187500.02235174447, -187500.02235174447, -187500.02235174447, -187500.02235174447, 0.448, -0.024, 0.91, 192.0, 0.0, 0.0, 0.0, 0.0, 0.0, 0.0, 0.0, 0.0, 0.0, 1.677528030114864E9, 0.0, 2023-02-27 15:00:30.114
34.0, 5617.239250807674, 187500.0, 187500.0, 187500.0, -187500.02235174447, -187500.02235174447, -187500.02235174447, -187500.02235174447, 0.448, -0.024, 0.91, 192.0, 0.0, 0.0, 0.0, 0.0, 0.0, 0.0, 0.0, 0.0, 0.0, 1.677528030122869E9, 0.0, 2023-02-27 15:00:30.122
35.0, 5736.597566199013, 187500.0, 187500.0, 187500.0, -187500.02235174447, -187500.02235174447, -187500.02235174447, -187500.02235174447, 0.448, -0.024, 0.91, 192.0, 0.0, 0.0, 0.0, 0.0, 0.0, 0.0, 0.0, 0.0, 0.0, 1.67752803012289E9, 0.0, 2023-02-27 15:00:30.122
36.0, 5374.655768234225, 187500.0, 187500.0, 187500.0, -187500.02235174447, -187500.02235174447, -187500.02235174447, -187500.02235174447, 0.446, -0.024, 0.91, 192.0, 13.0, 240.0, 255.0, 64.0, 28.0, 112.0, 0.0, 0.0, 0.0, 1.677528030129511E9, 0.0, 2023-02-27 15:00:30.129
37.0, 5243.0486968813775, 187500.0, 187500.0, 187500.0, -187500.02235174447, -187500.02235174447, -187500.02235174447, -187500.02235174447, 0.446, -0.024, 0.91, 192.0, 0.0, 0.0, 0.0, 0.0, 0.0, 0.0, 0.0, 0.0, 0.0, 1.677528030129534E9, 0.0, 2023-02-27 15:00:30.129
38.0, 5384.624646261293, 187500.0, 187500.0, 187500.0, -187500.02235174447, -187500.02235174447, -187500.02235174447, -187500.02235174447, 0.446, -0.024, 0.91, 192.0, 0.0, 0.0, 0.0, 0.0, 0.0, 0.0, 0.0, 0.0, 0.0, 1.677528030137516E9, 0.0, 2023-02-27 15:00:30.137
39.0, 5481.407699752772, 187500.0, 187500.0, 187500.0, -187500.02235174447, -187500.02235174447, -187500.02235174447, -187500.02235174447, 0.446, -0.024, 0.91, 192.0, 0.0, 0.0, 0.0, 0.0, 0.0, 0.0, 0.0, 0.0, 0.0, 1.677528030137536E9, 0.0, 2023-02-27 15:00:30.137
40.0, 5468.734260646613, 187500.0, 187500.0, 187500.0, -187500.02235174447, -187500.02235174447, -187500.02235174447, -187500.02235174447, 0.446, -0.024, 0.91, 192.0, 0.0, 0.0, 0.0, 0.0, 0.0, 0.0, 0.0, 0.0, 0.0, 1.677528030145589E9, 0.0, 2023-02-27 15:00:30.145
41.0, 5653.2926146140835, 187500.0, 187500.0, 187500.0, -187500.02235174447, -187500.02235174447, -187500.02235174447, -187500.02235174447, 0.446, -0.024, 0.91, 192.0, 0.0, 0.0, 0.0, 0.0, 0.0, 0.0, 0.0, 0.0, 0.0, 1.677528030145626E9, 0.0, 2023-02-27 15:00:30.145
42.0, 5867.757602662755, 187500.0, 187500.0, 187500.0, -187500.02235174447, -187500.02235174447, -187500.02235174447, -187500.02235174447, 0.446, -0.024, 0.91, 192.0, 0.0, 0.0, 0.0, 0.0, 0.0, 0.0, 0.0, 0.0, 0.0, 1.677528030152143E9, 0.0, 2023-02-27 15:00:30.152
43.0, 5635.031239394098, 187500.0, 187500.0, 187500.0, -187500.02235174447, -187500.02235174447, -187500.02235174447, -187500.02235174447, 0.446, -0.024, 0.91, 192.0, 0.0, 0.0, 0.0, 0.0, 0.0, 0.0, 0.0, 0.0, 0.0, 1.677528030152156E9, 0.0, 2023-02-27 15:00:30.152
44.0, 5475.037452583009, 187500.0, 187500.0, 187500.0, -187500.02235174447, -187500.02235174447, -187500.02235174447, -187500.02235174447, 0.446, -0.024, 0.91, 192.0, 0.0, 0.0, 0.0, 0.0, 0.0, 0.0, 0.0, 0.0, 0.0, 1.677528030160106E9, 0.0, 2023-02-27 15:00:30.160
45.0, 5607.739759414168, 187500.0, 187500.0, 187500.0, -187500.02235174447, -187500.02235174447, -187500.02235174447, -187500.02235174447, 0.446, -0.024, 0.91, 192.0, 0.0, 0.0, 0.0, 0.0, 0.0, 0.0, 0.0, 0.0, 0.0, 1.677528030160122E9, 0.0, 2023-02-27 15:00:30.160
46.0, 5694.4421761563035, 187500.0, 187500.0, 187500.0, -187500.02235174447, -187500.02235174447, -187500.02235174447, -187500.02235174447, 0.448, -0.026000000000000002, 0.912, 192.0, 14.0, 0.0, 255.0, 48.0, 28.0, 128.0, 0.0, 0.0, 0.0, 1.677528030167197E9, 0.0, 2023-02-27 15:00:30.167
47.0, 5755.3730315414705, 187500.0, 187500.0, 187500.0, -187500.02235174447, -187500.02235174447, -187500.02235174447, -187500.02235174447, 0.448, -0.026000000000000002, 0.912, 192.0, 0.0, 0.0, 0.0, 0.0, 0.0, 0.0, 0.0, 0.0, 0.0, 1.677528030175302E9, 0.0, 2023-02-27 15:00:30.175
48.0, 5673.476239857226, 187500.0, 187500.0, 187500.0, -187500.02235174447, -187500.02235174447, -187500.02235174447, -187500.02235174447, 0.448, -0.026000000000000002, 0.912, 192.0, 0.0, 0.0, 0.0, 0.0, 0.0, 0.0, 0.0, 0.0, 0.0, 1.677528030175325E9, 0.0, 2023-02-27 15:00:30.175
49.0, 5655.393678592883, 187500.0, 187500.0, 187500.0, -187500.02235174447, -187500.02235174447, -187500.02235174447, -187500.02235174447, 0.448, -0.026000000000000002, 0.912, 192.0, 0.0, 0.0, 0.0, 0.0, 0.0, 0.0, 0.0, 0.0, 0.0, 1.677528030181846E9, 0.0, 2023-02-27 15:00:30.181
50.0, 5777.6130172745015, 187500.0, 187500.0, 187500.0, -187500.02235174447, -187500.02235174447, -187500.02235174447, -187500.02235174447, 0.448, -0.026000000000000002, 0.912, 192.0, 0.0, 0.0, 0.0, 0.0, 0.0, 0.0, 0.0, 0.0, 0.0, 1.67752803018186E9, 0.0, 2023-02-27 15:00:30.181
51.0, 5729.84733937351, 187500.0, 187500.0, 187500.0, -187500.02235174447, -187500.02235174447, -187500.02235174447, -187500.02235174447, 0.448, -0.026000000000000002, 0.912, 192.0, 0.0, 0.0, 0.0, 0.0, 0.0, 0.0, 0.0, 0.0, 0.0, 1.677528030189819E9, 0.0, 2023-02-27 15:00:30.189
52.0, 5570.43469791826, 187500.0, 187500.0, 187500.0, -187500.02235174447, -187500.02235174447, -187500.02235174447, -187500.02235174447, 0.448, -0.026000000000000002, 0.912, 192.0, 0.0, 0.0, 0.0, 0.0, 0.0, 0.0, 0.0, 0.0, 0.0, 1.677528030189833E9, 0.0, 2023-02-27 15:00:30.189
53.0, 5756.378860041959, 187500.0, 187500.0, 187500.0, -187500.02235174447, -187500.02235174447, -187500.02235174447, -187500.02235174447, 0.448, -0.026000000000000002, 0.912, 192.0, 0.0, 0.0, 0.0, 0.0, 0.0, 0.0, 0.0, 0.0, 0.0, 1.677528030197834E9, 0.0, 2023-02-27 15:00:30.197
54.0, 5869.523390474724, 187500.0, 187500.0, 187500.0, -187500.02235174447, -187500.02235174447, -187500.02235174447, -187500.02235174447, 0.448, -0.026000000000000002, 0.912, 192.0, 0.0, 0.0, 0.0, 0.0, 0.0, 0.0, 0.0, 0.0, 0.0, 1.677528030197851E9, 0.0, 2023-02-27 15:00:30.197
55.0, 5566.43373566076, 187500.0, 187500.0, 187500.0, -187500.02235174447, -187500.02235174447, -187500.02235174447, -187500.02235174447, 0.448, -0.026000000000000002, 0.912, 192.0, 0.0, 0.0, 0.0, 0.0, 0.0, 0.0, 0.0, 0.0, 0.0, 1.677528030204917E9, 0.0, 2023-02-27 15:00:30.204
56.0, 5704.276943716639, 187500.0, 187500.0, 187500.0, -187500.02235174447, -187500.02235174447, -187500.02235174447, -187500.02235174447, 0.446, -0.026000000000000002, 0.914, 192.0, 13.0, 240.0, 255.0, 48.0, 28.0, 144.0, 0.0, 0.0, 0.0, 1.677528030204938E9, 0.0, 2023-02-27 15:00:30.204
57.0, 6378.651425677708, 187500.0, 187500.0, 187500.0, -187500.02235174447, -187500.02235174447, -187500.02235174447, -187500.02235174447, 0.446, -0.026000000000000002, 0.914, 192.0, 0.0, 0.0, 0.0, 0.0, 0.0, 0.0, 0.0, 0.0, 0.0, 1.677528030212369E9, 0.0, 2023-02-27 15:00:30.212
58.0, 5862.370832249026, 187500.0, 187500.0, 187500.0, -187500.02235174447, -187500.02235174447, -187500.02235174447, -187500.02235174447, 0.446, -0.026000000000000002, 0.914, 192.0, 0.0, 0.0, 0.0, 0.0, 0.0, 0.0, 0.0, 0.0, 0.0, 1.677528030212389E9, 0.0, 2023-02-27 15:00:30.212
59.0, 5574.256846220118, 187500.0, 187500.0, 187500.0, -187500.02235174447, -187500.02235174447, -187500.02235174447, -187500.02235174447, 0.446, -0.026000000000000002, 0.914, 192.0, 0.0, 0.0, 0.0, 0.0, 0.0, 0.0, 0.0, 0.0, 0.0, 1.677528030220422E9, 0.0, 2023-02-27 15:00:30.220
60.0, 5834.073523768607, 187500.0, 187500.0, 187500.0, -187500.02235174447, -187500.02235174447, -187500.02235174447, -187500.02235174447, 0.446, -0.026000000000000002, 0.914, 192.0, 0.0, 0.0, 0.0, 0.0, 0.0, 0.0, 0.0, 0.0, 0.0, 1.677528030220434E9, 0.0, 2023-02-27 15:00:30.220
61.0, 5831.5030731562465, 187500.0, 187500.0, 187500.0, -187500.02235174447, -187500.02235174447, -187500.02235174447, -187500.02235174447, 0.446, -0.026000000000000002, 0.914, 192.0, 0.0, 0.0, 0.0, 0.0, 0.0, 0.0, 0.0, 0.0, 0.0, 1.677528030227514E9, 0.0, 2023-02-27 15:00:30.227
62.0, 5683.780394051122, 187500.0, 187500.0, 187500.0, -187500.02235174447, -187500.02235174447, -187500.02235174447, -187500.02235174447, 0.446, -0.026000000000000002, 0.914, 192.0, 0.0, 0.0, 0.0, 0.0, 0.0, 0.0, 0.0, 0.0, 0.0, 1.67752803023462E9, 0.0, 2023-02-27 15:00:30.234
63.0, 5762.257368833705, 187500.0, 187500.0, 187500.0, -187500.02235174447, -187500.02235174447, -187500.02235174447, -187500.02235174447, 0.446, -0.026000000000000002, 0.914, 192.0, 0.0, 0.0, 0.0, 0.0, 0.0, 0.0, 0.0, 0.0, 0.0, 1.677528030234634E9, 0.0, 2023-02-27 15:00:30.234
64.0, 5696.722054090746, 187500.0, 187500.0, 187500.0, -187500.02235174447, -187500.02235174447, -187500.02235174447, -187500.02235174447, 0.446, -0.026000000000000002, 0.914, 192.0, 0.0, 0.0, 0.0, 0.0, 0.0, 0.0, 0.0, 0.0, 0.0, 1.677528030242036E9, 0.0, 2023-02-27 15:00:30.242
65.0, 5716.928031078342, 187500.0, 187500.0, 187500.0, -187500.02235174447, -187500.02235174447, -187500.02235174447, -187500.02235174447, 0.446, -0.026000000000000002, 0.914, 192.0, 0.0, 0.0, 0.0, 0.0, 0.0, 0.0, 0.0, 0.0, 0.0, 1.677528030242048E9, 0.0, 2023-02-27 15:00:30.242
66.0, 5944.98287975584, 187500.0, 187500.0, 187500.0, -187500.02235174447, -187500.02235174447, -187500.02235174447, -187500.02235174447, 0.45, -0.028, 0.918, 192.0, 14.0, 16.0, 255.0, 32.0, 28.0, 176.0, 0.0, 0.0, 0.0, 1.677528030250076E9, 0.0, 2023-02-27 15:00:30.250
67.0, 6014.5862119896665, 187500.0, 187500.0, 187500.0, -187500.02235174447, -187500.02235174447, -187500.02235174447, -187500.02235174447, 0.45, -0.028, 0.918, 192.0, 0.0, 0.0, 0.0, 0.0, 0.0, 0.0, 0.0, 0.0, 0.0, 1.677528030250101E9, 0.0, 2023-02-27 15:00:30.250
68.0, 5880.386338280004, 187500.0, 187500.0, 187500.0, -187500.02235174447, -187500.02235174447, -187500.02235174447, -187500.02235174447, 0.45, -0.028, 0.918, 192.0, 0.0, 0.0, 0.0, 0.0, 0.0, 0.0, 0.0, 0.0, 0.0, 1.67752803025809E9, 0.0, 2023-02-27 15:00:30.258
69.0, 5803.652799564934, 187500.0, 187500.0, 187500.0, -187500.02235174447, -187500.02235174447, -187500.02235174447, -187500.02235174447, 0.45, -0.028, 0.918, 192.0, 0.0, 0.0, 0.0, 0.0, 0.0, 0.0, 0.0, 0.0, 0.0, 1.677528030258111E9, 0.0, 2023-02-27 15:00:30.258
70.0, 6000.571668216189, 187500.0, 187500.0, 187500.0, -187500.02235174447, -187500.02235174447, -187500.02235174447, -187500.02235174447, 0.45, -0.028, 0.918, 192.0, 0.0, 0.0, 0.0, 0.0, 0.0, 0.0, 0.0, 0.0, 0.0, 1.677528030264722E9, 0.0, 2023-02-27 15:00:30.264
71.0, 6195.7247490554755, 187500.0, 187500.0, 187500.0, -187500.02235174447, -187500.02235174447, -187500.02235174447, -187500.02235174447, 0.45, -0.028, 0.918, 192.0, 0.0, 0.0, 0.0, 0.0, 0.0, 0.0, 0.0, 0.0, 0.0, 1.677528030264738E9, 0.0, 2023-02-27 15:00:30.264
72.0, 5962.506647408802, 187500.0, 187500.0, 187500.0, -187500.02235174447, -187500.02235174447, -187500.02235174447, -187500.02235174447, 0.45, -0.028, 0.918, 192.0, 0.0, 0.0, 0.0, 0.0, 0.0, 0.0, 0.0, 0.0, 0.0, 1.677528030272646E9, 0.0, 2023-02-27 15:00:30.272
73.0, 5821.86947129601, 187500.0, 187500.0, 187500.0, -187500.02235174447, -187500.02235174447, -187500.02235174447, -187500.02235174447, 0.45, -0.028, 0.918, 192.0, 0.0, 0.0, 0.0, 0.0, 0.0, 0.0, 0.0, 0.0, 0.0, 1.677528030272661E9, 0.0, 2023-02-27 15:00:30.272
74.0, 6075.561770863745, 187500.0, 187500.0, 187500.0, -187500.02235174447, -187500.02235174447, -187500.02235174447, -187500.02235174447, 0.45, -0.028, 0.918, 192.0, 0.0, 0.0, 0.0, 0.0, 0.0, 0.0, 0.0, 0.0, 0.0, 1.677528030280764E9, 0.0, 2023-02-27 15:00:30.280
75.0, 6307.192898654092, 187500.0, 187500.0, 187500.0, -187500.02235174447, -187500.02235174447, -187500.02235174447, -187500.02235174447, 0.45, -0.028, 0.918, 192.0, 0.0, 0.0, 0.0, 0.0, 0.0, 0.0, 0.0, 0.0, 0.0, 1.677528030280778E9, 0.0, 2023-02-27 15:00:30.280
76.0, 5896.032559398718, 187500.0, 187500.0, 187500.0, -187500.02235174447, -187500.02235174447, -187500.02235174447, -187500.02235174447, 0.45, -0.028, 0.916, 192.0, 14.0, 16.0, 255.0, 32.0, 28.0, 160.0, 0.0, 0.0, 0.0, 1.677528030287968E9, 0.0, 2023-02-27 15:00:30.287
77.0, 5751.103848350507, 187500.0, 187500.0, 187500.0, -187500.02235174447, -187500.02235174447, -187500.02235174447, -187500.02235174447, 0.45, -0.028, 0.916, 192.0, 0.0, 0.0, 0.0, 0.0, 0.0, 0.0, 0.0, 0.0, 0.0, 1.677528030287987E9, 0.0, 2023-02-27 15:00:30.287
78.0, 5816.43799739337, 187500.0, 187500.0, 187500.0, -187500.02235174447, -187500.02235174447, -187500.02235174447, -187500.02235174447, 0.45, -0.028, 0.916, 192.0, 0.0, 0.0, 0.0, 0.0, 0.0, 0.0, 0.0, 0.0, 0.0, 1.677528030294412E9, 0.0, 2023-02-27 15:00:30.294
79.0, 6006.561935730211, 187500.0, 187500.0, 187500.0, -187500.02235174447, -187500.02235174447, -187500.02235174447, -187500.02235174447, 0.45, -0.028, 0.916, 192.0, 0.0, 0.0, 0.0, 0.0, 0.0, 0.0, 0.0, 0.0, 0.0, 1.677528030302392E9, 0.0, 2023-02-27 15:00:30.302
80.0, 6094.381939695113, 187500.0, 187500.0, 187500.0, -187500.02235174447, -187500.02235174447, -187500.02235174447, -187500.02235174447, 0.45, -0.028, 0.916, 192.0, 0.0, 0.0, 0.0, 0.0, 0.0, 0.0, 0.0, 0.0, 0.0, 1.677528030302404E9, 0.0, 2023-02-27 15:00:30.302
81.0, 6070.711442316943, 187500.0, 187500.0, 187500.0, -187500.02235174447, -187500.02235174447, -187500.02235174447, -187500.02235174447, 0.45, -0.028, 0.916, 192.0, 0.0, 0.0, 0.0, 0.0, 0.0, 0.0, 0.0, 0.0, 0.0, 1.677528030310393E9, 0.0, 2023-02-27 15:00:30.310
82.0, 6115.97372483894, 187500.0, 187500.0, 187500.0, -187500.02235174447, -187500.02235174447, -187500.02235174447, -187500.02235174447, 0.45, -0.028, 0.916, 192.0, 0.0, 0.0, 0.0, 0.0, 0.0, 0.0, 0.0, 0.0, 0.0, 1.677528030310406E9, 0.0, 2023-02-27 15:00:30.310
83.0, 6334.014992000461, 187500.0, 187500.0, 187500.0, -187500.02235174447, -187500.02235174447, -187500.02235174447, -187500.02235174447, 0.45, -0.028, 0.916, 192.0, 0.0, 0.0, 0.0, 0.0, 0.0, 0.0, 0.0, 0.0, 0.0, 1.677528030317509E9, 0.0, 2023-02-27 15:00:30.317
84.0, 6409.854460937317, 187500.0, 187500.0, 187500.0, -187500.02235174447, -187500.02235174447, -187500.02235174447, -187500.02235174447, 0.45, -0.028, 0.916, 192.0, 0.0, 0.0, 0.0, 0.0, 0.0, 0.0, 0.0, 0.0, 0.0, 1.677528030317522E9, 0.0, 2023-02-27 15:00:30.317
85.0, 6009.892345654052, 187500.0, 187500.0, 187500.0, -187500.02235174447, -187500.02235174447, -187500.02235174447, -187500.02235174447, 0.45, -0.028, 0.916, 192.0, 0.0, 0.0, 0.0, 0.0, 0.0, 0.0, 0.0, 0.0, 0.0, 1.677528030325007E9, 0.0, 2023-02-27 15:00:30.325
86.0, 5799.4506716073365, 187500.0, 187500.0, 187500.0, -187500.02235174447, -187500.02235174447, -187500.02235174447, -187500.02235174447, 0.446, -0.028, 0.912, 192.0, 13.0, 240.0, 255.0, 32.0, 28.0, 128.0, 0.0, 0.0, 0.0, 1.67752803032502E9, 0.0, 2023-02-27 15:00:30.325
87.0, 5989.664016921999, 187500.0, 187500.0, 187500.0, -187500.02235174447, -187500.02235174447, -187500.02235174447, -187500.02235174447, 0.446, -0.028, 0.912, 192.0, 0.0, 0.0, 0.0, 0.0, 0.0, 0.0, 0.0, 0.0, 0.0, 1.677528030333056E9, 0.0, 2023-02-27 15:00:30.333
88.0, 6066.285796914792, 187500.0, 187500.0, 187500.0, -187500.02235174447, -187500.02235174447, -187500.02235174447, -187500.02235174447, 0.446, -0.028, 0.912, 192.0, 0.0, 0.0, 0.0, 0.0, 0.0, 0.0, 0.0, 0.0, 0.0, 1.677528030333075E9, 0.0, 2023-02-27 15:00:30.333
89.0, 6044.112866415127, 187500.0, 187500.0, 187500.0, -187500.02235174447, -187500.02235174447, -187500.02235174447, -187500.02235174447, 0.446, -0.028, 0.912, 192.0, 0.0, 0.0, 0.0, 0.0, 0.0, 0.0, 0.0, 0.0, 0.0, 1.677528030340223E9, 0.0, 2023-02-27 15:00:30.340
90.0, 6181.4643360929895, 187500.0, 187500.0, 187500.0, -187500.02235174447, -187500.02235174447, -187500.02235174447, -187500.02235174447, 0.446, -0.028, 0.912, 192.0, 0.0, 0.0, 0.0, 0.0, 0.0, 0.0, 0.0, 0.0, 0.0, 1.677528030340246E9, 0.0, 2023-02-27 15:00:30.340
91.0, 6355.8526463332955, 187500.0, 187500.0, 187500.0, -187500.02235174447, -187500.02235174447, -187500.02235174447, -187500.02235174447, 0.446, -0.028, 0.912, 192.0, 0.0, 0.0, 0.0, 0.0, 0.0, 0.0, 0.0, 0.0, 0.0, 1.677528030347651E9, 0.0, 2023-02-27 15:00:30.347
92.0, 6492.444156699677, 187500.0, 187500.0, 187500.0, -187500.02235174447, -187500.02235174447, -187500.02235174447, -187500.02235174447, 0.446, -0.028, 0.912, 192.0, 0.0, 0.0, 0.0, 0.0, 0.0, 0.0, 0.0, 0.0, 0.0, 1.677528030347669E9, 0.0, 2023-02-27 15:00:30.347
93.0, 6209.8734032956845, 187500.0, 187500.0, 187500.0, -187500.02235174447, -187500.02235174447, -187500.02235174447, -187500.02235174447, 0.446, -0.028, 0.912, 192.0, 0.0, 0.0, 0.0, 0.0, 0.0, 0.0, 0.0, 0.0, 0.0, 1.677528030354527E9, 0.0, 2023-02-27 15:00:30.354
94.0, 5904.883850203019, 187500.0, 187500.0, 187500.0, -187500.02235174447, -187500.02235174447, -187500.02235174447, -187500.02235174447, 0.446, -0.028, 0.912, 192.0, 0.0, 0.0, 0.0, 0.0, 0.0, 0.0, 0.0, 0.0, 0.0, 1.677528030362844E9, 0.0, 2023-02-27 15:00:30.362
95.0, 6072.119602217627, 187500.0, 187500.0, 187500.0, -187500.02235174447, -187500.02235174447, -187500.02235174447, -187500.02235174447, 0.446, -0.024, 0.91, 192.0, 13.0, 240.0, 255.0, 64.0, 28.0, 112.0, 0.0, 0.0, 0.0, 1.677528030362861E9, 0.0, 2023-02-27 15:00:30.362
96.0, 6286.897514688673, 187500.0, 187500.0, 187500.0, -187500.02235174447, -187500.02235174447, -187500.02235174447, -187500.02235174447, 0.446, -0.024, 0.91, 192.0, 0.0, 0.0, 0.0, 0.0, 0.0, 0.0, 0.0, 0.0, 0.0, 1.677528030369806E9, 0.0, 2023-02-27 15:00:30.369
97.0, 6466.784354064984, 187500.0, 187500.0, 187500.0, -187500.02235174447, -187500.02235174447, -187500.02235174447, -187500.02235174447, 0.446, -0.024, 0.91, 192.0, 0.0, 0.0, 0.0, 0.0, 0.0, 0.0, 0.0, 0.0, 0.0, 1.677528030369823E9, 0.0, 2023-02-27 15:00:30.369
98.0, 6399.103271854315, 187500.0, 187500.0, 187500.0, -187500.02235174447, -187500.02235174447, -187500.02235174447, -187500.02235174447, 0.446, -0.024, 0.91, 192.0, 0.0, 0.0, 0.0, 0.0, 0.0, 0.0, 0.0, 0.0, 0.0, 1.677528030377367E9, 0.0, 2023-02-27 15:00:30.377
99.0, 6305.941200964595, 187500.0, 187500.0, 187500.0, -187500.02235174447, -187500.02235174447, -187500.02235174447, -187500.02235174447, 0.446, -0.024, 0.91, 192.0, 0.0, 0.0, 0.0, 0.0, 0.0, 0.0, 0.0, 0.0, 0.0, 1.677528030377389E9, 0.0, 2023-02-27 15:00:30.377
100.0, 6032.132331387083, 187500.0, 187500.0, 187500.0, -187500.02235174447, -187500.02235174447, -187500.02235174447, -187500.02235174447, 0.446, -0.024, 0.91, 192.0, 0.0, 0.0, 0.0, 0.0, 0.0, 0.0, 0.0, 0.0, 0.0, 1.677528030385228E9, 0.0, 2023-02-27 15:00:30.385
101.0, 6119.550003951789, 187500.0, 187500.0, 187500.0, -187500.02235174447, -187500.02235174447, -187500.02235174447, -187500.02235174447, 0.446, -0.024, 0.91, 192.0, 0.0, 0.0, 0.0, 0.0, 0.0, 0.0, 0.0, 0.0, 0.0, 1.677528030385247E9, 0.0, 2023-02-27 15:00:30.385
102.0, 6170.623740032165, 187500.0, 187500.0, 187500.0, -187500.02235174447, -187500.02235174447, -187500.02235174447, -187500.02235174447, 0.446, -0.024, 0.91, 192.0, 0.0, 0.0, 0.0, 0.0, 0.0, 0.0, 0.0, 0.0, 0.0, 1.677528030393261E9, 0.0, 2023-02-27 15:00:30.393
103.0, 6294.765328736941, 187500.0, 187500.0, 187500.0, -187500.02235174447, -187500.02235174447, -187500.02235174447, -187500.02235174447, 0.446, -0.024, 0.91, 192.0, 0.0, 0.0, 0.0, 0.0, 0.0, 0.0, 0.0, 0.0, 0.0, 1.677528030393277E9, 0.0, 2023-02-27 15:00:30.393
104.0, 6491.8630113438385, 187500.0, 187500.0, 187500.0, -187500.02235174447, -187500.02235174447, -187500.02235174447, -187500.02235174447, 0.446, -0.024, 0.91, 192.0, 0.0, 0.0, 0.0, 0.0, 0.0, 0.0, 0.0, 0.0, 0.0, 1.677528030399747E9, 0.0, 2023-02-27 15:00:30.399
105.0, 6134.168044825559, 187500.0, 187500.0, 187500.0, -187500.02235174447, -187500.02235174447, -187500.02235174447, -187500.02235174447, 0.446, -0.028, 0.912, 192.0, 13.0, 240.0, 255.0, 32.0, 28.0, 128.0, 0.0, 0.0, 0.0, 1.677528030399759E9, 0.0, 2023-02-27 15:00:30.399
106.0, 6455.94375800416, 187500.0, 187500.0, 187500.0, -187500.02235174447, -187500.02235174447, -187500.02235174447, -187500.02235174447, 0.446, -0.028, 0.912, 192.0, 0.0, 0.0, 0.0, 0.0, 0.0, 0.0, 0.0, 0.0, 0.0, 1.677528030407741E9, 0.0, 2023-02-27 15:00:30.407
107.0, 6400.153803843714, 187500.0, 187500.0, 187500.0, -187500.02235174447, -187500.02235174447, -187500.02235174447, -187500.02235174447, 0.446, -0.028, 0.912, 192.0, 0.0, 0.0, 0.0, 0.0, 0.0, 0.0, 0.0, 0.0, 0.0, 1.677528030407759E9, 0.0, 2023-02-27 15:00:30.407
108.0, 6035.149816888549, 187500.0, 187500.0, 187500.0, -187500.02235174447, -187500.02235174447, -187500.02235174447, -187500.02235174447, 0.446, -0.028, 0.912, 192.0, 0.0, 0.0, 0.0, 0.0, 0.0, 0.0, 0.0, 0.0, 0.0, 1.677528030414931E9, 0.0, 2023-02-27 15:00:30.414
109.0, 6163.337071339735, 187500.0, 187500.0, 187500.0, -187500.02235174447, -187500.02235174447, -187500.02235174447, -187500.02235174447, 0.446, -0.028, 0.912, 192.0, 0.0, 0.0, 0.0, 0.0, 0.0, 0.0, 0.0, 0.0, 0.0, 1.677528030422921E9, 0.0, 2023-02-27 15:00:30.422
110.0, 6258.354337019246, 187500.0, 187500.0, 187500.0, -187500.02235174447, -187500.02235174447, -187500.02235174447, -187500.02235174447, 0.446, -0.028, 0.912, 192.0, 0.0, 0.0, 0.0, 0.0, 0.0, 0.0, 0.0, 0.0, 0.0, 1.677528030422939E9, 0.0, 2023-02-27 15:00:30.422
111.0, 6242.909281600629, 187500.0, 187500.0, 187500.0, -187500.02235174447, -187500.02235174447, -187500.02235174447, -187500.02235174447, 0.446, -0.028, 0.912, 192.0, 0.0, 0.0, 0.0, 0.0, 0.0, 0.0, 0.0, 0.0, 0.0, 1.67752803042948E9, 0.0, 2023-02-27 15:00:30.429
112.0, 6562.896855222804, 187500.0, 187500.0, 187500.0, -187500.02235174447, -187500.02235174447, -187500.02235174447, -187500.02235174447, 0.446, -0.028, 0.912, 192.0, 0.0, 0.0, 0.0, 0.0, 0.0, 0.0, 0.0, 0.0, 0.0, 1.677528030429491E9, 0.0, 2023-02-27 15:00:30.429
113.0, 6483.101127517358, 187500.0, 187500.0, 187500.0, -187500.02235174447, -187500.02235174447, -187500.02235174447, -187500.02235174447, 0.446, -0.028, 0.912, 192.0, 0.0, 0.0, 0.0, 0.0, 0.0, 0.0, 0.0, 0.0, 0.0, 1.677528030437438E9, 0.0, 2023-02-27 15:00:30.437
114.0, 6186.091147195238, 187500.0, 187500.0, 187500.0, -187500.02235174447, -187500.02235174447, -187500.02235174447, -187500.02235174447, 0.446, -0.028, 0.912, 192.0, 0.0, 0.0, 0.0, 0.0, 0.0, 0.0, 0.0, 0.0, 0.0, 1.677528030437449E9, 0.0, 2023-02-27 15:00:30.437
115.0, 6370.493038951521, 187500.0, 187500.0, 187500.0, -187500.02235174447, -187500.02235174447, -187500.02235174447, -187500.02235174447, 0.438, -0.024, 0.91, 192.0, 13.0, 176.0, 255.0, 64.0, 28.0, 112.0, 0.0, 0.0, 0.0, 1.677528030445517E9, 0.0, 2023-02-27 15:00:30.445
116.0, 6376.080975065348, 187500.0, 187500.0, 187500.0, -187500.02235174447, -187500.02235174447, -187500.02235174447, -187500.02235174447, 0.438, -0.024, 0.91, 192.0, 0.0, 0.0, 0.0, 0.0, 0.0, 0.0, 0.0, 0.0, 0.0, 1.677528030445536E9, 0.0, 2023-02-27 15:00:30.445
117.0, 6521.702590191673, 187500.0, 187500.0, 187500.0, -187500.02235174447, -187500.02235174447, -187500.02235174447, -187500.02235174447, 0.438, -0.024, 0.91, 192.0, 0.0, 0.0, 0.0, 0.0, 0.0, 0.0, 0.0, 0.0, 0.0, 1.67752803045258E9, 0.0, 2023-02-27 15:00:30.452
118.0, 6629.974440333181, 187500.0, 187500.0, 187500.0, -187500.02235174447, -187500.02235174447, -187500.02235174447, -187500.02235174447, 0.438, -0.024, 0.91, 192.0, 0.0, 0.0, 0.0, 0.0, 0.0, 0.0, 0.0, 0.0, 0.0, 1.677528030452597E9, 0.0, 2023-02-27 15:00:30.452
119.0, 6126.121416821649, 187500.0, 187500.0, 187500.0, -187500.02235174447, -187500.02235174447, -187500.02235174447, -187500.02235174447, 0.438, -0.024, 0.91, 192.0, 0.0, 0.0, 0.0, 0.0, 0.0, 0.0, 0.0, 0.0, 0.0, 1.677528030460004E9, 0.0, 2023-02-27 15:00:30.460
120.0, 6487.012682797037, 187500.0, 187500.0, 187500.0, -187500.02235174447, -187500.02235174447, -187500.02235174447, -187500.02235174447, 0.438, -0.024, 0.91, 192.0, 0.0, 0.0, 0.0, 0.0, 0.0, 0.0, 0.0, 0.0, 0.0, 1.677528030460027E9, 0.0, 2023-02-27 15:00:30.460
121.0, 6571.0999454379025, 187500.0, 187500.0, 187500.0, -187500.02235174447, -187500.02235174447, -187500.02235174447, -187500.02235174447, 0.438, -0.024, 0.91, 192.0, 0.0, 0.0, 0.0, 0.0, 0.0, 0.0, 0.0, 0.0, 0.0, 1.677528030468111E9, 0.0, 2023-02-27 15:00:30.468
122.0, 6278.403851795656, 187500.0, 187500.0, 187500.0, -187500.02235174447, -187500.02235174447, -187500.02235174447, -187500.02235174447, 0.438, -0.024, 0.91, 192.0, 0.0, 0.0, 0.0, 0.0, 0.0, 0.0, 0.0, 0.0, 0.0, 1.677528030468137E9, 0.0, 2023-02-27 15:00:30.468
123.0, 6281.756613463952, 187500.0, 187500.0, 187500.0, -187500.02235174447, -187500.02235174447, -187500.02235174447, -187500.02235174447, 0.438, -0.024, 0.91, 192.0, 0.0, 0.0, 0.0, 0.0, 0.0, 0.0, 0.0, 0.0, 0.0, 1.677528030475048E9, 0.0, 2023-02-27 15:00:30.475
124.0, 6465.063269741925, 187500.0, 187500.0, 187500.0, -187500.02235174447, -187500.02235174447, -187500.02235174447, -187500.02235174447, 0.438, -0.024, 0.91, 192.0, 0.0, 0.0, 0.0, 0.0, 0.0, 0.0, 0.0, 0.0, 0.0, 1.677528030482298E9, 0.0, 2023-02-27 15:00:30.482
125.0, 6423.7125424996075, 187500.0, 187500.0, 187500.0, -187500.02235174447, -187500.02235174447, -187500.02235174447, -187500.02235174447, 0.442, -0.026000000000000002, 0.91, 192.0, 13.0, 208.0, 255.0, 48.0, 28.0, 112.0, 0.0, 0.0, 0.0, 1.677528030482311E9, 0.0, 2023-02-27 15:00:30.482
126.0, 6556.973642942148, 187500.0, 187500.0, 187500.0, -187500.02235174447, -187500.02235174447, -187500.02235174447, -187500.02235174447, 0.442, -0.026000000000000002, 0.91, 192.0, 0.0, 0.0, 0.0, 0.0, 0.0, 0.0, 0.0, 0.0, 0.0, 1.677528030489801E9, 0.0, 2023-02-27 15:00:30.489
127.0, 6530.106846106869, 187500.0, 187500.0, 187500.0, -187500.02235174447, -187500.02235174447, -187500.02235174447, -187500.02235174447, 0.442, -0.026000000000000002, 0.91, 192.0, 0.0, 0.0, 0.0, 0.0, 0.0, 0.0, 0.0, 0.0, 0.0, 1.677528030489822E9, 0.0, 2023-02-27 15:00:30.489
128.0, 6496.109842790347, 187500.0, 187500.0, 187500.0, -187500.02235174447, -187500.02235174447, -187500.02235174447, -187500.02235174447, 0.442, -0.026000000000000002, 0.91, 192.0, 0.0, 0.0, 0.0, 0.0, 0.0, 0.0, 0.0, 0.0, 0.0, 1.677528030497747E9, 0.0, 2023-02-27 15:00:30.497
129.0, 6522.082569847414, 187500.0, 187500.0, 187500.0, -187500.02235174447, -187500.02235174447, -187500.02235174447, -187500.02235174447, 0.442, -0.026000000000000002, 0.91, 192.0, 0.0, 0.0, 0.0, 0.0, 0.0, 0.0, 0.0, 0.0, 0.0, 1.677528030497764E9, 0.0, 2023-02-27 15:00:30.497
130.0, 6771.304520524088, 187500.0, 187500.0, 187500.0, -187500.02235174447, -187500.02235174447, -187500.02235174447, -187500.02235174447, 0.442, -0.026000000000000002, 0.91, 192.0, 0.0, 0.0, 0.0, 0.0, 0.0, 0.0, 0.0, 0.0, 0.0, 1.67752803050494E9, 0.0, 2023-02-27 15:00:30.504
131.0, 6319.82163427134, 187500.0, 187500.0, 187500.0, -187500.02235174447, -187500.02235174447, -187500.02235174447, -187500.02235174447, 0.442, -0.026000000000000002, 0.91, 192.0, 0.0, 0.0, 0.0, 0.0, 0.0, 0.0, 0.0, 0.0, 0.0, 1.677528030504962E9, 0.0, 2023-02-27 15:00:30.504
132.0, 6401.003170133015, 187500.0, 187500.0, 187500.0, -187500.02235174447, -187500.02235174447, -187500.02235174447, -187500.02235174447, 0.442, -0.026000000000000002, 0.91, 192.0, 0.0, 0.0, 0.0, 0.0, 0.0, 0.0, 0.0, 0.0, 0.0, 1.677528030512354E9, 0.0, 2023-02-27 15:00:30.512
133.0, 6709.56900233853, 187500.0, 187500.0, 187500.0, -187500.02235174447, -187500.02235174447, -187500.02235174447, -187500.02235174447, 0.442, -0.026000000000000002, 0.91, 192.0, 0.0, 0.0, 0.0, 0.0, 0.0, 0.0, 0.0, 0.0, 0.0, 1.677528030512376E9, 0.0, 2023-02-27 15:00:30.512
134.0, 6652.08031559948, 187500.0, 187500.0, 187500.0, -187500.02235174447, -187500.02235174447, -187500.02235174447, -187500.02235174447, 0.442, -0.026000000000000002, 0.91, 192.0, 0.0, 0.0, 0.0, 0.0, 0.0, 0.0, 0.0, 0.0, 0.0, 1.677528030520318E9, 0.0, 2023-02-27 15:00:30.520
135.0, 6475.792107080473, 187500.0, 187500.0, 187500.0, -187500.02235174447, -187500.02235174447, -187500.02235174447, -187500.02235174447, 0.444, -0.026000000000000002, 0.912, 192.0, 13.0, 224.0, 255.0, 48.0, 28.0, 128.0, 0.0, 0.0, 0.0, 1.677528030520334E9, 0.0, 2023-02-27 15:00:30.520
136.0, 6346.956652040083, 187500.0, 187500.0, 187500.0, -187500.02235174447, -187500.02235174447, -187500.02235174447, -187500.02235174447, 0.444, -0.026000000000000002, 0.912, 192.0, 0.0, 0.0, 0.0, 0.0, 0.0, 0.0, 0.0, 0.0, 0.0, 1.677528030528436E9, 0.0, 2023-02-27 15:00:30.528
137.0, 6558.515913309564, 187500.0, 187500.0, 187500.0, -187500.02235174447, -187500.02235174447, -187500.02235174447, -187500.02235174447, 0.444, -0.026000000000000002, 0.912, 192.0, 0.0, 0.0, 0.0, 0.0, 0.0, 0.0, 0.0, 0.0, 0.0, 1.677528030528448E9, 0.0, 2023-02-27 15:00:30.528
138.0, 6720.119025721434, 187500.0, 187500.0, 187500.0, -187500.02235174447, -187500.02235174447, -187500.02235174447, -187500.02235174447, 0.444, -0.026000000000000002, 0.912, 192.0, 0.0, 0.0, 0.0, 0.0, 0.0, 0.0, 0.0, 0.0, 0.0, 1.67752803053467E9, 0.0, 2023-02-27 15:00:30.534
139.0, 6659.188170336267, 187500.0, 187500.0, 187500.0, -187500.02235174447, -187500.02235174447, -187500.02235174447, -187500.02235174447, 0.444, -0.026000000000000002, 0.912, 192.0, 0.0, 0.0, 0.0, 0.0, 0.0, 0.0, 0.0, 0.0, 0.0, 1.67752803053469E9, 0.0, 2023-02-27 15:00:30.534
140.0, 6297.9169247051395, 187500.0, 187500.0, 187500.0, -187500.02235174447, -187500.02235174447, -187500.02235174447, -187500.02235174447, 0.444, -0.026000000000000002, 0.912, 192.0, 0.0, 0.0, 0.0, 0.0, 0.0, 0.0, 0.0, 0.0, 0.0, 1.677528030542041E9, 0.0, 2023-02-27 15:00:30.542
141.0, 6424.025466921981, 187500.0, 187500.0, 187500.0, -187500.02235174447, -187500.02235174447, -187500.02235174447, -187500.02235174447, 0.444, -0.026000000000000002, 0.912, 192.0, 0.0, 0.0, 0.0, 0.0, 0.0, 0.0, 0.0, 0.0, 0.0, 1.677528030550083E9, 0.0, 2023-02-27 15:00:30.550
142.0, 6604.761672587594, 187500.0, 187500.0, 187500.0, -187500.02235174447, -187500.02235174447, -187500.02235174447, -187500.02235174447, 0.444, -0.026000000000000002, 0.912, 192.0, 0.0, 0.0, 0.0, 0.0, 0.0, 0.0, 0.0, 0.0, 0.0, 1.677528030550106E9, 0.0, 2023-02-27 15:00:30.550
143.0, 6869.875713571992, 187500.0, 187500.0, 187500.0, -187500.02235174447, -187500.02235174447, -187500.02235174447, -187500.02235174447, 0.444, -0.026000000000000002, 0.912, 192.0, 0.0, 0.0, 0.0, 0.0, 0.0, 0.0, 0.0, 0.0, 0.0, 1.677528030558018E9, 0.0, 2023-02-27 15:00:30.558
144.0, 6644.0113358511135, 187500.0, 187500.0, 187500.0, -187500.02235174447, -187500.02235174447, -187500.02235174447, -187500.02235174447, 0.448, -0.024, 0.908, 192.0, 14.0, 0.0, 255.0, 64.0, 28.0, 96.0, 0.0, 0.0, 0.0, 1.677528030558036E9, 0.0, 2023-02-27 15:00:30.558
145.0, 6497.04861605747, 187500.0, 187500.0, 187500.0, -187500.02235174447, -187500.02235174447, -187500.02235174447, -187500.02235174447, 0.448, -0.024, 0.908, 192.0, 0.0, 0.0, 0.0, 0.0, 0.0, 0.0, 0.0, 0.0, 0.0, 1.677528030564645E9, 0.0, 2023-02-27 15:00:30.564
146.0, 6603.085291753447, 187500.0, 187500.0, 187500.0, -187500.02235174447, -187500.02235174447, -187500.02235174447, -187500.02235174447, 0.448, -0.024, 0.908, 192.0, 0.0, 0.0, 0.0, 0.0, 0.0, 0.0, 0.0, 0.0, 0.0, 1.677528030564657E9, 0.0, 2023-02-27 15:00:30.564
147.0, 6558.180637142735, 187500.0, 187500.0, 187500.0, -187500.02235174447, -187500.02235174447, -187500.02235174447, -187500.02235174447, 0.448, -0.024, 0.908, 192.0, 0.0, 0.0, 0.0, 0.0, 0.0, 0.0, 0.0, 0.0, 0.0, 1.67752803057268E9, 0.0, 2023-02-27 15:00:30.572
148.0, 6657.9811761356805, 187500.0, 187500.0, 187500.0, -187500.02235174447, -187500.02235174447, -187500.02235174447, -187500.02235174447, 0.448, -0.024, 0.908, 192.0, 0.0, 0.0, 0.0, 0.0, 0.0, 0.0, 0.0, 0.0, 0.0, 1.677528030572699E9, 0.0, 2023-02-27 15:00:30.572
149.0, 6619.267954739089, 187500.0, 187500.0, 187500.0, -187500.02235174447, -187500.02235174447, -187500.02235174447, -187500.02235174447, 0.448, -0.024, 0.908, 192.0, 0.0, 0.0, 0.0, 0.0, 0.0, 0.0, 0.0, 0.0, 0.0, 1.677528030580673E9, 0.0, 2023-02-27 15:00:30.580
150.0, 6615.266992481589, 187500.0, 187500.0, 187500.0, -187500.02235174447, -187500.02235174447, -187500.02235174447, -187500.02235174447, 0.448, -0.024, 0.908, 192.0, 0.0, 0.0, 0.0, 0.0, 0.0, 0.0, 0.0, 0.0, 0.0, 1.677528030580684E9, 0.0, 2023-02-27 15:00:30.580
151.0, 6712.027694228613, 187500.0, 187500.0, 187500.0, -187500.02235174447, -187500.02235174447, -187500.02235174447, -187500.02235174447, 0.448, -0.024, 0.908, 192.0, 0.0, 0.0, 0.0, 0.0, 0.0, 0.0, 0.0, 0.0, 0.0, 1.677528030587803E9, 0.0, 2023-02-27 15:00:30.587
152.0, 6535.895947920793, 187500.0, 187500.0, 187500.0, -187500.02235174447, -187500.02235174447, -187500.02235174447, -187500.02235174447, 0.448, -0.024, 0.908, 192.0, 0.0, 0.0, 0.0, 0.0, 0.0, 0.0, 0.0, 0.0, 0.0, 1.677528030587819E9, 0.0, 2023-02-27 15:00:30.587
153.0, 6704.316342391532, 187500.0, 187500.0, 187500.0, -187500.02235174447, -187500.02235174447, -187500.02235174447, -187500.02235174447, 0.448, -0.024, 0.908, 192.0, 0.0, 0.0, 0.0, 0.0, 0.0, 0.0, 0.0, 0.0, 0.0, 1.677528030595219E9, 0.0, 2023-02-27 15:00:30.595
154.0, 6598.2796666955555, 187500.0, 187500.0, 187500.0, -187500.02235174447, -187500.02235174447, -187500.02235174447, -187500.02235174447, 0.442, -0.02, 0.914, 192.0, 13.0, 208.0, 255.0, 96.0, 28.0, 144.0, 0.0, 0.0, 0.0, 1.677528030595241E9, 0.0, 2023-02-27 15:00:30.595
155.0, 6899.827051142103, 187500.0, 187500.0, 187500.0, -187500.02235174447, -187500.02235174447, -187500.02235174447, -187500.02235174447, 0.442, -0.02, 0.914, 192.0, 0.0, 0.0, 0.0, 0.0, 0.0, 0.0, 0.0, 0.0, 0.0, 1.677528030602272E9, 0.0, 2023-02-27 15:00:30.602
156.0, 6824.367561860987, 187500.0, 187500.0, 187500.0, -187500.02235174447, -187500.02235174447, -187500.02235174447, -187500.02235174447, 0.442, -0.02, 0.914, 192.0, 0.0, 0.0, 0.0, 0.0, 0.0, 0.0, 0.0, 0.0, 0.0, 1.67752803061031E9, 0.0, 2023-02-27 15:00:30.610
157.0, 6390.743719428029, 187500.0, 187500.0, 187500.0, -187500.02235174447, -187500.02235174447, -187500.02235174447, -187500.02235174447, 0.442, -0.02, 0.914, 192.0, 0.0, 0.0, 0.0, 0.0, 0.0, 0.0, 0.0, 0.0, 0.0, 1.677528030610332E9, 0.0, 2023-02-27 15:00:30.610
158.0, 6600.11250974089, 187500.0, 187500.0, 187500.0, -187500.02235174447, -187500.02235174447, -187500.02235174447, -187500.02235174447, 0.442, -0.02, 0.914, 192.0, 0.0, 0.0, 0.0, 0.0, 0.0, 0.0, 0.0, 0.0, 0.0, 1.677528030617398E9, 0.0, 2023-02-27 15:00:30.617
159.0, 6792.851602179004, 187500.0, 187500.0, 187500.0, -187500.02235174447, -187500.02235174447, -187500.02235174447, -187500.02235174447, 0.442, -0.02, 0.914, 192.0, 0.0, 0.0, 0.0, 0.0, 0.0, 0.0, 0.0, 0.0, 0.0, 1.677528030617414E9, 0.0, 2023-02-27 15:00:30.617
160.0, 6818.600811791517, 187500.0, 187500.0, 187500.0, -187500.02235174447, -187500.02235174447, -187500.02235174447, -187500.02235174447, 0.442, -0.02, 0.914, 192.0, 0.0, 0.0, 0.0, 0.0, 0.0, 0.0, 0.0, 0.0, 0.0, 1.677528030624871E9, 0.0, 2023-02-27 15:00:30.624
161.0, 6483.749328106562, 187500.0, 187500.0, 187500.0, -187500.02235174447, -187500.02235174447, -187500.02235174447, -187500.02235174447, 0.442, -0.02, 0.914, 192.0, 0.0, 0.0, 0.0, 0.0, 0.0, 0.0, 0.0, 0.0, 0.0, 1.677528030624885E9, 0.0, 2023-02-27 15:00:30.624
162.0, 6493.561743922442, 187500.0, 187500.0, 187500.0, -187500.02235174447, -187500.02235174447, -187500.02235174447, -187500.02235174447, 0.442, -0.02, 0.914, 192.0, 0.0, 0.0, 0.0, 0.0, 0.0, 0.0, 0.0, 0.0, 0.0, 1.677528030632869E9, 0.0, 2023-02-27 15:00:30.632
163.0, 6722.577717611518, 187500.0, 187500.0, 187500.0, -187500.02235174447, -187500.02235174447, -187500.02235174447, -187500.02235174447, 0.442, -0.02, 0.914, 192.0, 0.0, 0.0, 0.0, 0.0, 0.0, 0.0, 0.0, 0.0, 0.0, 1.67752803063289E9, 0.0, 2023-02-27 15:00:30.632
164.0, 6860.935015789869, 187500.0, 187500.0, 187500.0, -187500.02235174447, -187500.02235174447, -187500.02235174447, -187500.02235174447, 0.446, -0.02, 0.918, 192.0, 13.0, 240.0, 255.0, 96.0, 28.0, 176.0, 0.0, 0.0, 0.0, 1.677528030640897E9, 0.0, 2023-02-27 15:00:30.640
165.0, 6677.158972878334, 187500.0, 187500.0, 187500.0, -187500.02235174447, -187500.02235174447, -187500.02235174447, -187500.02235174447, 0.446, -0.02, 0.918, 192.0, 0.0, 0.0, 0.0, 0.0, 0.0, 0.0, 0.0, 0.0, 0.0, 1.677528030640917E9, 0.0, 2023-02-27 15:00:30.640
166.0, 6637.0822950699685, 187500.0, 187500.0, 187500.0, -187500.02235174447, -187500.02235174447, -187500.02235174447, -187500.02235174447, 0.446, -0.02, 0.918, 192.0, 0.0, 0.0, 0.0, 0.0, 0.0, 0.0, 0.0, 0.0, 0.0, 1.677528030647594E9, 0.0, 2023-02-27 15:00:30.647
167.0, 6726.601031613473, 187500.0, 187500.0, 187500.0, -187500.02235174447, -187500.02235174447, -187500.02235174447, -187500.02235174447, 0.446, -0.02, 0.918, 192.0, 0.0, 0.0, 0.0, 0.0, 0.0, 0.0, 0.0, 0.0, 0.0, 1.677528030647609E9, 0.0, 2023-02-27 15:00:30.647
168.0, 6945.715182508849, 187500.0, 187500.0, 187500.0, -187500.02235174447, -187500.02235174447, -187500.02235174447, -187500.02235174447, 0.446, -0.02, 0.918, 192.0, 0.0, 0.0, 0.0, 0.0, 0.0, 0.0, 0.0, 0.0, 0.0, 1.677528030655569E9, 0.0, 2023-02-27 15:00:30.655
169.0, 6884.627864912494, 187500.0, 187500.0, 187500.0, -187500.02235174447, -187500.02235174447, -187500.02235174447, -187500.02235174447, 0.446, -0.02, 0.918, 192.0, 0.0, 0.0, 0.0, 0.0, 0.0, 0.0, 0.0, 0.0, 0.0, 1.677528030655584E9, 0.0, 2023-02-27 15:00:30.655
170.0, 6684.222124126211, 187500.0, 187500.0, 187500.0, -187500.02235174447, -187500.02235174447, -187500.02235174447, -187500.02235174447, 0.446, -0.02, 0.918, 192.0, 0.0, 0.0, 0.0, 0.0, 0.0, 0.0, 0.0, 0.0, 0.0, 1.677528030662576E9, 0.0, 2023-02-27 15:00:30.662
171.0, 7242.166369219586, 187500.0, 187500.0, 187500.0, -187500.02235174447, -187500.02235174447, -187500.02235174447, -187500.02235174447, 0.446, -0.02, 0.918, 192.0, 0.0, 0.0, 0.0, 0.0, 0.0, 0.0, 0.0, 0.0, 0.0, 1.677528030669745E9, 0.0, 2023-02-27 15:00:30.669
172.0, 6790.348206800009, 187500.0, 187500.0, 187500.0, -187500.02235174447, -187500.02235174447, -187500.02235174447, -187500.02235174447, 0.446, -0.02, 0.918, 192.0, 0.0, 0.0, 0.0, 0.0, 0.0, 0.0, 0.0, 0.0, 0.0, 1.677528030669762E9, 0.0, 2023-02-27 15:00:30.669
173.0, 6396.085786352848, 187500.0, 187500.0, 187500.0, -187500.02235174447, -187500.02235174447, -187500.02235174447, -187500.02235174447, 0.446, -0.02, 0.918, 192.0, 0.0, 0.0, 0.0, 0.0, 0.0, 0.0, 0.0, 0.0, 0.0, 1.67752803067719E9, 0.0, 2023-02-27 15:00:30.677
174.0, 6683.149240392357, 187500.0, 187500.0, 187500.0, -187500.02235174447, -187500.02235174447, -187500.02235174447, -187500.02235174447, 0.452, -0.024, 0.92, 192.0, 14.0, 32.0, 255.0, 64.0, 28.0, 192.0, 0.0, 0.0, 0.0, 1.677528030677215E9, 0.0, 2023-02-27 15:00:30.677
175.0, 6864.176018735889, 187500.0, 187500.0, 187500.0, -187500.02235174447, -187500.02235174447, -187500.02235174447, -187500.02235174447, 0.452, -0.024, 0.92, 192.0, 0.0, 0.0, 0.0, 0.0, 0.0, 0.0, 0.0, 0.0, 0.0, 1.677528030685226E9, 0.0, 2023-02-27 15:00:30.685
176.0, 6734.37943868392, 187500.0, 187500.0, 187500.0, -187500.02235174447, -187500.02235174447, -187500.02235174447, -187500.02235174447, 0.452, -0.024, 0.92, 192.0, 0.0, 0.0, 0.0, 0.0, 0.0, 0.0, 0.0, 0.0, 0.0, 1.677528030685248E9, 0.0, 2023-02-27 15:00:30.685
177.0, 6754.697174393795, 187500.0, 187500.0, 187500.0, -187500.02235174447, -187500.02235174447, -187500.02235174447, -187500.02235174447, 0.452, -0.024, 0.92, 192.0, 0.0, 0.0, 0.0, 0.0, 0.0, 0.0, 0.0, 0.0, 0.0, 1.677528030693175E9, 0.0, 2023-02-27 15:00:30.693
178.0, 7001.818061091669, 187500.0, 187500.0, 187500.0, -187500.02235174447, -187500.02235174447, -187500.02235174447, -187500.02235174447, 0.452, -0.024, 0.92, 192.0, 0.0, 0.0, 0.0, 0.0, 0.0, 0.0, 0.0, 0.0, 0.0, 1.677528030693189E9, 0.0, 2023-02-27 15:00:30.693
179.0, 6897.927152863402, 187500.0, 187500.0, 187500.0, -187500.02235174447, -187500.02235174447, -187500.02235174447, -187500.02235174447, 0.452, -0.024, 0.92, 192.0, 0.0, 0.0, 0.0, 0.0, 0.0, 0.0, 0.0, 0.0, 0.0, 1.677528030699747E9, 0.0, 2023-02-27 15:00:30.699
180.0, 6749.511569680163, 187500.0, 187500.0, 187500.0, -187500.02235174447, -187500.02235174447, -187500.02235174447, -187500.02235174447, 0.452, -0.024, 0.92, 192.0, 0.0, 0.0, 0.0, 0.0, 0.0, 0.0, 0.0, 0.0, 0.0, 1.67752803069976E9, 0.0, 2023-02-27 15:00:30.699
181.0, 6746.158808011867, 187500.0, 187500.0, 187500.0, -187500.02235174447, -187500.02235174447, -187500.02235174447, -187500.02235174447, 0.452, -0.024, 0.92, 192.0, 0.0, 0.0, 0.0, 0.0, 0.0, 0.0, 0.0, 0.0, 0.0, 1.677528030707773E9, 0.0, 2023-02-27 15:00:30.707
182.0, 6699.622476055918, 187500.0, 187500.0, 187500.0, -187500.02235174447, -187500.02235174447, -187500.02235174447, -187500.02235174447, 0.452, -0.024, 0.92, 192.0, 0.0, 0.0, 0.0, 0.0, 0.0, 0.0, 0.0, 0.0, 0.0, 1.677528030707785E9, 0.0, 2023-02-27 15:00:30.707
183.0, 6857.2022744658325, 187500.0, 187500.0, 187500.0, -187500.02235174447, -187500.02235174447, -187500.02235174447, -187500.02235174447, 0.452, -0.024, 0.92, 192.0, 0.0, 0.0, 0.0, 0.0, 0.0, 0.0, 0.0, 0.0, 0.0, 1.677528030715917E9, 0.0, 2023-02-27 15:00:30.715
184.0, 7096.075367459699, 187500.0, 187500.0, 187500.0, -187500.02235174447, -187500.02235174447, -187500.02235174447, -187500.02235174447, 0.448, -0.024, 0.914, 192.0, 14.0, 0.0, 255.0, 64.0, 28.0, 144.0, 0.0, 0.0, 0.0, 1.677528030715937E9, 0.0, 2023-02-27 15:00:30.715
185.0, 6916.166176338933, 187500.0, 187500.0, 187500.0, -187500.02235174447, -187500.02235174447, -187500.02235174447, -187500.02235174447, 0.448, -0.024, 0.914, 192.0, 0.0, 0.0, 0.0, 0.0, 0.0, 0.0, 0.0, 0.0, 0.0, 1.67752803072298E9, 0.0, 2023-02-27 15:00:30.722
186.0, 6883.711443389827, 187500.0, 187500.0, 187500.0, -187500.02235174447, -187500.02235174447, -187500.02235174447, -187500.02235174447, 0.448, -0.024, 0.914, 192.0, 0.0, 0.0, 0.0, 0.0, 0.0, 0.0, 0.0, 0.0, 0.0, 1.677528030729468E9, 0.0, 2023-02-27 15:00:30.729
