%OpenBCI Raw EEG Data
%Number of channels = 8
%Sample Rate = 250 Hz
%Board = OpenBCI_GUI$BoardCytonSerial
Sample Index, EXG Channel 0, EXG Channel 1, EXG Channel 2, EXG Channel 3, EXG Channel 4, EXG Channel 5, EXG Channel 6, EXG Channel 7, Accel Channel 0, Accel Channel 1, Accel Channel 2, Other, Other, Other, Other, Other, Other, Other, Analog Channel 0, Analog Channel 1, Analog Channel 2, Timestamp, Other, Timestamp (Formatted)
131.0, 8397.796261047872, 187500.0, 187500.0, 187500.0, -187500.02235174447, -187500.02235174447, -187500.02235174447, -187500.02235174447, 0.0, 0.0, 0.0, 192.0, 0.0, 0.0, 0.0, 0.0, 0.0, 0.0, 0.0, 0.0, 0.0, 1.67752775874079E9, 0.0, 2023-02-27 14:55:58.740
132.0, 8275.934550277538, 187500.0, 187500.0, 187500.0, -187500.02235174447, -187500.02235174447, -187500.02235174447, -187500.02235174447, 0.0, 0.0, 0.0, 192.0, 0.0, 0.0, 0.0, 0.0, 0.0, 0.0, 0.0, 0.0, 0.0, 1.677527758740807E9, 0.0, 2023-02-27 14:55:58.740
133.0, 8242.853968483683, 187500.0, 187500.0, 187500.0, -187500.02235174447, -187500.02235174447, -187500.02235174447, -187500.02235174447, 0.0, 0.0, 0.0, 192.0, 0.0, 0.0, 0.0, 0.0, 0.0, 0.0, 0.0, 0.0, 0.0, 1.677527758740817E9, 0.0, 2023-02-27 14:55:58.740
134.0, 8327.343562524744, 187500.0, 187500.0, 187500.0, -187500.02235174447, -187500.02235174447, -187500.02235174447, -187500.02235174447, 0.0, 0.0, 0.0, 192.0, 0.0, 0.0, 0.0, 0.0, 0.0, 0.0, 0.0, 0.0, 0.0, 1.677527758740826E9, 0.0, 2023-02-27 14:55:58.740
135.0, 8370.862408979227, 187500.0, 187500.0, 187500.0, -187500.02235174447, -187500.02235174447, -187500.02235174447, -187500.02235174447, 0.0, 0.0, 0.0, 192.0, 0.0, 0.0, 0.0, 0.0, 0.0, 0.0, 0.0, 0.0, 0.0, 1.677527758740835E9, 0.0, 2023-02-27 14:55:58.740
0.0, 0.0, 0.0, 0.0, 0.0, 0.0, 0.0, 0.0, 0.0, 0.0, 0.0, 0.0, 192.0, 0.0, 0.0, 0.0, 0.0, 0.0, 0.0, 0.0, 0.0, 0.0, 1.67752775885373E9, 0.0, 2023-02-27 14:55:58.853
1.0, 7666.156609792306, 187500.0, 187500.0, 187500.0, -187500.02235174447, -187500.02235174447, -187500.02235174447, -187500.02235174447, 0.448, -0.03, 0.912, 192.0, 14.0, 0.0, 255.0, 16.0, 28.0, 128.0, 0.0, 0.0, 0.0, 1.677527758853756E9, 0.0, 2023-02-27 14:55:58.853
2.0, 7181.3919760456065, 187500.0, 187500.0, 187500.0, -187500.02235174447, -187500.02235174447, -187500.02235174447, -187500.02235174447, 0.448, -0.03, 0.912, 192.0, 0.0, 0.0, 0.0, 0.0, 0.0, 0.0, 0.0, 0.0, 0.0, 1.677527758861128E9, 0.0, 2023-02-27 14:55:58.861
3.0, 6926.269164832732, 187500.0, 187500.0, 187500.0, -187500.02235174447, -187500.02235174447, -187500.02235174447, -187500.02235174447, 0.448, -0.03, 0.912, 192.0, 0.0, 0.0, 0.0, 0.0, 0.0, 0.0, 0.0, 0.0, 0.0, 1.677527758867093E9, 0.0, 2023-02-27 14:55:58.867
4.0, 6481.357691449844, 187500.0, 187500.0, 187500.0, -187500.02235174447, -187500.02235174447, -187500.02235174447, -187500.02235174447, 0.448, -0.03, 0.912, 192.0, 0.0, 0.0, 0.0, 0.0, 0.0, 0.0, 0.0, 0.0, 0.0, 1.677527758867119E9, 0.0, 2023-02-27 14:55:58.867
5.0, 7119.321181693218, 187500.0, 187500.0, 187500.0, -187500.02235174447, -187500.02235174447, -187500.02235174447, -187500.02235174447, 0.448, -0.03, 0.912, 192.0, 0.0, 0.0, 0.0, 0.0, 0.0, 0.0, 0.0, 0.0, 0.0, 1.677527758873189E9, 0.0, 2023-02-27 14:55:58.873
6.0, 7654.377240464359, 187500.0, 187500.0, 187500.0, -187500.02235174447, -187500.02235174447, -187500.02235174447, -187500.02235174447, 0.448, -0.03, 0.912, 192.0, 0.0, 0.0, 0.0, 0.0, 0.0, 0.0, 0.0, 0.0, 0.0, 1.677527758873211E9, 0.0, 2023-02-27 14:55:58.873
7.0, 7657.819409110476, 187500.0, 187500.0, 187500.0, -187500.02235174447, -187500.02235174447, -187500.02235174447, -187500.02235174447, 0.448, -0.03, 0.912, 192.0, 0.0, 0.0, 0.0, 0.0, 0.0, 0.0, 0.0, 0.0, 0.0, 1.677527758879411E9, 0.0, 2023-02-27 14:55:58.879
8.0, 6248.832493881285, 187500.0, 187500.0, 187500.0, -187500.02235174447, -187500.02235174447, -187500.02235174447, -187500.02235174447, 0.444, -0.028, 0.912, 192.0, 13.0, 224.0, 255.0, 32.0, 28.0, 128.0, 0.0, 0.0, 0.0, 1.677527758879425E9, 0.0, 2023-02-27 14:55:58.879
9.0, 7179.737946955914, 187500.0, 187500.0, 187500.0, -187500.02235174447, -187500.02235174447, -187500.02235174447, -187500.02235174447, 0.444, -0.028, 0.912, 192.0, 0.0, 0.0, 0.0, 0.0, 0.0, 0.0, 0.0, 0.0, 0.0, 1.677527758886805E9, 0.0, 2023-02-27 14:55:58.886
10.0, 6619.290306483545, 187500.0, 187500.0, 187500.0, -187500.02235174447, -187500.02235174447, -187500.02235174447, -187500.02235174447, 0.444, -0.028, 0.912, 192.0, 0.0, 0.0, 0.0, 0.0, 0.0, 0.0, 0.0, 0.0, 0.0, 1.677527758886822E9, 0.0, 2023-02-27 14:55:58.886
11.0, 6669.514676274619, 187500.0, 187500.0, 187500.0, -187500.02235174447, -187500.02235174447, -187500.02235174447, -187500.02235174447, 0.444, -0.028, 0.912, 192.0, 0.0, 0.0, 0.0, 0.0, 0.0, 0.0, 0.0, 0.0, 0.0, 1.677527758894718E9, 0.0, 2023-02-27 14:55:58.894
12.0, 7683.635673956356, 187500.0, 187500.0, 187500.0, -187500.02235174447, -187500.02235174447, -187500.02235174447, -187500.02235174447, 0.444, -0.028, 0.912, 192.0, 0.0, 0.0, 0.0, 0.0, 0.0, 0.0, 0.0, 0.0, 0.0, 1.677527758894732E9, 0.0, 2023-02-27 14:55:58.894
13.0, 7603.012931706064, 187500.0, 187500.0, 187500.0, -187500.02235174447, -187500.02235174447, -187500.02235174447, -187500.02235174447, 0.444, -0.028, 0.912, 192.0, 0.0, 0.0, 0.0, 0.0, 0.0, 0.0, 0.0, 0.0, 0.0, 1.677527758901844E9, 0.0, 2023-02-27 14:55:58.901
14.0, 6847.859245283515, 187500.0, 187500.0, 187500.0, -187500.02235174447, -187500.02235174447, -187500.02235174447, -187500.02235174447, 0.444, -0.028, 0.912, 192.0, 0.0, 0.0, 0.0, 0.0, 0.0, 0.0, 0.0, 0.0, 0.0, 1.67752775890186E9, 0.0, 2023-02-27 14:55:58.901
15.0, 6516.382875011311, 187500.0, 187500.0, 187500.0, -187500.02235174447, -187500.02235174447, -187500.02235174447, -187500.02235174447, 0.444, -0.028, 0.912, 192.0, 0.0, 0.0, 0.0, 0.0, 0.0, 0.0, 0.0, 0.0, 0.0, 1.677527758909504E9, 0.0, 2023-02-27 14:55:58.909
16.0, 6756.105334294479, 187500.0, 187500.0, 187500.0, -187500.02235174447, -187500.02235174447, -187500.02235174447, -187500.02235174447, 0.444, -0.028, 0.912, 192.0, 0.0, 0.0, 0.0, 0.0, 0.0, 0.0, 0.0, 0.0, 0.0, 1.677527758909526E9, 0.0, 2023-02-27 14:55:58.909
17.0, 6771.393927501908, 187500.0, 187500.0, 187500.0, -187500.02235174447, -187500.02235174447, -187500.02235174447, -187500.02235174447, 0.442, -0.03, 0.91, 192.0, 13.0, 208.0, 255.0, 16.0, 28.0, 112.0, 0.0, 0.0, 0.0, 1.677527758916438E9, 0.0, 2023-02-27 14:55:58.916
18.0, 6723.04710424508, 187500.0, 187500.0, 187500.0, -187500.02235174447, -187500.02235174447, -187500.02235174447, -187500.02235174447, 0.442, -0.03, 0.91, 192.0, 0.0, 0.0, 0.0, 0.0, 0.0, 0.0, 0.0, 0.0, 0.0, 1.677527758925789E9, 0.0, 2023-02-27 14:55:58.925
19.0, 7041.470055755384, 187500.0, 187500.0, 187500.0, -187500.02235174447, -187500.02235174447, -187500.02235174447, -187500.02235174447, 0.442, -0.03, 0.91, 192.0, 0.0, 0.0, 0.0, 0.0, 0.0, 0.0, 0.0, 0.0, 0.0, 1.677527758925805E9, 0.0, 2023-02-27 14:55:58.925
20.0, 8492.791174982927, 187500.0, 187500.0, 187500.0, -187500.02235174447, -187500.02235174447, -187500.02235174447, -187500.02235174447, 0.442, -0.03, 0.91, 192.0, 0.0, 0.0, 0.0, 0.0, 0.0, 0.0, 0.0, 0.0, 0.0, 1.677527758931442E9, 0.0, 2023-02-27 14:55:58.931
21.0, 7566.423126032726, 187500.0, 187500.0, 187500.0, -187500.02235174447, -187500.02235174447, -187500.02235174447, -187500.02235174447, 0.442, -0.03, 0.91, 192.0, 0.0, 0.0, 0.0, 0.0, 0.0, 0.0, 0.0, 0.0, 0.0, 1.677527758931458E9, 0.0, 2023-02-27 14:55:58.931
22.0, 7295.363521023217, 187500.0, 187500.0, 187500.0, -187500.02235174447, -187500.02235174447, -187500.02235174447, -187500.02235174447, 0.442, -0.03, 0.91, 192.0, 0.0, 0.0, 0.0, 0.0, 0.0, 0.0, 0.0, 0.0, 0.0, 1.677527758939015E9, 0.0, 2023-02-27 14:55:58.939
23.0, 6333.277384433435, 187500.0, 187500.0, 187500.0, -187500.02235174447, -187500.02235174447, -187500.02235174447, -187500.02235174447, 0.442, -0.03, 0.91, 192.0, 0.0, 0.0, 0.0, 0.0, 0.0, 0.0, 0.0, 0.0, 0.0, 1.677527758939031E9, 0.0, 2023-02-27 14:55:58.939
24.0, 6322.168567439147, 187500.0, 187500.0, 187500.0, -187500.02235174447, -187500.02235174447, -187500.02235174447, -187500.02235174447, 0.442, -0.03, 0.91, 192.0, 0.0, 0.0, 0.0, 0.0, 0.0, 0.0, 0.0, 0.0, 0.0, 1.677527758947004E9, 0.0, 2023-02-27 14:55:58.947
25.0, 6377.533838454943, 187500.0, 187500.0, 187500.0, -187500.02235174447, -187500.02235174447, -187500.02235174447, -187500.02235174447, 0.442, -0.03, 0.91, 192.0, 0.0, 0.0, 0.0, 0.0, 0.0, 0.0, 0.0, 0.0, 0.0, 1.67752775894703E9, 0.0, 2023-02-27 14:55:58.947
26.0, 6814.286925111643, 187500.0, 187500.0, 187500.0, -187500.02235174447, -187500.02235174447, -187500.02235174447, -187500.02235174447, 0.442, -0.03, 0.91, 192.0, 0.0, 0.0, 0.0, 0.0, 0.0, 0.0, 0.0, 0.0, 0.0, 1.677527758954978E9, 0.0, 2023-02-27 14:55:58.954
27.0, 7281.34897724974, 187500.0, 187500.0, 187500.0, -187500.02235174447, -187500.02235174447, -187500.02235174447, -187500.02235174447, 0.444, -0.024, 0.916, 192.0, 13.0, 224.0, 255.0, 64.0, 28.0, 160.0, 0.0, 0.0, 0.0, 1.677527758954997E9, 0.0, 2023-02-27 14:55:58.954
28.0, 8021.772864076241, 187500.0, 187500.0, 187500.0, -187500.02235174447, -187500.02235174447, -187500.02235174447, -187500.02235174447, 0.444, -0.024, 0.916, 192.0, 0.0, 0.0, 0.0, 0.0, 0.0, 0.0, 0.0, 0.0, 0.0, 1.677527758961949E9, 0.0, 2023-02-27 14:55:58.961
29.0, 8911.349941653007, 187500.0, 187500.0, 187500.0, -187500.02235174447, -187500.02235174447, -187500.02235174447, -187500.02235174447, 0.444, -0.024, 0.916, 192.0, 0.0, 0.0, 0.0, 0.0, 0.0, 0.0, 0.0, 0.0, 0.0, 1.677527758961967E9, 0.0, 2023-02-27 14:55:58.961
30.0, 6294.273590358925, 187500.0, 187500.0, 187500.0, -187500.02235174447, -187500.02235174447, -187500.02235174447, -187500.02235174447, 0.444, -0.024, 0.916, 192.0, 0.0, 0.0, 0.0, 0.0, 0.0, 0.0, 0.0, 0.0, 0.0, 1.677527758969866E9, 0.0, 2023-02-27 14:55:58.969
31.0, 5950.816685058676, 187500.0, 187500.0, 187500.0, -187500.02235174447, -187500.02235174447, -187500.02235174447, -187500.02235174447, 0.444, -0.024, 0.916, 192.0, 0.0, 0.0, 0.0, 0.0, 0.0, 0.0, 0.0, 0.0, 0.0, 1.677527758969887E9, 0.0, 2023-02-27 14:55:58.969
32.0, 6395.1246613412695, 187500.0, 187500.0, 187500.0, -187500.02235174447, -187500.02235174447, -187500.02235174447, -187500.02235174447, 0.444, -0.024, 0.916, 192.0, 0.0, 0.0, 0.0, 0.0, 0.0, 0.0, 0.0, 0.0, 0.0, 1.677527758976697E9, 0.0, 2023-02-27 14:55:58.976
33.0, 6941.110723151055, 187500.0, 187500.0, 187500.0, -187500.02235174447, -187500.02235174447, -187500.02235174447, -187500.02235174447, 0.444, -0.024, 0.916, 192.0, 0.0, 0.0, 0.0, 0.0, 0.0, 0.0, 0.0, 0.0, 0.0, 1.677527758984778E9, 0.0, 2023-02-27 14:55:58.984
34.0, 8183.152459043558, 187500.0, 187500.0, 187500.0, -187500.02235174447, -187500.02235174447, -187500.02235174447, -187500.02235174447, 0.444, -0.024, 0.916, 192.0, 0.0, 0.0, 0.0, 0.0, 0.0, 0.0, 0.0, 0.0, 0.0, 1.677527758984794E9, 0.0, 2023-02-27 14:55:58.984
35.0, 8219.742264716895, 187500.0, 187500.0, 187500.0, -187500.02235174447, -187500.02235174447, -187500.02235174447, -187500.02235174447, 0.444, -0.024, 0.916, 192.0, 0.0, 0.0, 0.0, 0.0, 0.0, 0.0, 0.0, 0.0, 0.0, 1.677527758991405E9, 0.0, 2023-02-27 14:55:58.991
36.0, 5444.639080123792, 187500.0, 187500.0, 187500.0, -187500.02235174447, -187500.02235174447, -187500.02235174447, -187500.02235174447, 0.444, -0.024, 0.916, 192.0, 0.0, 0.0, 0.0, 0.0, 0.0, 0.0, 0.0, 0.0, 0.0, 1.677527758991428E9, 0.0, 2023-02-27 14:55:58.991
37.0, 6098.226439741426, 187500.0, 187500.0, 187500.0, -187500.02235174447, -187500.02235174447, -187500.02235174447, -187500.02235174447, 0.444, -0.03, 0.914, 192.0, 13.0, 224.0, 255.0, 16.0, 28.0, 144.0, 0.0, 0.0, 0.0, 1.677527758999363E9, 0.0, 2023-02-27 14:55:58.999
38.0, 7099.383425639085, 187500.0, 187500.0, 187500.0, -187500.02235174447, -187500.02235174447, -187500.02235174447, -187500.02235174447, 0.444, -0.03, 0.914, 192.0, 0.0, 0.0, 0.0, 0.0, 0.0, 0.0, 0.0, 0.0, 0.0, 1.677527758999386E9, 0.0, 2023-02-27 14:55:58.999
39.0, 6790.527020755651, 187500.0, 187500.0, 187500.0, -187500.02235174447, -187500.02235174447, -187500.02235174447, -187500.02235174447, 0.444, -0.03, 0.914, 192.0, 0.0, 0.0, 0.0, 0.0, 0.0, 0.0, 0.0, 0.0, 0.0, 1.677527759007168E9, 0.0, 2023-02-27 14:55:59.007
40.0, 6924.659839231949, 187500.0, 187500.0, 187500.0, -187500.02235174447, -187500.02235174447, -187500.02235174447, -187500.02235174447, 0.444, -0.03, 0.914, 192.0, 0.0, 0.0, 0.0, 0.0, 0.0, 0.0, 0.0, 0.0, 0.0, 1.677527759007183E9, 0.0, 2023-02-27 14:55:59.007
41.0, 8051.411277223979, 187500.0, 187500.0, 187500.0, -187500.02235174447, -187500.02235174447, -187500.02235174447, -187500.02235174447, 0.444, -0.03, 0.914, 192.0, 0.0, 0.0, 0.0, 0.0, 0.0, 0.0, 0.0, 0.0, 0.0, 1.677527759013839E9, 0.0, 2023-02-27 14:55:59.013
42.0, 8387.80503127635, 187500.0, 187500.0, 187500.0, -187500.02235174447, -187500.02235174447, -187500.02235174447, -187500.02235174447, 0.444, -0.03, 0.914, 192.0, 0.0, 0.0, 0.0, 0.0, 0.0, 0.0, 0.0, 0.0, 0.0, 1.677527759013859E9, 0.0, 2023-02-27 14:55:59.013
43.0, 5543.2326249161515, 187500.0, 187500.0, 187500.0, -187500.02235174447, -187500.02235174447, -187500.02235174447, -187500.02235174447, 0.444, -0.03, 0.914, 192.0, 0.0, 0.0, 0.0, 0.0, 0.0, 0.0, 0.0, 0.0, 0.0, 1.677527759022015E9, 0.0, 2023-02-27 14:55:59.022
44.0, 6425.70184775613, 187500.0, 187500.0, 187500.0, -187500.02235174447, -187500.02235174447, -187500.02235174447, -187500.02235174447, 0.444, -0.03, 0.914, 192.0, 0.0, 0.0, 0.0, 0.0, 0.0, 0.0, 0.0, 0.0, 0.0, 1.677527759022035E9, 0.0, 2023-02-27 14:55:59.022
45.0, 8340.441684775555, 187500.0, 187500.0, 187500.0, -187500.02235174447, -187500.02235174447, -187500.02235174447, -187500.02235174447, 0.444, -0.03, 0.914, 192.0, 0.0, 0.0, 0.0, 0.0, 0.0, 0.0, 0.0, 0.0, 0.0, 1.677527759029755E9, 0.0, 2023-02-27 14:55:59.029
46.0, 6685.764394493627, 187500.0, 187500.0, 187500.0, -187500.02235174447, -187500.02235174447, -187500.02235174447, -187500.02235174447, 0.444, -0.03, 0.914, 192.0, 0.0, 0.0, 0.0, 0.0, 0.0, 0.0, 0.0, 0.0, 0.0, 1.677527759029771E9, 0.0, 2023-02-27 14:55:59.029
47.0, 7569.239445834094, 187500.0, 187500.0, 187500.0, -187500.02235174447, -187500.02235174447, -187500.02235174447, -187500.02235174447, 0.444, -0.02, 0.914, 192.0, 13.0, 224.0, 255.0, 96.0, 28.0, 144.0, 0.0, 0.0, 0.0, 1.677527759037133E9, 0.0, 2023-02-27 14:55:59.037
48.0, 8732.178358099265, 187500.0, 187500.0, 187500.0, -187500.02235174447, -187500.02235174447, -187500.02235174447, -187500.02235174447, 0.444, -0.02, 0.914, 192.0, 0.0, 0.0, 0.0, 0.0, 0.0, 0.0, 0.0, 0.0, 0.0, 1.677527759043525E9, 0.0, 2023-02-27 14:55:59.043
49.0, 5447.254234225063, 187500.0, 187500.0, 187500.0, -187500.02235174447, -187500.02235174447, -187500.02235174447, -187500.02235174447, 0.444, -0.02, 0.914, 192.0, 0.0, 0.0, 0.0, 0.0, 0.0, 0.0, 0.0, 0.0, 0.0, 1.677527759043548E9, 0.0, 2023-02-27 14:55:59.043
50.0, 6307.908154476661, 187500.0, 187500.0, 187500.0, -187500.02235174447, -187500.02235174447, -187500.02235174447, -187500.02235174447, 0.444, -0.02, 0.914, 192.0, 0.0, 0.0, 0.0, 0.0, 0.0, 0.0, 0.0, 0.0, 0.0, 1.67752775905159E9, 0.0, 2023-02-27 14:55:59.051
51.0, 7061.16194262051, 187500.0, 187500.0, 187500.0, -187500.02235174447, -187500.02235174447, -187500.02235174447, -187500.02235174447, 0.444, -0.02, 0.914, 192.0, 0.0, 0.0, 0.0, 0.0, 0.0, 0.0, 0.0, 0.0, 0.0, 1.677527759051619E9, 0.0, 2023-02-27 14:55:59.051
52.0, 7967.1899041163815, 187500.0, 187500.0, 187500.0, -187500.02235174447, -187500.02235174447, -187500.02235174447, -187500.02235174447, 0.444, -0.02, 0.914, 192.0, 0.0, 0.0, 0.0, 0.0, 0.0, 0.0, 0.0, 0.0, 0.0, 1.67752775905963E9, 0.0, 2023-02-27 14:55:59.059
53.0, 9569.98879551754, 187500.0, 187500.0, 187500.0, -187500.02235174447, -187500.02235174447, -187500.02235174447, -187500.02235174447, 0.444, -0.02, 0.914, 192.0, 0.0, 0.0, 0.0, 0.0, 0.0, 0.0, 0.0, 0.0, 0.0, 1.677527759059649E9, 0.0, 2023-02-27 14:55:59.059
54.0, 5253.196388864087, 187500.0, 187500.0, 187500.0, -187500.02235174447, -187500.02235174447, -187500.02235174447, -187500.02235174447, 0.444, -0.02, 0.914, 192.0, 0.0, 0.0, 0.0, 0.0, 0.0, 0.0, 0.0, 0.0, 0.0, 1.677527759066795E9, 0.0, 2023-02-27 14:55:59.066
55.0, 5861.119134559529, 187500.0, 187500.0, 187500.0, -187500.02235174447, -187500.02235174447, -187500.02235174447, -187500.02235174447, 0.444, -0.02, 0.914, 192.0, 0.0, 0.0, 0.0, 0.0, 0.0, 0.0, 0.0, 0.0, 0.0, 1.677527759066813E9, 0.0, 2023-02-27 14:55:59.066
56.0, 8037.732009617331, 187500.0, 187500.0, 187500.0, -187500.02235174447, -187500.02235174447, -187500.02235174447, -187500.02235174447, 0.444, -0.02, 0.914, 192.0, 0.0, 0.0, 0.0, 0.0, 0.0, 0.0, 0.0, 0.0, 0.0, 1.677527759074386E9, 0.0, 2023-02-27 14:55:59.074
57.0, 8610.69662698467, 187500.0, 187500.0, 187500.0, -187500.02235174447, -187500.02235174447, -187500.02235174447, -187500.02235174447, 0.446, -0.026000000000000002, 0.922, 192.0, 13.0, 240.0, 255.0, 48.0, 28.0, 208.0, 0.0, 0.0, 0.0, 1.677527759074403E9, 0.0, 2023-02-27 14:55:59.074
58.0, 6445.416086365711, 187500.0, 187500.0, 187500.0, -187500.02235174447, -187500.02235174447, -187500.02235174447, -187500.02235174447, 0.446, -0.026000000000000002, 0.922, 192.0, 0.0, 0.0, 0.0, 0.0, 0.0, 0.0, 0.0, 0.0, 0.0, 1.677527759082171E9, 0.0, 2023-02-27 14:55:59.082
59.0, 5705.260420472672, 187500.0, 187500.0, 187500.0, -187500.02235174447, -187500.02235174447, -187500.02235174447, -187500.02235174447, 0.446, -0.026000000000000002, 0.922, 192.0, 0.0, 0.0, 0.0, 0.0, 0.0, 0.0, 0.0, 0.0, 0.0, 1.677527759082194E9, 0.0, 2023-02-27 14:55:59.082
60.0, 6838.270346912187, 187500.0, 187500.0, 187500.0, -187500.02235174447, -187500.02235174447, -187500.02235174447, -187500.02235174447, 0.446, -0.026000000000000002, 0.922, 192.0, 0.0, 0.0, 0.0, 0.0, 0.0, 0.0, 0.0, 0.0, 0.0, 1.67752775909025E9, 0.0, 2023-02-27 14:55:59.090
61.0, 6523.24486055909, 187500.0, 187500.0, 187500.0, -187500.02235174447, -187500.02235174447, -187500.02235174447, -187500.02235174447, 0.446, -0.026000000000000002, 0.922, 192.0, 0.0, 0.0, 0.0, 0.0, 0.0, 0.0, 0.0, 0.0, 0.0, 1.677527759090275E9, 0.0, 2023-02-27 14:55:59.090
62.0, 7734.798817014554, 187500.0, 187500.0, 187500.0, -187500.02235174447, -187500.02235174447, -187500.02235174447, -187500.02235174447, 0.446, -0.026000000000000002, 0.922, 192.0, 0.0, 0.0, 0.0, 0.0, 0.0, 0.0, 0.0, 0.0, 0.0, 1.677527759096513E9, 0.0, 2023-02-27 14:55:59.096
63.0, 8489.147840636711, 187500.0, 187500.0, 187500.0, -187500.02235174447, -187500.02235174447, -187500.02235174447, -187500.02235174447, 0.446, -0.026000000000000002, 0.922, 192.0, 0.0, 0.0, 0.0, 0.0, 0.0, 0.0, 0.0, 0.0, 0.0, 1.677527759096532E9, 0.0, 2023-02-27 14:55:59.096
64.0, 7901.967513795796, 187500.0, 187500.0, 187500.0, -187500.02235174447, -187500.02235174447, -187500.02235174447, -187500.02235174447, 0.446, -0.026000000000000002, 0.922, 192.0, 0.0, 0.0, 0.0, 0.0, 0.0, 0.0, 0.0, 0.0, 0.0, 1.677527759103874E9, 0.0, 2023-02-27 14:55:59.103
65.0, 5898.468899544347, 187500.0, 187500.0, 187500.0, -187500.02235174447, -187500.02235174447, -187500.02235174447, -187500.02235174447, 0.446, -0.026000000000000002, 0.922, 192.0, 0.0, 0.0, 0.0, 0.0, 0.0, 0.0, 0.0, 0.0, 0.0, 1.677527759111881E9, 0.0, 2023-02-27 14:55:59.111
66.0, 6205.045426493339, 187500.0, 187500.0, 187500.0, -187500.02235174447, -187500.02235174447, -187500.02235174447, -187500.02235174447, 0.446, -0.026000000000000002, 0.922, 192.0, 0.0, 0.0, 0.0, 0.0, 0.0, 0.0, 0.0, 0.0, 0.0, 1.677527759111894E9, 0.0, 2023-02-27 14:55:59.111
67.0, 7863.768382521675, 187500.0, 187500.0, 187500.0, -187500.02235174447, -187500.02235174447, -187500.02235174447, -187500.02235174447, 0.444, -0.024, 0.92, 192.0, 13.0, 224.0, 255.0, 64.0, 28.0, 192.0, 0.0, 0.0, 0.0, 1.677527759120014E9, 0.0, 2023-02-27 14:55:59.120
68.0, 7948.95088064085, 187500.0, 187500.0, 187500.0, -187500.02235174447, -187500.02235174447, -187500.02235174447, -187500.02235174447, 0.444, -0.024, 0.92, 192.0, 0.0, 0.0, 0.0, 0.0, 0.0, 0.0, 0.0, 0.0, 0.0, 1.677527759120039E9, 0.0, 2023-02-27 14:55:59.120
69.0, 6000.99635136084, 187500.0, 187500.0, 187500.0, -187500.02235174447, -187500.02235174447, -187500.02235174447, -187500.02235174447, 0.444, -0.024, 0.92, 192.0, 0.0, 0.0, 0.0, 0.0, 0.0, 0.0, 0.0, 0.0, 0.0, 1.67752775912657E9, 0.0, 2023-02-27 14:55:59.126
70.0, 6861.069126256601, 187500.0, 187500.0, 187500.0, -187500.02235174447, -187500.02235174447, -187500.02235174447, -187500.02235174447, 0.444, -0.024, 0.92, 192.0, 0.0, 0.0, 0.0, 0.0, 0.0, 0.0, 0.0, 0.0, 0.0, 1.677527759126592E9, 0.0, 2023-02-27 14:55:59.126
71.0, 7272.67650040108, 187500.0, 187500.0, 187500.0, -187500.02235174447, -187500.02235174447, -187500.02235174447, -187500.02235174447, 0.444, -0.024, 0.92, 192.0, 0.0, 0.0, 0.0, 0.0, 0.0, 0.0, 0.0, 0.0, 0.0, 1.677527759135714E9, 0.0, 2023-02-27 14:55:59.135
72.0, 6897.770690652214, 187500.0, 187500.0, 187500.0, -187500.02235174447, -187500.02235174447, -187500.02235174447, -187500.02235174447, 0.444, -0.024, 0.92, 192.0, 0.0, 0.0, 0.0, 0.0, 0.0, 0.0, 0.0, 0.0, 0.0, 1.677527759135734E9, 0.0, 2023-02-27 14:55:59.135
73.0, 7405.199993276596, 187500.0, 187500.0, 187500.0, -187500.02235174447, -187500.02235174447, -187500.02235174447, -187500.02235174447, 0.444, -0.024, 0.92, 192.0, 0.0, 0.0, 0.0, 0.0, 0.0, 0.0, 0.0, 0.0, 0.0, 1.677527759142638E9, 0.0, 2023-02-27 14:55:59.142
74.0, 8970.470305737294, 187500.0, 187500.0, 187500.0, -187500.02235174447, -187500.02235174447, -187500.02235174447, -187500.02235174447, 0.444, -0.024, 0.92, 192.0, 0.0, 0.0, 0.0, 0.0, 0.0, 0.0, 0.0, 0.0, 0.0, 1.677527759142651E9, 0.0, 2023-02-27 14:55:59.142
75.0, 6347.090762506815, 187500.0, 187500.0, 187500.0, -187500.02235174447, -187500.02235174447, -187500.02235174447, -187500.02235174447, 0.444, -0.024, 0.92, 192.0, 0.0, 0.0, 0.0, 0.0, 0.0, 0.0, 0.0, 0.0, 0.0, 1.677527759149644E9, 0.0, 2023-02-27 14:55:59.149
76.0, 5596.541535442059, 187500.0, 187500.0, 187500.0, -187500.02235174447, -187500.02235174447, -187500.02235174447, -187500.02235174447, 0.442, -0.022, 0.924, 192.0, 13.0, 208.0, 255.0, 80.0, 28.0, 224.0, 0.0, 0.0, 0.0, 1.677527759149655E9, 0.0, 2023-02-27 14:55:59.149
77.0, 6571.703442538195, 187500.0, 187500.0, 187500.0, -187500.02235174447, -187500.02235174447, -187500.02235174447, -187500.02235174447, 0.442, -0.022, 0.924, 192.0, 0.0, 0.0, 0.0, 0.0, 0.0, 0.0, 0.0, 0.0, 0.0, 1.677527759157143E9, 0.0, 2023-02-27 14:55:59.157
78.0, 7655.003089309108, 187500.0, 187500.0, 187500.0, -187500.02235174447, -187500.02235174447, -187500.02235174447, -187500.02235174447, 0.442, -0.022, 0.924, 192.0, 0.0, 0.0, 0.0, 0.0, 0.0, 0.0, 0.0, 0.0, 0.0, 1.677527759157222E9, 0.0, 2023-02-27 14:55:59.157
79.0, 8115.046693688238, 187500.0, 187500.0, 187500.0, -187500.02235174447, -187500.02235174447, -187500.02235174447, -187500.02235174447, 0.442, -0.022, 0.924, 192.0, 0.0, 0.0, 0.0, 0.0, 0.0, 0.0, 0.0, 0.0, 0.0, 1.67752775916423E9, 0.0, 2023-02-27 14:55:59.164
80.0, 7989.943979971884, 187500.0, 187500.0, 187500.0, -187500.02235174447, -187500.02235174447, -187500.02235174447, -187500.02235174447, 0.442, -0.022, 0.924, 192.0, 0.0, 0.0, 0.0, 0.0, 0.0, 0.0, 0.0, 0.0, 0.0, 1.677527759172199E9, 0.0, 2023-02-27 14:55:59.172
81.0, 5833.067695268118, 187500.0, 187500.0, 187500.0, -187500.02235174447, -187500.02235174447, -187500.02235174447, -187500.02235174447, 0.442, -0.022, 0.924, 192.0, 0.0, 0.0, 0.0, 0.0, 0.0, 0.0, 0.0, 0.0, 0.0, 1.677527759172225E9, 0.0, 2023-02-27 14:55:59.172
82.0, 6331.82452104384, 187500.0, 187500.0, 187500.0, -187500.02235174447, -187500.02235174447, -187500.02235174447, -187500.02235174447, 0.442, -0.022, 0.924, 192.0, 0.0, 0.0, 0.0, 0.0, 0.0, 0.0, 0.0, 0.0, 0.0, 1.677527759178835E9, 0.0, 2023-02-27 14:55:59.178
83.0, 8051.0760010571485, 187500.0, 187500.0, 187500.0, -187500.02235174447, -187500.02235174447, -187500.02235174447, -187500.02235174447, 0.442, -0.022, 0.924, 192.0, 0.0, 0.0, 0.0, 0.0, 0.0, 0.0, 0.0, 0.0, 0.0, 1.677527759178851E9, 0.0, 2023-02-27 14:55:59.178
84.0, 8236.975459691937, 187500.0, 187500.0, 187500.0, -187500.02235174447, -187500.02235174447, -187500.02235174447, -187500.02235174447, 0.442, -0.022, 0.924, 192.0, 0.0, 0.0, 0.0, 0.0, 0.0, 0.0, 0.0, 0.0, 0.0, 1.677527759186793E9, 0.0, 2023-02-27 14:55:59.186
85.0, 6825.686314783849, 187500.0, 187500.0, 187500.0, -187500.02235174447, -187500.02235174447, -187500.02235174447, -187500.02235174447, 0.442, -0.022, 0.924, 192.0, 0.0, 0.0, 0.0, 0.0, 0.0, 0.0, 0.0, 0.0, 0.0, 1.677527759186807E9, 0.0, 2023-02-27 14:55:59.186
86.0, 6734.424142172831, 187500.0, 187500.0, 187500.0, -187500.02235174447, -187500.02235174447, -187500.02235174447, -187500.02235174447, 0.438, -0.02, 0.924, 192.0, 13.0, 176.0, 255.0, 96.0, 28.0, 224.0, 0.0, 0.0, 0.0, 1.677527759194856E9, 0.0, 2023-02-27 14:55:59.194
87.0, 7509.604991627335, 187500.0, 187500.0, 187500.0, -187500.02235174447, -187500.02235174447, -187500.02235174447, -187500.02235174447, 0.438, -0.02, 0.924, 192.0, 0.0, 0.0, 0.0, 0.0, 0.0, 0.0, 0.0, 0.0, 0.0, 1.67752775919487E9, 0.0, 2023-02-27 14:55:59.194
88.0, 6238.61774666521, 187500.0, 187500.0, 187500.0, -187500.02235174447, -187500.02235174447, -187500.02235174447, -187500.02235174447, 0.438, -0.02, 0.924, 192.0, 0.0, 0.0, 0.0, 0.0, 0.0, 0.0, 0.0, 0.0, 0.0, 1.677527759201968E9, 0.0, 2023-02-27 14:55:59.201
89.0, 7794.813250877053, 187500.0, 187500.0, 187500.0, -187500.02235174447, -187500.02235174447, -187500.02235174447, -187500.02235174447, 0.438, -0.02, 0.924, 192.0, 0.0, 0.0, 0.0, 0.0, 0.0, 0.0, 0.0, 0.0, 0.0, 1.677527759201983E9, 0.0, 2023-02-27 14:55:59.201
90.0, 6275.989863394483, 187500.0, 187500.0, 187500.0, -187500.02235174447, -187500.02235174447, -187500.02235174447, -187500.02235174447, 0.438, -0.02, 0.924, 192.0, 0.0, 0.0, 0.0, 0.0, 0.0, 0.0, 0.0, 0.0, 0.0, 1.677527759209748E9, 0.0, 2023-02-27 14:55:59.209
91.0, 6221.339848201257, 187500.0, 187500.0, 187500.0, -187500.02235174447, -187500.02235174447, -187500.02235174447, -187500.02235174447, 0.438, -0.02, 0.924, 192.0, 0.0, 0.0, 0.0, 0.0, 0.0, 0.0, 0.0, 0.0, 0.0, 1.67752775920977E9, 0.0, 2023-02-27 14:55:59.209
92.0, 6889.612303926027, 187500.0, 187500.0, 187500.0, -187500.02235174447, -187500.02235174447, -187500.02235174447, -187500.02235174447, 0.438, -0.02, 0.924, 192.0, 0.0, 0.0, 0.0, 0.0, 0.0, 0.0, 0.0, 0.0, 0.0, 1.677527759217503E9, 0.0, 2023-02-27 14:55:59.217
93.0, 6296.464061315544, 187500.0, 187500.0, 187500.0, -187500.02235174447, -187500.02235174447, -187500.02235174447, -187500.02235174447, 0.438, -0.02, 0.924, 192.0, 0.0, 0.0, 0.0, 0.0, 0.0, 0.0, 0.0, 0.0, 0.0, 1.677527759217524E9, 0.0, 2023-02-27 14:55:59.217
94.0, 7515.751721352544, 187500.0, 187500.0, 187500.0, -187500.02235174447, -187500.02235174447, -187500.02235174447, -187500.02235174447, 0.438, -0.02, 0.924, 192.0, 0.0, 0.0, 0.0, 0.0, 0.0, 0.0, 0.0, 0.0, 0.0, 1.677527759224923E9, 0.0, 2023-02-27 14:55:59.224
95.0, 6300.286209617402, 187500.0, 187500.0, 187500.0, -187500.02235174447, -187500.02235174447, -187500.02235174447, -187500.02235174447, 0.438, -0.02, 0.924, 192.0, 0.0, 0.0, 0.0, 0.0, 0.0, 0.0, 0.0, 0.0, 0.0, 1.677527759231508E9, 0.0, 2023-02-27 14:55:59.231
96.0, 6987.62470336255, 187500.0, 187500.0, 187500.0, -187500.02235174447, -187500.02235174447, -187500.02235174447, -187500.02235174447, 0.44, -0.024, 0.918, 192.0, 13.0, 192.0, 255.0, 64.0, 28.0, 176.0, 0.0, 0.0, 0.0, 1.677527759231522E9, 0.0, 2023-02-27 14:55:59.231
97.0, 7313.870765432212, 187500.0, 187500.0, 187500.0, -187500.02235174447, -187500.02235174447, -187500.02235174447, -187500.02235174447, 0.44, -0.024, 0.918, 192.0, 0.0, 0.0, 0.0, 0.0, 0.0, 0.0, 0.0, 0.0, 0.0, 1.67752775923908E9, 0.0, 2023-02-27 14:55:59.239
98.0, 6575.793811773517, 187500.0, 187500.0, 187500.0, -187500.02235174447, -187500.02235174447, -187500.02235174447, -187500.02235174447, 0.44, -0.024, 0.918, 192.0, 0.0, 0.0, 0.0, 0.0, 0.0, 0.0, 0.0, 0.0, 0.0, 1.677527759239097E9, 0.0, 2023-02-27 14:55:59.239
99.0, 6998.979389545845, 187500.0, 187500.0, 187500.0, -187500.02235174447, -187500.02235174447, -187500.02235174447, -187500.02235174447, 0.44, -0.024, 0.918, 192.0, 0.0, 0.0, 0.0, 0.0, 0.0, 0.0, 0.0, 0.0, 0.0, 1.677527759247218E9, 0.0, 2023-02-27 14:55:59.247
100.0, 7471.338805119849, 187500.0, 187500.0, 187500.0, -187500.02235174447, -187500.02235174447, -187500.02235174447, -187500.02235174447, 0.44, -0.024, 0.918, 192.0, 0.0, 0.0, 0.0, 0.0, 0.0, 0.0, 0.0, 0.0, 0.0, 1.677527759247245E9, 0.0, 2023-02-27 14:55:59.247
101.0, 8050.696021401409, 187500.0, 187500.0, 187500.0, -187500.02235174447, -187500.02235174447, -187500.02235174447, -187500.02235174447, 0.44, -0.024, 0.918, 192.0, 0.0, 0.0, 0.0, 0.0, 0.0, 0.0, 0.0, 0.0, 0.0, 1.677527759255176E9, 0.0, 2023-02-27 14:55:59.255
102.0, 7128.17247249752, 187500.0, 187500.0, 187500.0, -187500.02235174447, -187500.02235174447, -187500.02235174447, -187500.02235174447, 0.44, -0.024, 0.918, 192.0, 0.0, 0.0, 0.0, 0.0, 0.0, 0.0, 0.0, 0.0, 0.0, 1.677527759255196E9, 0.0, 2023-02-27 14:55:59.255
103.0, 6091.386805938102, 187500.0, 187500.0, 187500.0, -187500.02235174447, -187500.02235174447, -187500.02235174447, -187500.02235174447, 0.44, -0.024, 0.918, 192.0, 0.0, 0.0, 0.0, 0.0, 0.0, 0.0, 0.0, 0.0, 0.0, 1.677527759261634E9, 0.0, 2023-02-27 14:55:59.261
104.0, 6623.514786185598, 187500.0, 187500.0, 187500.0, -187500.02235174447, -187500.02235174447, -187500.02235174447, -187500.02235174447, 0.44, -0.024, 0.918, 192.0, 0.0, 0.0, 0.0, 0.0, 0.0, 0.0, 0.0, 0.0, 0.0, 1.67752775926165E9, 0.0, 2023-02-27 14:55:59.261
105.0, 7510.655523616734, 187500.0, 187500.0, 187500.0, -187500.02235174447, -187500.02235174447, -187500.02235174447, -187500.02235174447, 0.44, -0.024, 0.918, 192.0, 0.0, 0.0, 0.0, 0.0, 0.0, 0.0, 0.0, 0.0, 0.0, 1.677527759269861E9, 0.0, 2023-02-27 14:55:59.269
106.0, 8204.654837209564, 187500.0, 187500.0, 187500.0, -187500.02235174447, -187500.02235174447, -187500.02235174447, -187500.02235174447, 0.442, -0.024, 0.914, 192.0, 13.0, 208.0, 255.0, 64.0, 28.0, 144.0, 0.0, 0.0, 0.0, 1.677527759269874E9, 0.0, 2023-02-27 14:55:59.269
107.0, 5524.412456084783, 187500.0, 187500.0, 187500.0, -187500.02235174447, -187500.02235174447, -187500.02235174447, -187500.02235174447, 0.442, -0.024, 0.914, 192.0, 0.0, 0.0, 0.0, 0.0, 0.0, 0.0, 0.0, 0.0, 0.0, 1.677527759277735E9, 0.0, 2023-02-27 14:55:59.277
108.0, 5895.004379153774, 187500.0, 187500.0, 187500.0, -187500.02235174447, -187500.02235174447, -187500.02235174447, -187500.02235174447, 0.442, -0.024, 0.914, 192.0, 0.0, 0.0, 0.0, 0.0, 0.0, 0.0, 0.0, 0.0, 0.0, 1.677527759277752E9, 0.0, 2023-02-27 14:55:59.277
109.0, 7038.653735954015, 187500.0, 187500.0, 187500.0, -187500.02235174447, -187500.02235174447, -187500.02235174447, -187500.02235174447, 0.442, -0.024, 0.914, 192.0, 0.0, 0.0, 0.0, 0.0, 0.0, 0.0, 0.0, 0.0, 0.0, 1.677527759284835E9, 0.0, 2023-02-27 14:55:59.284
110.0, 8197.412872006043, 187500.0, 187500.0, 187500.0, -187500.02235174447, -187500.02235174447, -187500.02235174447, -187500.02235174447, 0.442, -0.024, 0.914, 192.0, 0.0, 0.0, 0.0, 0.0, 0.0, 0.0, 0.0, 0.0, 0.0, 1.677527759291396E9, 0.0, 2023-02-27 14:55:59.291
111.0, 7228.241232423929, 187500.0, 187500.0, 187500.0, -187500.02235174447, -187500.02235174447, -187500.02235174447, -187500.02235174447, 0.442, -0.024, 0.914, 192.0, 0.0, 0.0, 0.0, 0.0, 0.0, 0.0, 0.0, 0.0, 0.0, 1.677527759291423E9, 0.0, 2023-02-27 14:55:59.291
112.0, 5782.083366165562, 187500.0, 187500.0, 187500.0, -187500.02235174447, -187500.02235174447, -187500.02235174447, -187500.02235174447, 0.442, -0.024, 0.914, 192.0, 0.0, 0.0, 0.0, 0.0, 0.0, 0.0, 0.0, 0.0, 0.0, 1.677527759299395E9, 0.0, 2023-02-27 14:55:59.299
113.0, 6392.353045028812, 187500.0, 187500.0, 187500.0, -187500.02235174447, -187500.02235174447, -187500.02235174447, -187500.02235174447, 0.442, -0.024, 0.914, 192.0, 0.0, 0.0, 0.0, 0.0, 0.0, 0.0, 0.0, 0.0, 0.0, 1.677527759299418E9, 0.0, 2023-02-27 14:55:59.299
114.0, 6892.003940582746, 187500.0, 187500.0, 187500.0, -187500.02235174447, -187500.02235174447, -187500.02235174447, -187500.02235174447, 0.442, -0.024, 0.914, 192.0, 0.0, 0.0, 0.0, 0.0, 0.0, 0.0, 0.0, 0.0, 0.0, 1.677527759307249E9, 0.0, 2023-02-27 14:55:59.307
115.0, 6998.085319767633, 187500.0, 187500.0, 187500.0, -187500.02235174447, -187500.02235174447, -187500.02235174447, -187500.02235174447, 0.442, -0.024, 0.914, 192.0, 0.0, 0.0, 0.0, 0.0, 0.0, 0.0, 0.0, 0.0, 0.0, 1.67752775930726E9, 0.0, 2023-02-27 14:55:59.307
116.0, 8231.611041022663, 187500.0, 187500.0, 187500.0, -187500.02235174447, -187500.02235174447, -187500.02235174447, -187500.02235174447, 0.448, -0.024, 0.916, 192.0, 14.0, 0.0, 255.0, 64.0, 28.0, 160.0, 0.0, 0.0, 0.0, 1.677527759313969E9, 0.0, 2023-02-27 14:55:59.313
117.0, 7808.760739417165, 187500.0, 187500.0, 187500.0, -187500.02235174447, -187500.02235174447, -187500.02235174447, -187500.02235174447, 0.448, -0.024, 0.916, 192.0, 0.0, 0.0, 0.0, 0.0, 0.0, 0.0, 0.0, 0.0, 0.0, 1.677527759313982E9, 0.0, 2023-02-27 14:55:59.313
118.0, 6138.817207672264, 187500.0, 187500.0, 187500.0, -187500.02235174447, -187500.02235174447, -187500.02235174447, -187500.02235174447, 0.448, -0.024, 0.916, 192.0, 0.0, 0.0, 0.0, 0.0, 0.0, 0.0, 0.0, 0.0, 0.0, 1.677527759322009E9, 0.0, 2023-02-27 14:55:59.322
119.0, 6366.469724949566, 187500.0, 187500.0, 187500.0, -187500.02235174447, -187500.02235174447, -187500.02235174447, -187500.02235174447, 0.448, -0.024, 0.916, 192.0, 0.0, 0.0, 0.0, 0.0, 0.0, 0.0, 0.0, 0.0, 0.0, 1.677527759322026E9, 0.0, 2023-02-27 14:55:59.322
120.0, 6676.354310077943, 187500.0, 187500.0, 187500.0, -187500.02235174447, -187500.02235174447, -187500.02235174447, -187500.02235174447, 0.448, -0.024, 0.916, 192.0, 0.0, 0.0, 0.0, 0.0, 0.0, 0.0, 0.0, 0.0, 0.0, 1.677527759329987E9, 0.0, 2023-02-27 14:55:59.329
121.0, 7822.9093936573745, 187500.0, 187500.0, 187500.0, -187500.02235174447, -187500.02235174447, -187500.02235174447, -187500.02235174447, 0.448, -0.024, 0.916, 192.0, 0.0, 0.0, 0.0, 0.0, 0.0, 0.0, 0.0, 0.0, 0.0, 1.677527759330011E9, 0.0, 2023-02-27 14:55:59.330
122.0, 7105.865431531123, 187500.0, 187500.0, 187500.0, -187500.02235174447, -187500.02235174447, -187500.02235174447, -187500.02235174447, 0.448, -0.024, 0.916, 192.0, 0.0, 0.0, 0.0, 0.0, 0.0, 0.0, 0.0, 0.0, 0.0, 1.677527759337141E9, 0.0, 2023-02-27 14:55:59.337
123.0, 6335.758428067974, 187500.0, 187500.0, 187500.0, -187500.02235174447, -187500.02235174447, -187500.02235174447, -187500.02235174447, 0.448, -0.024, 0.916, 192.0, 0.0, 0.0, 0.0, 0.0, 0.0, 0.0, 0.0, 0.0, 0.0, 1.677527759337165E9, 0.0, 2023-02-27 14:55:59.337
124.0, 7059.194989108442, 187500.0, 187500.0, 187500.0, -187500.02235174447, -187500.02235174447, -187500.02235174447, -187500.02235174447, 0.448, -0.024, 0.916, 192.0, 0.0, 0.0, 0.0, 0.0, 0.0, 0.0, 0.0, 0.0, 0.0, 1.677527759343594E9, 0.0, 2023-02-27 14:55:59.343
125.0, 7176.049909120788, 187500.0, 187500.0, 187500.0, -187500.02235174447, -187500.02235174447, -187500.02235174447, -187500.02235174447, 0.444, -0.026000000000000002, 0.912, 192.0, 13.0, 224.0, 255.0, 48.0, 28.0, 128.0, 0.0, 0.0, 0.0, 1.677527759343615E9, 0.0, 2023-02-27 14:55:59.343
126.0, 6193.422519376579, 187500.0, 187500.0, 187500.0, -187500.02235174447, -187500.02235174447, -187500.02235174447, -187500.02235174447, 0.444, -0.026000000000000002, 0.912, 192.0, 0.0, 0.0, 0.0, 0.0, 0.0, 0.0, 0.0, 0.0, 0.0, 1.677527759352616E9, 0.0, 2023-02-27 14:55:59.352
127.0, 8057.558006949188, 187500.0, 187500.0, 187500.0, -187500.02235174447, -187500.02235174447, -187500.02235174447, -187500.02235174447, 0.444, -0.026000000000000002, 0.912, 192.0, 0.0, 0.0, 0.0, 0.0, 0.0, 0.0, 0.0, 0.0, 0.0, 1.67752775935957E9, 0.0, 2023-02-27 14:55:59.359
128.0, 7153.586405943204, 187500.0, 187500.0, 187500.0, -187500.02235174447, -187500.02235174447, -187500.02235174447, -187500.02235174447, 0.444, -0.026000000000000002, 0.912, 192.0, 0.0, 0.0, 0.0, 0.0, 0.0, 0.0, 0.0, 0.0, 0.0, 1.677527759359593E9, 0.0, 2023-02-27 14:55:59.359
129.0, 5741.783170912644, 187500.0, 187500.0, 187500.0, -187500.02235174447, -187500.02235174447, -187500.02235174447, -187500.02235174447, 0.444, -0.026000000000000002, 0.912, 192.0, 0.0, 0.0, 0.0, 0.0, 0.0, 0.0, 0.0, 0.0, 0.0, 1.677527759366698E9, 0.0, 2023-02-27 14:55:59.366
130.0, 7358.708364809557, 187500.0, 187500.0, 187500.0, -187500.02235174447, -187500.02235174447, -187500.02235174447, -187500.02235174447, 0.444, -0.026000000000000002, 0.912, 192.0, 0.0, 0.0, 0.0, 0.0, 0.0, 0.0, 0.0, 0.0, 0.0, 1.677527759366714E9, 0.0, 2023-02-27 14:55:59.366
131.0, 7273.950549835033, 187500.0, 187500.0, 187500.0, -187500.02235174447, -187500.02235174447, -187500.02235174447, -187500.02235174447, 0.444, -0.026000000000000002, 0.912, 192.0, 0.0, 0.0, 0.0, 0.0, 0.0, 0.0, 0.0, 0.0, 0.0, 1.677527759374248E9, 0.0, 2023-02-27 14:55:59.374
132.0, 6821.417131592886, 187500.0, 187500.0, 187500.0, -187500.02235174447, -187500.02235174447, -187500.02235174447, -187500.02235174447, 0.444, -0.026000000000000002, 0.912, 192.0, 0.0, 0.0, 0.0, 0.0, 0.0, 0.0, 0.0, 0.0, 0.0, 1.677527759374267E9, 0.0, 2023-02-27 14:55:59.374
133.0, 6687.574885794507, 187500.0, 187500.0, 187500.0, -187500.02235174447, -187500.02235174447, -187500.02235174447, -187500.02235174447, 0.444, -0.026000000000000002, 0.912, 192.0, 0.0, 0.0, 0.0, 0.0, 0.0, 0.0, 0.0, 0.0, 0.0, 1.6775277593822E9, 0.0, 2023-02-27 14:55:59.382
134.0, 8236.550776547287, 187500.0, 187500.0, 187500.0, -187500.02235174447, -187500.02235174447, -187500.02235174447, -187500.02235174447, 0.444, -0.026000000000000002, 0.912, 192.0, 0.0, 0.0, 0.0, 0.0, 0.0, 0.0, 0.0, 0.0, 0.0, 1.67752775938222E9, 0.0, 2023-02-27 14:55:59.382
135.0, 7650.2198159956715, 187500.0, 187500.0, 187500.0, -187500.02235174447, -187500.02235174447, -187500.02235174447, -187500.02235174447, 0.44, -0.028, 0.914, 192.0, 13.0, 192.0, 255.0, 32.0, 28.0, 144.0, 0.0, 0.0, 0.0, 1.677527759390183E9, 0.0, 2023-02-27 14:55:59.390
136.0, 5374.476954278583, 187500.0, 187500.0, 187500.0, -187500.02235174447, -187500.02235174447, -187500.02235174447, -187500.02235174447, 0.44, -0.028, 0.914, 192.0, 0.0, 0.0, 0.0, 0.0, 0.0, 0.0, 0.0, 0.0, 0.0, 1.677527759390198E9, 0.0, 2023-02-27 14:55:59.390
137.0, 6694.034539942091, 187500.0, 187500.0, 187500.0, -187500.02235174447, -187500.02235174447, -187500.02235174447, -187500.02235174447, 0.44, -0.028, 0.914, 192.0, 0.0, 0.0, 0.0, 0.0, 0.0, 0.0, 0.0, 0.0, 0.0, 1.677527759396904E9, 0.0, 2023-02-27 14:55:59.396
138.0, 7737.6821920492885, 187500.0, 187500.0, 187500.0, -187500.02235174447, -187500.02235174447, -187500.02235174447, -187500.02235174447, 0.44, -0.028, 0.914, 192.0, 0.0, 0.0, 0.0, 0.0, 0.0, 0.0, 0.0, 0.0, 0.0, 1.677527759396925E9, 0.0, 2023-02-27 14:55:59.396
139.0, 6277.219209339525, 187500.0, 187500.0, 187500.0, -187500.02235174447, -187500.02235174447, -187500.02235174447, -187500.02235174447, 0.44, -0.028, 0.914, 192.0, 0.0, 0.0, 0.0, 0.0, 0.0, 0.0, 0.0, 0.0, 0.0, 1.677527759404858E9, 0.0, 2023-02-27 14:55:59.404
140.0, 7085.368881865607, 187500.0, 187500.0, 187500.0, -187500.02235174447, -187500.02235174447, -187500.02235174447, -187500.02235174447, 0.44, -0.028, 0.914, 192.0, 0.0, 0.0, 0.0, 0.0, 0.0, 0.0, 0.0, 0.0, 0.0, 1.677527759404876E9, 0.0, 2023-02-27 14:55:59.404
141.0, 7890.702234590321, 187500.0, 187500.0, 187500.0, -187500.02235174447, -187500.02235174447, -187500.02235174447, -187500.02235174447, 0.44, -0.028, 0.914, 192.0, 0.0, 0.0, 0.0, 0.0, 0.0, 0.0, 0.0, 0.0, 0.0, 1.677527759411873E9, 0.0, 2023-02-27 14:55:59.411
142.0, 5777.165982385395, 187500.0, 187500.0, 187500.0, -187500.02235174447, -187500.02235174447, -187500.02235174447, -187500.02235174447, 0.44, -0.028, 0.914, 192.0, 0.0, 0.0, 0.0, 0.0, 0.0, 0.0, 0.0, 0.0, 0.0, 1.677527759419865E9, 0.0, 2023-02-27 14:55:59.419
143.0, 6373.018786074971, 187500.0, 187500.0, 187500.0, -187500.02235174447, -187500.02235174447, -187500.02235174447, -187500.02235174447, 0.44, -0.028, 0.914, 192.0, 0.0, 0.0, 0.0, 0.0, 0.0, 0.0, 0.0, 0.0, 0.0, 1.677527759419888E9, 0.0, 2023-02-27 14:55:59.419
144.0, 7452.384525821749, 187500.0, 187500.0, 187500.0, -187500.02235174447, -187500.02235174447, -187500.02235174447, -187500.02235174447, 0.44, -0.028, 0.914, 192.0, 0.0, 0.0, 0.0, 0.0, 0.0, 0.0, 0.0, 0.0, 0.0, 1.677527759426525E9, 0.0, 2023-02-27 14:55:59.426
145.0, 8414.940049045092, 187500.0, 187500.0, 187500.0, -187500.02235174447, -187500.02235174447, -187500.02235174447, -187500.02235174447, 0.438, -0.03, 0.918, 192.0, 13.0, 176.0, 255.0, 16.0, 28.0, 176.0, 0.0, 0.0, 0.0, 1.677527759426545E9, 0.0, 2023-02-27 14:55:59.426
146.0, 7506.252229959039, 187500.0, 187500.0, 187500.0, -187500.02235174447, -187500.02235174447, -187500.02235174447, -187500.02235174447, 0.438, -0.03, 0.918, 192.0, 0.0, 0.0, 0.0, 0.0, 0.0, 0.0, 0.0, 0.0, 0.0, 1.67752775943455E9, 0.0, 2023-02-27 14:55:59.434
147.0, 6228.0677232823045, 187500.0, 187500.0, 187500.0, -187500.02235174447, -187500.02235174447, -187500.02235174447, -187500.02235174447, 0.438, -0.03, 0.918, 192.0, 0.0, 0.0, 0.0, 0.0, 0.0, 0.0, 0.0, 0.0, 0.0, 1.677527759434571E9, 0.0, 2023-02-27 14:55:59.434
148.0, 6513.320686020933, 187500.0, 187500.0, 187500.0, -187500.02235174447, -187500.02235174447, -187500.02235174447, -187500.02235174447, 0.438, -0.03, 0.918, 192.0, 0.0, 0.0, 0.0, 0.0, 0.0, 0.0, 0.0, 0.0, 0.0, 1.677527759442577E9, 0.0, 2023-02-27 14:55:59.442
149.0, 6836.079875955567, 187500.0, 187500.0, 187500.0, -187500.02235174447, -187500.02235174447, -187500.02235174447, -187500.02235174447, 0.438, -0.03, 0.918, 192.0, 0.0, 0.0, 0.0, 0.0, 0.0, 0.0, 0.0, 0.0, 0.0, 1.677527759442593E9, 0.0, 2023-02-27 14:55:59.442
150.0, 6763.995500087202, 187500.0, 187500.0, 187500.0, -187500.02235174447, -187500.02235174447, -187500.02235174447, -187500.02235174447, 0.438, -0.03, 0.918, 192.0, 0.0, 0.0, 0.0, 0.0, 0.0, 0.0, 0.0, 0.0, 0.0, 1.677527759449097E9, 0.0, 2023-02-27 14:55:59.449
151.0, 8217.372979804633, 187500.0, 187500.0, 187500.0, -187500.02235174447, -187500.02235174447, -187500.02235174447, -187500.02235174447, 0.438, -0.03, 0.918, 192.0, 0.0, 0.0, 0.0, 0.0, 0.0, 0.0, 0.0, 0.0, 0.0, 1.677527759449115E9, 0.0, 2023-02-27 14:55:59.449
152.0, 7171.512504996361, 187500.0, 187500.0, 187500.0, -187500.02235174447, -187500.02235174447, -187500.02235174447, -187500.02235174447, 0.438, -0.03, 0.918, 192.0, 0.0, 0.0, 0.0, 0.0, 0.0, 0.0, 0.0, 0.0, 0.0, 1.677527759457121E9, 0.0, 2023-02-27 14:55:59.457
153.0, 5409.032751206488, 187500.0, 187500.0, 187500.0, -187500.02235174447, -187500.02235174447, -187500.02235174447, -187500.02235174447, 0.438, -0.03, 0.918, 192.0, 0.0, 0.0, 0.0, 0.0, 0.0, 0.0, 0.0, 0.0, 0.0, 1.677527759457137E9, 0.0, 2023-02-27 14:55:59.457
154.0, 7176.139316098609, 187500.0, 187500.0, 187500.0, -187500.02235174447, -187500.02235174447, -187500.02235174447, -187500.02235174447, 0.438, -0.03, 0.918, 192.0, 0.0, 0.0, 0.0, 0.0, 0.0, 0.0, 0.0, 0.0, 0.0, 1.677527759465173E9, 0.0, 2023-02-27 14:55:59.465
155.0, 6786.123727097956, 187500.0, 187500.0, 187500.0, -187500.02235174447, -187500.02235174447, -187500.02235174447, -187500.02235174447, 0.434, -0.032, 0.92, 192.0, 13.0, 144.0, 255.0, 0.0, 28.0, 192.0, 0.0, 0.0, 0.0, 1.677527759465195E9, 0.0, 2023-02-27 14:55:59.465
156.0, 7575.274416837027, 187500.0, 187500.0, 187500.0, -187500.02235174447, -187500.02235174447, -187500.02235174447, -187500.02235174447, 0.434, -0.032, 0.92, 192.0, 0.0, 0.0, 0.0, 0.0, 0.0, 0.0, 0.0, 0.0, 0.0, 1.677527759472358E9, 0.0, 2023-02-27 14:55:59.472
157.0, 7541.120951309318, 187500.0, 187500.0, 187500.0, -187500.02235174447, -187500.02235174447, -187500.02235174447, -187500.02235174447, 0.434, -0.032, 0.92, 192.0, 0.0, 0.0, 0.0, 0.0, 0.0, 0.0, 0.0, 0.0, 0.0, 1.677527759478773E9, 0.0, 2023-02-27 14:55:59.478
158.0, 6846.45108538283, 187500.0, 187500.0, 187500.0, -187500.02235174447, -187500.02235174447, -187500.02235174447, -187500.02235174447, 0.434, -0.032, 0.92, 192.0, 0.0, 0.0, 0.0, 0.0, 0.0, 0.0, 0.0, 0.0, 0.0, 1.677527759478786E9, 0.0, 2023-02-27 14:55:59.478
159.0, 7667.0059760816075, 187500.0, 187500.0, 187500.0, -187500.02235174447, -187500.02235174447, -187500.02235174447, -187500.02235174447, 0.434, -0.032, 0.92, 192.0, 0.0, 0.0, 0.0, 0.0, 0.0, 0.0, 0.0, 0.0, 0.0, 1.67752775948675E9, 0.0, 2023-02-27 14:55:59.486
160.0, 7867.121144189971, 187500.0, 187500.0, 187500.0, -187500.02235174447, -187500.02235174447, -187500.02235174447, -187500.02235174447, 0.434, -0.032, 0.92, 192.0, 0.0, 0.0, 0.0, 0.0, 0.0, 0.0, 0.0, 0.0, 0.0, 1.677527759486766E9, 0.0, 2023-02-27 14:55:59.486
161.0, 6050.371354862614, 187500.0, 187500.0, 187500.0, -187500.02235174447, -187500.02235174447, -187500.02235174447, -187500.02235174447, 0.434, -0.032, 0.92, 192.0, 0.0, 0.0, 0.0, 0.0, 0.0, 0.0, 0.0, 0.0, 0.0, 1.677527759494834E9, 0.0, 2023-02-27 14:55:59.494
162.0, 6696.56028706554, 187500.0, 187500.0, 187500.0, -187500.02235174447, -187500.02235174447, -187500.02235174447, -187500.02235174447, 0.434, -0.032, 0.92, 192.0, 0.0, 0.0, 0.0, 0.0, 0.0, 0.0, 0.0, 0.0, 0.0, 1.677527759494851E9, 0.0, 2023-02-27 14:55:59.494
163.0, 8172.75889787184, 187500.0, 187500.0, 187500.0, -187500.02235174447, -187500.02235174447, -187500.02235174447, -187500.02235174447, 0.434, -0.032, 0.92, 192.0, 0.0, 0.0, 0.0, 0.0, 0.0, 0.0, 0.0, 0.0, 0.0, 1.677527759501932E9, 0.0, 2023-02-27 14:55:59.501
164.0, 6105.580163667222, 187500.0, 187500.0, 187500.0, -187500.02235174447, -187500.02235174447, -187500.02235174447, -187500.02235174447, 0.434, -0.032, 0.92, 192.0, 0.0, 0.0, 0.0, 0.0, 0.0, 0.0, 0.0, 0.0, 0.0, 1.677527759501952E9, 0.0, 2023-02-27 14:55:59.501
165.0, 7072.784849737269, 187500.0, 187500.0, 187500.0, -187500.02235174447, -187500.02235174447, -187500.02235174447, -187500.02235174447, 0.444, -0.034, 0.916, 192.0, 13.0, 224.0, 254.0, 240.0, 28.0, 160.0, 0.0, 0.0, 0.0, 1.677527759509453E9, 0.0, 2023-02-27 14:55:59.509
166.0, 7507.682741604179, 187500.0, 187500.0, 187500.0, -187500.02235174447, -187500.02235174447, -187500.02235174447, -187500.02235174447, 0.444, -0.034, 0.916, 192.0, 0.0, 0.0, 0.0, 0.0, 0.0, 0.0, 0.0, 0.0, 0.0, 1.677527759509506E9, 0.0, 2023-02-27 14:55:59.509
167.0, 7579.811820961455, 187500.0, 187500.0, 187500.0, -187500.02235174447, -187500.02235174447, -187500.02235174447, -187500.02235174447, 0.444, -0.034, 0.916, 192.0, 0.0, 0.0, 0.0, 0.0, 0.0, 0.0, 0.0, 0.0, 0.0, 1.677527759517549E9, 0.0, 2023-02-27 14:55:59.517
168.0, 6406.07701612437, 187500.0, 187500.0, 187500.0, -187500.02235174447, -187500.02235174447, -187500.02235174447, -187500.02235174447, 0.444, -0.034, 0.916, 192.0, 0.0, 0.0, 0.0, 0.0, 0.0, 0.0, 0.0, 0.0, 0.0, 1.677527759517565E9, 0.0, 2023-02-27 14:55:59.517
169.0, 6645.754771918628, 187500.0, 187500.0, 187500.0, -187500.02235174447, -187500.02235174447, -187500.02235174447, -187500.02235174447, 0.444, -0.034, 0.916, 192.0, 0.0, 0.0, 0.0, 0.0, 0.0, 0.0, 0.0, 0.0, 0.0, 1.67752775952545E9, 0.0, 2023-02-27 14:55:59.525
170.0, 7824.094036113505, 187500.0, 187500.0, 187500.0, -187500.02235174447, -187500.02235174447, -187500.02235174447, -187500.02235174447, 0.444, -0.034, 0.916, 192.0, 0.0, 0.0, 0.0, 0.0, 0.0, 0.0, 0.0, 0.0, 0.0, 1.677527759525467E9, 0.0, 2023-02-27 14:55:59.525
171.0, 7902.436900429357, 187500.0, 187500.0, 187500.0, -187500.02235174447, -187500.02235174447, -187500.02235174447, -187500.02235174447, 0.444, -0.034, 0.916, 192.0, 0.0, 0.0, 0.0, 0.0, 0.0, 0.0, 0.0, 0.0, 0.0, 1.67752775953163E9, 0.0, 2023-02-27 14:55:59.531
172.0, 5963.646586376022, 187500.0, 187500.0, 187500.0, -187500.02235174447, -187500.02235174447, -187500.02235174447, -187500.02235174447, 0.444, -0.034, 0.916, 192.0, 0.0, 0.0, 0.0, 0.0, 0.0, 0.0, 0.0, 0.0, 0.0, 1.677527759539009E9, 0.0, 2023-02-27 14:55:59.539
173.0, 7189.125679627143, 187500.0, 187500.0, 187500.0, -187500.02235174447, -187500.02235174447, -187500.02235174447, -187500.02235174447, 0.444, -0.034, 0.916, 192.0, 0.0, 0.0, 0.0, 0.0, 0.0, 0.0, 0.0, 0.0, 0.0, 1.677527759539025E9, 0.0, 2023-02-27 14:55:59.539
174.0, 6926.313868321642, 187500.0, 187500.0, 187500.0, -187500.02235174447, -187500.02235174447, -187500.02235174447, -187500.02235174447, 0.444, -0.034, 0.916, 192.0, 0.0, 0.0, 0.0, 0.0, 0.0, 0.0, 0.0, 0.0, 0.0, 1.67752775954708E9, 0.0, 2023-02-27 14:55:59.547
175.0, 7659.987528322641, 187500.0, 187500.0, 187500.0, -187500.02235174447, -187500.02235174447, -187500.02235174447, -187500.02235174447, 0.444, -0.03, 0.916, 192.0, 13.0, 224.0, 255.0, 16.0, 28.0, 160.0, 0.0, 0.0, 0.0, 1.6775277595471E9, 0.0, 2023-02-27 14:55:59.547
176.0, 7227.838901023734, 187500.0, 187500.0, 187500.0, -187500.02235174447, -187500.02235174447, -187500.02235174447, -187500.02235174447, 0.444, -0.03, 0.916, 192.0, 0.0, 0.0, 0.0, 0.0, 0.0, 0.0, 0.0, 0.0, 0.0, 1.677527759555153E9, 0.0, 2023-02-27 14:55:59.555
177.0, 6160.185475371537, 187500.0, 187500.0, 187500.0, -187500.02235174447, -187500.02235174447, -187500.02235174447, -187500.02235174447, 0.444, -0.03, 0.916, 192.0, 0.0, 0.0, 0.0, 0.0, 0.0, 0.0, 0.0, 0.0, 0.0, 1.677527759555173E9, 0.0, 2023-02-27 14:55:59.555
178.0, 7788.711224640754, 187500.0, 187500.0, 187500.0, -187500.02235174447, -187500.02235174447, -187500.02235174447, -187500.02235174447, 0.444, -0.03, 0.916, 192.0, 0.0, 0.0, 0.0, 0.0, 0.0, 0.0, 0.0, 0.0, 0.0, 1.677527759561814E9, 0.0, 2023-02-27 14:55:59.561
179.0, 7820.40599827838, 187500.0, 187500.0, 187500.0, -187500.02235174447, -187500.02235174447, -187500.02235174447, -187500.02235174447, 0.444, -0.03, 0.916, 192.0, 0.0, 0.0, 0.0, 0.0, 0.0, 0.0, 0.0, 0.0, 0.0, 1.677527759561831E9, 0.0, 2023-02-27 14:55:59.561
180.0, 6089.39750068158, 187500.0, 187500.0, 187500.0, -187500.02235174447, -187500.02235174447, -187500.02235174447, -187500.02235174447, 0.444, -0.03, 0.916, 192.0, 0.0, 0.0, 0.0, 0.0, 0.0, 0.0, 0.0, 0.0, 0.0, 1.67752775956974E9, 0.0, 2023-02-27 14:55:59.569
181.0, 8187.399290490066, 187500.0, 187500.0, 187500.0, -187500.02235174447, -187500.02235174447, -187500.02235174447, -187500.02235174447, 0.444, -0.03, 0.916, 192.0, 0.0, 0.0, 0.0, 0.0, 0.0, 0.0, 0.0, 0.0, 0.0, 1.677527759569761E9, 0.0, 2023-02-27 14:55:59.569
182.0, 8586.489687739575, 187500.0, 187500.0, 187500.0, -187500.02235174447, -187500.02235174447, -187500.02235174447, -187500.02235174447, 0.444, -0.03, 0.916, 192.0, 0.0, 0.0, 0.0, 0.0, 0.0, 0.0, 0.0, 0.0, 0.0, 1.677527759577775E9, 0.0, 2023-02-27 14:55:59.577
183.0, 5478.859600884867, 187500.0, 187500.0, 187500.0, -187500.02235174447, -187500.02235174447, -187500.02235174447, -187500.02235174447, 0.444, -0.03, 0.916, 192.0, 0.0, 0.0, 0.0, 0.0, 0.0, 0.0, 0.0, 0.0, 0.0, 1.677527759577791E9, 0.0, 2023-02-27 14:55:59.577
184.0, 5663.440306596793, 187500.0, 187500.0, 187500.0, -187500.02235174447, -187500.02235174447, -187500.02235174447, -187500.02235174447, 0.44, -0.03, 0.918, 192.0, 13.0, 192.0, 255.0, 16.0, 28.0, 176.0, 0.0, 0.0, 0.0, 1.677527759584792E9, 0.0, 2023-02-27 14:55:59.584
185.0, 7320.911564935633, 187500.0, 187500.0, 187500.0, -187500.02235174447, -187500.02235174447, -187500.02235174447, -187500.02235174447, 0.44, -0.03, 0.918, 192.0, 0.0, 0.0, 0.0, 0.0, 0.0, 0.0, 0.0, 0.0, 0.0, 1.677527759584807E9, 0.0, 2023-02-27 14:55:59.584
186.0, 8316.614725186197, 187500.0, 187500.0, 187500.0, -187500.02235174447, -187500.02235174447, -187500.02235174447, -187500.02235174447, 0.44, -0.03, 0.918, 192.0, 0.0, 0.0, 0.0, 0.0, 0.0, 0.0, 0.0, 0.0, 0.0, 1.677527759591369E9, 0.0, 2023-02-27 14:55:59.591
187.0, 7989.809869505152, 187500.0, 187500.0, 187500.0, -187500.02235174447, -187500.02235174447, -187500.02235174447, -187500.02235174447, 0.44, -0.03, 0.918, 192.0, 0.0, 0.0, 0.0, 0.0, 0.0, 0.0, 0.0, 0.0, 0.0, 1.677527759591401E9, 0.0, 2023-02-27 14:55:59.591
188.0, 7551.44745724767, 187500.0, 187500.0, 187500.0, -187500.02235174447, -187500.02235174447, -187500.02235174447, -187500.02235174447, 0.44, -0.03, 0.918, 192.0, 0.0, 0.0, 0.0, 0.0, 0.0, 0.0, 0.0, 0.0, 0.0, 1.677527759599386E9, 0.0, 2023-02-27 14:55:59.599
189.0, 6843.567710348095, 187500.0, 187500.0, 187500.0, -187500.02235174447, -187500.02235174447, -187500.02235174447, -187500.02235174447, 0.44, -0.03, 0.918, 192.0, 0.0, 0.0, 0.0, 0.0, 0.0, 0.0, 0.0, 0.0, 0.0, 1.677527759608366E9, 0.0, 2023-02-27 14:55:59.608
190.0, 6020.643534737055, 187500.0, 187500.0, 187500.0, -187500.02235174447, -187500.02235174447, -187500.02235174447, -187500.02235174447, 0.44, -0.03, 0.918, 192.0, 0.0, 0.0, 0.0, 0.0, 0.0, 0.0, 0.0, 0.0, 0.0, 1.677527759608379E9, 0.0, 2023-02-27 14:55:59.608
191.0, 6980.963883514868, 187500.0, 187500.0, 187500.0, -187500.02235174447, -187500.02235174447, -187500.02235174447, -187500.02235174447, 0.44, -0.03, 0.918, 192.0, 0.0, 0.0, 0.0, 0.0, 0.0, 0.0, 0.0, 0.0, 0.0, 1.677527759613903E9, 0.0, 2023-02-27 14:55:59.613
192.0, 8666.508932889574, 187500.0, 187500.0, 187500.0, -187500.02235174447, -187500.02235174447, -187500.02235174447, -187500.02235174447, 0.44, -0.03, 0.918, 192.0, 0.0, 0.0, 0.0, 0.0, 0.0, 0.0, 0.0, 0.0, 0.0, 1.677527759613919E9, 0.0, 2023-02-27 14:55:59.613
193.0, 7472.031709197964, 187500.0, 187500.0, 187500.0, -187500.02235174447, -187500.02235174447, -187500.02235174447, -187500.02235174447, 0.44, -0.03, 0.918, 192.0, 0.0, 0.0, 0.0, 0.0, 0.0, 0.0, 0.0, 0.0, 0.0, 1.67752775962195E9, 0.0, 2023-02-27 14:55:59.621
194.0, 6572.686919294229, 187500.0, 187500.0, 187500.0, -187500.02235174447, -187500.02235174447, -187500.02235174447, -187500.02235174447, 0.444, -0.03, 0.916, 192.0, 13.0, 224.0, 255.0, 16.0, 28.0, 160.0, 0.0, 0.0, 0.0, 1.67752775962197E9, 0.0, 2023-02-27 14:55:59.621
195.0, 6878.570542165106, 187500.0, 187500.0, 187500.0, -187500.02235174447, -187500.02235174447, -187500.02235174447, -187500.02235174447, 0.444, -0.03, 0.916, 192.0, 0.0, 0.0, 0.0, 0.0, 0.0, 0.0, 0.0, 0.0, 0.0, 1.67752775963003E9, 0.0, 2023-02-27 14:55:59.630
196.0, 6473.892208801772, 187500.0, 187500.0, 187500.0, -187500.02235174447, -187500.02235174447, -187500.02235174447, -187500.02235174447, 0.444, -0.03, 0.916, 192.0, 0.0, 0.0, 0.0, 0.0, 0.0, 0.0, 0.0, 0.0, 0.0, 1.677527759630047E9, 0.0, 2023-02-27 14:55:59.630
197.0, 7092.677902302493, 187500.0, 187500.0, 187500.0, -187500.02235174447, -187500.02235174447, -187500.02235174447, -187500.02235174447, 0.444, -0.03, 0.916, 192.0, 0.0, 0.0, 0.0, 0.0, 0.0, 0.0, 0.0, 0.0, 0.0, 1.677527759637055E9, 0.0, 2023-02-27 14:55:59.637
198.0, 8855.9399671483, 187500.0, 187500.0, 187500.0, -187500.02235174447, -187500.02235174447, -187500.02235174447, -187500.02235174447, 0.444, -0.03, 0.916, 192.0, 0.0, 0.0, 0.0, 0.0, 0.0, 0.0, 0.0, 0.0, 0.0, 1.677527759637082E9, 0.0, 2023-02-27 14:55:59.637
199.0, 7708.602572512934, 187500.0, 187500.0, 187500.0, -187500.02235174447, -187500.02235174447, -187500.02235174447, -187500.02235174447, 0.444, -0.03, 0.916, 192.0, 0.0, 0.0, 0.0, 0.0, 0.0, 0.0, 0.0, 0.0, 0.0, 1.677527759644556E9, 0.0, 2023-02-27 14:55:59.644
200.0, 5225.480225739507, 187500.0, 187500.0, 187500.0, -187500.02235174447, -187500.02235174447, -187500.02235174447, -187500.02235174447, 0.444, -0.03, 0.916, 192.0, 0.0, 0.0, 0.0, 0.0, 0.0, 0.0, 0.0, 0.0, 0.0, 1.677527759644579E9, 0.0, 2023-02-27 14:55:59.644
201.0, 6623.537137930052, 187500.0, 187500.0, 187500.0, -187500.02235174447, -187500.02235174447, -187500.02235174447, -187500.02235174447, 0.444, -0.03, 0.916, 192.0, 0.0, 0.0, 0.0, 0.0, 0.0, 0.0, 0.0, 0.0, 0.0, 1.677527759652773E9, 0.0, 2023-02-27 14:55:59.652
202.0, 8791.991626261668, 187500.0, 187500.0, 187500.0, -187500.02235174447, -187500.02235174447, -187500.02235174447, -187500.02235174447, 0.444, -0.03, 0.916, 192.0, 0.0, 0.0, 0.0, 0.0, 0.0, 0.0, 0.0, 0.0, 0.0, 1.677527759652789E9, 0.0, 2023-02-27 14:55:59.652
203.0, 7785.045538550084, 187500.0, 187500.0, 187500.0, -187500.02235174447, -187500.02235174447, -187500.02235174447, -187500.02235174447, 0.444, -0.03, 0.916, 192.0, 0.0, 0.0, 0.0, 0.0, 0.0, 0.0, 0.0, 0.0, 0.0, 1.67752775965969E9, 0.0, 2023-02-27 14:55:59.659
204.0, 6238.885967598673, 187500.0, 187500.0, 187500.0, -187500.02235174447, -187500.02235174447, -187500.02235174447, -187500.02235174447, 0.442, -0.028, 0.916, 192.0, 13.0, 208.0, 255.0, 32.0, 28.0, 160.0, 0.0, 0.0, 0.0, 1.677527759666739E9, 0.0, 2023-02-27 14:55:59.666
205.0, 6375.008091331493, 187500.0, 187500.0, 187500.0, -187500.02235174447, -187500.02235174447, -187500.02235174447, -187500.02235174447, 0.442, -0.028, 0.916, 192.0, 0.0, 0.0, 0.0, 0.0, 0.0, 0.0, 0.0, 0.0, 0.0, 1.677527759666756E9, 0.0, 2023-02-27 14:55:59.666
206.0, 7146.5232546953275, 187500.0, 187500.0, 187500.0, -187500.02235174447, -187500.02235174447, -187500.02235174447, -187500.02235174447, 0.442, -0.028, 0.916, 192.0, 0.0, 0.0, 0.0, 0.0, 0.0, 0.0, 0.0, 0.0, 0.0, 1.67752775967415E9, 0.0, 2023-02-27 14:55:59.674
207.0, 8226.067808397747, 187500.0, 187500.0, 187500.0, -187500.02235174447, -187500.02235174447, -187500.02235174447, -187500.02235174447, 0.442, -0.028, 0.916, 192.0, 0.0, 0.0, 0.0, 0.0, 0.0, 0.0, 0.0, 0.0, 0.0, 1.677527759674164E9, 0.0, 2023-02-27 14:55:59.674
208.0, 7787.034843806607, 187500.0, 187500.0, 187500.0, -187500.02235174447, -187500.02235174447, -187500.02235174447, -187500.02235174447, 0.442, -0.028, 0.916, 192.0, 0.0, 0.0, 0.0, 0.0, 0.0, 0.0, 0.0, 0.0, 0.0, 1.677527759682225E9, 0.0, 2023-02-27 14:55:59.682
209.0, 7142.432885460006, 187500.0, 187500.0, 187500.0, -187500.02235174447, -187500.02235174447, -187500.02235174447, -187500.02235174447, 0.442, -0.028, 0.916, 192.0, 0.0, 0.0, 0.0, 0.0, 0.0, 0.0, 0.0, 0.0, 0.0, 1.677527759682245E9, 0.0, 2023-02-27 14:55:59.682
210.0, 7432.759694189989, 187500.0, 187500.0, 187500.0, -187500.02235174447, -187500.02235174447, -187500.02235174447, -187500.02235174447, 0.442, -0.028, 0.916, 192.0, 0.0, 0.0, 0.0, 0.0, 0.0, 0.0, 0.0, 0.0, 0.0, 1.677527759690285E9, 0.0, 2023-02-27 14:55:59.690
211.0, 7023.722770657871, 187500.0, 187500.0, 187500.0, -187500.02235174447, -187500.02235174447, -187500.02235174447, -187500.02235174447, 0.442, -0.028, 0.916, 192.0, 0.0, 0.0, 0.0, 0.0, 0.0, 0.0, 0.0, 0.0, 0.0, 1.677527759690309E9, 0.0, 2023-02-27 14:55:59.690
212.0, 8023.292782699202, 187500.0, 187500.0, 187500.0, -187500.02235174447, -187500.02235174447, -187500.02235174447, -187500.02235174447, 0.442, -0.028, 0.916, 192.0, 0.0, 0.0, 0.0, 0.0, 0.0, 0.0, 0.0, 0.0, 0.0, 1.677527759697682E9, 0.0, 2023-02-27 14:55:59.697
213.0, 8277.320358433766, 187500.0, 187500.0, 187500.0, -187500.02235174447, -187500.02235174447, -187500.02235174447, -187500.02235174447, 0.442, -0.028, 0.916, 192.0, 0.0, 0.0, 0.0, 0.0, 0.0, 0.0, 0.0, 0.0, 0.0, 1.677527759697696E9, 0.0, 2023-02-27 14:55:59.697
214.0, 6438.308231628923, 187500.0, 187500.0, 187500.0, -187500.02235174447, -187500.02235174447, -187500.02235174447, -187500.02235174447, 0.442, -0.03, 0.914, 192.0, 13.0, 208.0, 255.0, 16.0, 28.0, 144.0, 0.0, 0.0, 0.0, 1.677527759704696E9, 0.0, 2023-02-27 14:55:59.704
215.0, 6299.369788094734, 187500.0, 187500.0, 187500.0, -187500.02235174447, -187500.02235174447, -187500.02235174447, -187500.02235174447, 0.442, -0.03, 0.914, 192.0, 0.0, 0.0, 0.0, 0.0, 0.0, 0.0, 0.0, 0.0, 0.0, 1.677527759704752E9, 0.0, 2023-02-27 14:55:59.704
216.0, 7405.714083399068, 187500.0, 187500.0, 187500.0, -187500.02235174447, -187500.02235174447, -187500.02235174447, -187500.02235174447, 0.442, -0.03, 0.914, 192.0, 0.0, 0.0, 0.0, 0.0, 0.0, 0.0, 0.0, 0.0, 0.0, 1.677527759712188E9, 0.0, 2023-02-27 14:55:59.712
217.0, 8145.892101036561, 187500.0, 187500.0, 187500.0, -187500.02235174447, -187500.02235174447, -187500.02235174447, -187500.02235174447, 0.442, -0.03, 0.914, 192.0, 0.0, 0.0, 0.0, 0.0, 0.0, 0.0, 0.0, 0.0, 0.0, 1.677527759712211E9, 0.0, 2023-02-27 14:55:59.712
218.0, 8197.748148172874, 187500.0, 187500.0, 187500.0, -187500.02235174447, -187500.02235174447, -187500.02235174447, -187500.02235174447, 0.442, -0.03, 0.914, 192.0, 0.0, 0.0, 0.0, 0.0, 0.0, 0.0, 0.0, 0.0, 0.0, 1.677527759719287E9, 0.0, 2023-02-27 14:55:59.719
219.0, 6559.3652795988655, 187500.0, 187500.0, 187500.0, -187500.02235174447, -187500.02235174447, -187500.02235174447, -187500.02235174447, 0.442, -0.03, 0.914, 192.0, 0.0, 0.0, 0.0, 0.0, 0.0, 0.0, 0.0, 0.0, 0.0, 1.677527759727175E9, 0.0, 2023-02-27 14:55:59.727
220.0, 7052.690631471948, 187500.0, 187500.0, 187500.0, -187500.02235174447, -187500.02235174447, -187500.02235174447, -187500.02235174447, 0.442, -0.03, 0.914, 192.0, 0.0, 0.0, 0.0, 0.0, 0.0, 0.0, 0.0, 0.0, 0.0, 1.677527759727195E9, 0.0, 2023-02-27 14:55:59.727
221.0, 8816.153862017854, 187500.0, 187500.0, 187500.0, -187500.02235174447, -187500.02235174447, -187500.02235174447, -187500.02235174447, 0.442, -0.03, 0.914, 192.0, 0.0, 0.0, 0.0, 0.0, 0.0, 0.0, 0.0, 0.0, 0.0, 1.677527759734469E9, 0.0, 2023-02-27 14:55:59.734
222.0, 7163.018842103344, 187500.0, 187500.0, 187500.0, -187500.02235174447, -187500.02235174447, -187500.02235174447, -187500.02235174447, 0.442, -0.03, 0.914, 192.0, 0.0, 0.0, 0.0, 0.0, 0.0, 0.0, 0.0, 0.0, 0.0, 1.677527759734481E9, 0.0, 2023-02-27 14:55:59.734
223.0, 6379.567847200376, 187500.0, 187500.0, 187500.0, -187500.02235174447, -187500.02235174447, -187500.02235174447, -187500.02235174447, 0.442, -0.03, 0.914, 192.0, 0.0, 0.0, 0.0, 0.0, 0.0, 0.0, 0.0, 0.0, 0.0, 1.67752775974191E9, 0.0, 2023-02-27 14:55:59.741
224.0, 6874.234303740776, 187500.0, 187500.0, 187500.0, -187500.02235174447, -187500.02235174447, -187500.02235174447, -187500.02235174447, 0.442, -0.028, 0.92, 192.0, 13.0, 208.0, 255.0, 32.0, 28.0, 192.0, 0.0, 0.0, 0.0, 1.677527759741927E9, 0.0, 2023-02-27 14:55:59.741
225.0, 7084.407756854029, 187500.0, 187500.0, 187500.0, -187500.02235174447, -187500.02235174447, -187500.02235174447, -187500.02235174447, 0.442, -0.028, 0.92, 192.0, 0.0, 0.0, 0.0, 0.0, 0.0, 0.0, 0.0, 0.0, 0.0, 1.677527759749747E9, 0.0, 2023-02-27 14:55:59.749
226.0, 8783.699129068747, 187500.0, 187500.0, 187500.0, -187500.02235174447, -187500.02235174447, -187500.02235174447, -187500.02235174447, 0.442, -0.028, 0.92, 192.0, 0.0, 0.0, 0.0, 0.0, 0.0, 0.0, 0.0, 0.0, 0.0, 1.677527759749801E9, 0.0, 2023-02-27 14:55:59.749
227.0, 7428.244641810017, 187500.0, 187500.0, 187500.0, -187500.02235174447, -187500.02235174447, -187500.02235174447, -187500.02235174447, 0.442, -0.028, 0.92, 192.0, 0.0, 0.0, 0.0, 0.0, 0.0, 0.0, 0.0, 0.0, 0.0, 1.677527759757859E9, 0.0, 2023-02-27 14:55:59.757
228.0, 6632.45548396772, 187500.0, 187500.0, 187500.0, -187500.02235174447, -187500.02235174447, -187500.02235174447, -187500.02235174447, 0.442, -0.028, 0.92, 192.0, 0.0, 0.0, 0.0, 0.0, 0.0, 0.0, 0.0, 0.0, 0.0, 1.677527759757873E9, 0.0, 2023-02-27 14:55:59.757
229.0, 7630.505577386091, 187500.0, 187500.0, 187500.0, -187500.02235174447, -187500.02235174447, -187500.02235174447, -187500.02235174447, 0.442, -0.028, 0.92, 192.0, 0.0, 0.0, 0.0, 0.0, 0.0, 0.0, 0.0, 0.0, 0.0, 1.677527759764464E9, 0.0, 2023-02-27 14:55:59.764
230.0, 7832.297126328604, 187500.0, 187500.0, 187500.0, -187500.02235174447, -187500.02235174447, -187500.02235174447, -187500.02235174447, 0.442, -0.028, 0.92, 192.0, 0.0, 0.0, 0.0, 0.0, 0.0, 0.0, 0.0, 0.0, 0.0, 1.677527759764491E9, 0.0, 2023-02-27 14:55:59.764
231.0, 8190.886162625095, 187500.0, 187500.0, 187500.0, -187500.02235174447, -187500.02235174447, -187500.02235174447, -187500.02235174447, 0.442, -0.028, 0.92, 192.0, 0.0, 0.0, 0.0, 0.0, 0.0, 0.0, 0.0, 0.0, 0.0, 1.677527759772352E9, 0.0, 2023-02-27 14:55:59.772
232.0, 6386.295722281423, 187500.0, 187500.0, 187500.0, -187500.02235174447, -187500.02235174447, -187500.02235174447, -187500.02235174447, 0.442, -0.028, 0.92, 192.0, 0.0, 0.0, 0.0, 0.0, 0.0, 0.0, 0.0, 0.0, 0.0, 1.677527759772376E9, 0.0, 2023-02-27 14:55:59.772
233.0, 7561.595149230379, 187500.0, 187500.0, 187500.0, -187500.02235174447, -187500.02235174447, -187500.02235174447, -187500.02235174447, 0.442, -0.028, 0.92, 192.0, 0.0, 0.0, 0.0, 0.0, 0.0, 0.0, 0.0, 0.0, 0.0, 1.677527759779572E9, 0.0, 2023-02-27 14:55:59.779
234.0, 7790.164088030349, 187500.0, 187500.0, 187500.0, -187500.02235174447, -187500.02235174447, -187500.02235174447, -187500.02235174447, 0.444, -0.028, 0.916, 192.0, 13.0, 224.0, 255.0, 32.0, 28.0, 160.0, 0.0, 0.0, 0.0, 1.677527759787532E9, 0.0, 2023-02-27 14:55:59.787
235.0, 6923.743417709282, 187500.0, 187500.0, 187500.0, -187500.02235174447, -187500.02235174447, -187500.02235174447, -187500.02235174447, 0.444, -0.028, 0.916, 192.0, 0.0, 0.0, 0.0, 0.0, 0.0, 0.0, 0.0, 0.0, 0.0, 1.677527759787549E9, 0.0, 2023-02-27 14:55:59.787
236.0, 7287.20513429703, 187500.0, 187500.0, 187500.0, -187500.02235174447, -187500.02235174447, -187500.02235174447, -187500.02235174447, 0.444, -0.028, 0.916, 192.0, 0.0, 0.0, 0.0, 0.0, 0.0, 0.0, 0.0, 0.0, 0.0, 1.677527759794051E9, 0.0, 2023-02-27 14:55:59.794
237.0, 8041.263585241269, 187500.0, 187500.0, 187500.0, -187500.02235174447, -187500.02235174447, -187500.02235174447, -187500.02235174447, 0.444, -0.028, 0.916, 192.0, 0.0, 0.0, 0.0, 0.0, 0.0, 0.0, 0.0, 0.0, 0.0, 1.677527759794066E9, 0.0, 2023-02-27 14:55:59.794
238.0, 7214.539613072827, 187500.0, 187500.0, 187500.0, -187500.02235174447, -187500.02235174447, -187500.02235174447, -187500.02235174447, 0.444, -0.028, 0.916, 192.0, 0.0, 0.0, 0.0, 0.0, 0.0, 0.0, 0.0, 0.0, 0.0, 1.677527759801981E9, 0.0, 2023-02-27 14:55:59.801
239.0, 7430.189243577629, 187500.0, 187500.0, 187500.0, -187500.02235174447, -187500.02235174447, -187500.02235174447, -187500.02235174447, 0.444, -0.028, 0.916, 192.0, 0.0, 0.0, 0.0, 0.0, 0.0, 0.0, 0.0, 0.0, 0.0, 1.677527759801995E9, 0.0, 2023-02-27 14:55:59.801
240.0, 7204.682493768036, 187500.0, 187500.0, 187500.0, -187500.02235174447, -187500.02235174447, -187500.02235174447, -187500.02235174447, 0.444, -0.028, 0.916, 192.0, 0.0, 0.0, 0.0, 0.0, 0.0, 0.0, 0.0, 0.0, 0.0, 1.677527759810187E9, 0.0, 2023-02-27 14:55:59.810
241.0, 8046.538596932722, 187500.0, 187500.0, 187500.0, -187500.02235174447, -187500.02235174447, -187500.02235174447, -187500.02235174447, 0.444, -0.028, 0.916, 192.0, 0.0, 0.0, 0.0, 0.0, 0.0, 0.0, 0.0, 0.0, 0.0, 1.677527759810209E9, 0.0, 2023-02-27 14:55:59.810
242.0, 8713.58170671245, 187500.0, 187500.0, 187500.0, -187500.02235174447, -187500.02235174447, -187500.02235174447, -187500.02235174447, 0.444, -0.028, 0.916, 192.0, 0.0, 0.0, 0.0, 0.0, 0.0, 0.0, 0.0, 0.0, 0.0, 1.677527759817245E9, 0.0, 2023-02-27 14:55:59.817
243.0, 5703.137004749418, 187500.0, 187500.0, 187500.0, -187500.02235174447, -187500.02235174447, -187500.02235174447, -187500.02235174447, 0.448, -0.028, 0.914, 192.0, 14.0, 0.0, 255.0, 32.0, 28.0, 144.0, 0.0, 0.0, 0.0, 1.677527759817263E9, 0.0, 2023-02-27 14:55:59.817
244.0, 6928.906670678458, 187500.0, 187500.0, 187500.0, -187500.02235174447, -187500.02235174447, -187500.02235174447, -187500.02235174447, 0.448, -0.028, 0.914, 192.0, 0.0, 0.0, 0.0, 0.0, 0.0, 0.0, 0.0, 0.0, 0.0, 1.677527759824817E9, 0.0, 2023-02-27 14:55:59.824
245.0, 8284.249399214912, 187500.0, 187500.0, 187500.0, -187500.02235174447, -187500.02235174447, -187500.02235174447, -187500.02235174447, 0.448, -0.028, 0.914, 192.0, 0.0, 0.0, 0.0, 0.0, 0.0, 0.0, 0.0, 0.0, 0.0, 1.677527759824842E9, 0.0, 2023-02-27 14:55:59.824
246.0, 8954.958195085312, 187500.0, 187500.0, 187500.0, -187500.02235174447, -187500.02235174447, -187500.02235174447, -187500.02235174447, 0.448, -0.028, 0.914, 192.0, 0.0, 0.0, 0.0, 0.0, 0.0, 0.0, 0.0, 0.0, 0.0, 1.677527759832705E9, 0.0, 2023-02-27 14:55:59.832
247.0, 6775.394889759409, 187500.0, 187500.0, 187500.0, -187500.02235174447, -187500.02235174447, -187500.02235174447, -187500.02235174447, 0.448, -0.028, 0.914, 192.0, 0.0, 0.0, 0.0, 0.0, 0.0, 0.0, 0.0, 0.0, 0.0, 1.677527759832764E9, 0.0, 2023-02-27 14:55:59.832
248.0, 6623.067751296491, 187500.0, 187500.0, 187500.0, -187500.02235174447, -187500.02235174447, -187500.02235174447, -187500.02235174447, 0.448, -0.028, 0.914, 192.0, 0.0, 0.0, 0.0, 0.0, 0.0, 0.0, 0.0, 0.0, 0.0, 1.677527759839698E9, 0.0, 2023-02-27 14:55:59.839
249.0, 8747.77987572907, 187500.0, 187500.0, 187500.0, -187500.02235174447, -187500.02235174447, -187500.02235174447, -187500.02235174447, 0.448, -0.028, 0.914, 192.0, 0.0, 0.0, 0.0, 0.0, 0.0, 0.0, 0.0, 0.0, 0.0, 1.677527759839716E9, 0.0, 2023-02-27 14:55:59.839
250.0, 7834.26407984067, 187500.0, 187500.0, 187500.0, -187500.02235174447, -187500.02235174447, -187500.02235174447, -187500.02235174447, 0.448, -0.028, 0.914, 192.0, 0.0, 0.0, 0.0, 0.0, 0.0, 0.0, 0.0, 0.0, 0.0, 1.677527759846828E9, 0.0, 2023-02-27 14:55:59.846
251.0, 5776.338967840549, 187500.0, 187500.0, 187500.0, -187500.02235174447, -187500.02235174447, -187500.02235174447, -187500.02235174447, 0.448, -0.028, 0.914, 192.0, 0.0, 0.0, 0.0, 0.0, 0.0, 0.0, 0.0, 0.0, 0.0, 1.677527759854345E9, 0.0, 2023-02-27 14:55:59.854
252.0, 7629.544452374513, 187500.0, 187500.0, 187500.0, -187500.02235174447, -187500.02235174447, -187500.02235174447, -187500.02235174447, 0.448, -0.028, 0.914, 192.0, 0.0, 0.0, 0.0, 0.0, 0.0, 0.0, 0.0, 0.0, 0.0, 1.677527759854373E9, 0.0, 2023-02-27 14:55:59.854
253.0, 8774.0208237196, 187500.0, 187500.0, 187500.0, -187500.02235174447, -187500.02235174447, -187500.02235174447, -187500.02235174447, 0.446, -0.032, 0.912, 192.0, 13.0, 240.0, 255.0, 0.0, 28.0, 128.0, 0.0, 0.0, 0.0, 1.677527759862271E9, 0.0, 2023-02-27 14:55:59.862
254.0, 7215.47838633995, 187500.0, 187500.0, 187500.0, -187500.02235174447, -187500.02235174447, -187500.02235174447, -187500.02235174447, 0.446, -0.032, 0.912, 192.0, 0.0, 0.0, 0.0, 0.0, 0.0, 0.0, 0.0, 0.0, 0.0, 1.677527759862292E9, 0.0, 2023-02-27 14:55:59.862
255.0, 7421.583821962336, 187500.0, 187500.0, 187500.0, -187500.02235174447, -187500.02235174447, -187500.02235174447, -187500.02235174447, 0.446, -0.032, 0.912, 192.0, 0.0, 0.0, 0.0, 0.0, 0.0, 0.0, 0.0, 0.0, 0.0, 1.6775277598694E9, 0.0, 2023-02-27 14:55:59.869
0.0, 6655.477780756686, 187500.0, 187500.0, 187500.0, -187500.02235174447, -187500.02235174447, -187500.02235174447, -187500.02235174447, 0.446, -0.032, 0.912, 192.0, 0.0, 0.0, 0.0, 0.0, 0.0, 0.0, 0.0, 0.0, 0.0, 1.677527759869423E9, 0.0, 2023-02-27 14:55:59.869
1.0, 7562.824495175421, 187500.0, 187500.0, 187500.0, -187500.02235174447, -187500.02235174447, -187500.02235174447, -187500.02235174447, 0.446, -0.032, 0.912, 192.0, 0.0, 0.0, 0.0, 0.0, 0.0, 0.0, 0.0, 0.0, 0.0, 1.677527759877056E9, 0.0, 2023-02-27 14:55:59.877
2.0, 7964.552398270655, 187500.0, 187500.0, 187500.0, -187500.02235174447, -187500.02235174447, -187500.02235174447, -187500.02235174447, 0.446, -0.032, 0.912, 192.0, 0.0, 0.0, 0.0, 0.0, 0.0, 0.0, 0.0, 0.0, 0.0, 1.67752775987707E9, 0.0, 2023-02-27 14:55:59.877
3.0, 8342.565100498809, 187500.0, 187500.0, 187500.0, -187500.02235174447, -187500.02235174447, -187500.02235174447, -187500.02235174447, 0.446, -0.032, 0.912, 192.0, 0.0, 0.0, 0.0, 0.0, 0.0, 0.0, 0.0, 0.0, 0.0, 1.677527759885127E9, 0.0, 2023-02-27 14:55:59.885
4.0, 8534.857158047815, 187500.0, 187500.0, 187500.0, -187500.02235174447, -187500.02235174447, -187500.02235174447, -187500.02235174447, 0.446, -0.032, 0.912, 192.0, 0.0, 0.0, 0.0, 0.0, 0.0, 0.0, 0.0, 0.0, 0.0, 1.677527759885147E9, 0.0, 2023-02-27 14:55:59.885
5.0, 7246.592014621737, 187500.0, 187500.0, 187500.0, -187500.02235174447, -187500.02235174447, -187500.02235174447, -187500.02235174447, 0.446, -0.032, 0.912, 192.0, 0.0, 0.0, 0.0, 0.0, 0.0, 0.0, 0.0, 0.0, 0.0, 1.677527759892975E9, 0.0, 2023-02-27 14:55:59.892
6.0, 7179.469726022449, 187500.0, 187500.0, 187500.0, -187500.02235174447, -187500.02235174447, -187500.02235174447, -187500.02235174447, 0.446, -0.032, 0.912, 192.0, 0.0, 0.0, 0.0, 0.0, 0.0, 0.0, 0.0, 0.0, 0.0, 1.67752775989299E9, 0.0, 2023-02-27 14:55:59.892
7.0, 7978.589293788588, 187500.0, 187500.0, 187500.0, -187500.02235174447, -187500.02235174447, -187500.02235174447, -187500.02235174447, 0.444, -0.03, 0.908, 192.0, 13.0, 224.0, 255.0, 16.0, 28.0, 96.0, 0.0, 0.0, 0.0, 1.677527759899994E9, 0.0, 2023-02-27 14:55:59.899
8.0, 9226.375428006104, 187500.0, 187500.0, 187500.0, -187500.02235174447, -187500.02235174447, -187500.02235174447, -187500.02235174447, 0.444, -0.03, 0.908, 192.0, 0.0, 0.0, 0.0, 0.0, 0.0, 0.0, 0.0, 0.0, 0.0, 1.677527759900015E9, 0.0, 2023-02-27 14:55:59.900
9.0, 6564.841456990416, 187500.0, 187500.0, 187500.0, -187500.02235174447, -187500.02235174447, -187500.02235174447, -187500.02235174447, 0.444, -0.03, 0.908, 192.0, 0.0, 0.0, 0.0, 0.0, 0.0, 0.0, 0.0, 0.0, 0.0, 1.677527759907221E9, 0.0, 2023-02-27 14:55:59.907
10.0, 5743.861883146988, 187500.0, 187500.0, 187500.0, -187500.02235174447, -187500.02235174447, -187500.02235174447, -187500.02235174447, 0.444, -0.03, 0.908, 192.0, 0.0, 0.0, 0.0, 0.0, 0.0, 0.0, 0.0, 0.0, 0.0, 1.677527759915179E9, 0.0, 2023-02-27 14:55:59.915
11.0, 8288.943265550526, 187500.0, 187500.0, 187500.0, -187500.02235174447, -187500.02235174447, -187500.02235174447, -187500.02235174447, 0.444, -0.03, 0.908, 192.0, 0.0, 0.0, 0.0, 0.0, 0.0, 0.0, 0.0, 0.0, 0.0, 1.677527759915191E9, 0.0, 2023-02-27 14:55:59.915
12.0, 8509.018541457479, 187500.0, 187500.0, 187500.0, -187500.02235174447, -187500.02235174447, -187500.02235174447, -187500.02235174447, 0.444, -0.03, 0.908, 192.0, 0.0, 0.0, 0.0, 0.0, 0.0, 0.0, 0.0, 0.0, 0.0, 1.677527759922677E9, 0.0, 2023-02-27 14:55:59.922
13.0, 7124.819710829224, 187500.0, 187500.0, 187500.0, -187500.02235174447, -187500.02235174447, -187500.02235174447, -187500.02235174447, 0.444, -0.03, 0.908, 192.0, 0.0, 0.0, 0.0, 0.0, 0.0, 0.0, 0.0, 0.0, 0.0, 1.6775277599227E9, 0.0, 2023-02-27 14:55:59.922
14.0, 6873.250826984743, 187500.0, 187500.0, 187500.0, -187500.02235174447, -187500.02235174447, -187500.02235174447, -187500.02235174447, 0.444, -0.03, 0.908, 192.0, 0.0, 0.0, 0.0, 0.0, 0.0, 0.0, 0.0, 0.0, 0.0, 1.677527759929188E9, 0.0, 2023-02-27 14:55:59.929
15.0, 8548.603480887828, 187500.0, 187500.0, 187500.0, -187500.02235174447, -187500.02235174447, -187500.02235174447, -187500.02235174447, 0.444, -0.03, 0.908, 192.0, 0.0, 0.0, 0.0, 0.0, 0.0, 0.0, 0.0, 0.0, 0.0, 1.677527759929208E9, 0.0, 2023-02-27 14:55:59.929
16.0, 8366.280301365889, 187500.0, 187500.0, 187500.0, -187500.02235174447, -187500.02235174447, -187500.02235174447, -187500.02235174447, 0.444, -0.03, 0.908, 192.0, 0.0, 0.0, 0.0, 0.0, 0.0, 0.0, 0.0, 0.0, 0.0, 1.677527759937367E9, 0.0, 2023-02-27 14:55:59.937
17.0, 7241.093485485731, 187500.0, 187500.0, 187500.0, -187500.02235174447, -187500.02235174447, -187500.02235174447, -187500.02235174447, 0.442, -0.03, 0.91, 192.0, 13.0, 208.0, 255.0, 16.0, 28.0, 112.0, 0.0, 0.0, 0.0, 1.677527759937382E9, 0.0, 2023-02-27 14:55:59.937
18.0, 7268.809648610312, 187500.0, 187500.0, 187500.0, -187500.02235174447, -187500.02235174447, -187500.02235174447, -187500.02235174447, 0.442, -0.03, 0.91, 192.0, 0.0, 0.0, 0.0, 0.0, 0.0, 0.0, 0.0, 0.0, 0.0, 1.677527759945214E9, 0.0, 2023-02-27 14:55:59.945
19.0, 8132.32459215219, 187500.0, 187500.0, 187500.0, -187500.02235174447, -187500.02235174447, -187500.02235174447, -187500.02235174447, 0.442, -0.03, 0.91, 192.0, 0.0, 0.0, 0.0, 0.0, 0.0, 0.0, 0.0, 0.0, 0.0, 1.677527759945235E9, 0.0, 2023-02-27 14:55:59.945
20.0, 8045.778637621241, 187500.0, 187500.0, 187500.0, -187500.02235174447, -187500.02235174447, -187500.02235174447, -187500.02235174447, 0.442, -0.03, 0.91, 192.0, 0.0, 0.0, 0.0, 0.0, 0.0, 0.0, 0.0, 0.0, 0.0, 1.67752775995238E9, 0.0, 2023-02-27 14:55:59.952
21.0, 8422.070255526336, 187500.0, 187500.0, 187500.0, -187500.02235174447, -187500.02235174447, -187500.02235174447, -187500.02235174447, 0.442, -0.03, 0.91, 192.0, 0.0, 0.0, 0.0, 0.0, 0.0, 0.0, 0.0, 0.0, 0.0, 1.677527759952402E9, 0.0, 2023-02-27 14:55:59.952
22.0, 6930.2254236013205, 187500.0, 187500.0, 187500.0, -187500.02235174447, -187500.02235174447, -187500.02235174447, -187500.02235174447, 0.442, -0.03, 0.91, 192.0, 0.0, 0.0, 0.0, 0.0, 0.0, 0.0, 0.0, 0.0, 0.0, 1.677527759959879E9, 0.0, 2023-02-27 14:55:59.959
23.0, 6413.788367961451, 187500.0, 187500.0, 187500.0, -187500.02235174447, -187500.02235174447, -187500.02235174447, -187500.02235174447, 0.442, -0.03, 0.91, 192.0, 0.0, 0.0, 0.0, 0.0, 0.0, 0.0, 0.0, 0.0, 0.0, 1.6775277599599E9, 0.0, 2023-02-27 14:55:59.959
24.0, 9212.115015043619, 187500.0, 187500.0, 187500.0, -187500.02235174447, -187500.02235174447, -187500.02235174447, -187500.02235174447, 0.442, -0.03, 0.91, 192.0, 0.0, 0.0, 0.0, 0.0, 0.0, 0.0, 0.0, 0.0, 0.0, 1.67752775996687E9, 0.0, 2023-02-27 14:55:59.966
25.0, 7951.543682997666, 187500.0, 187500.0, 187500.0, -187500.02235174447, -187500.02235174447, -187500.02235174447, -187500.02235174447, 0.442, -0.03, 0.91, 192.0, 0.0, 0.0, 0.0, 0.0, 0.0, 0.0, 0.0, 0.0, 0.0, 1.677527759974912E9, 0.0, 2023-02-27 14:55:59.974
26.0, 7588.730166999122, 187500.0, 187500.0, 187500.0, -187500.02235174447, -187500.02235174447, -187500.02235174447, -187500.02235174447, 0.442, -0.03, 0.91, 192.0, 0.0, 0.0, 0.0, 0.0, 0.0, 0.0, 0.0, 0.0, 0.0, 1.677527759974931E9, 0.0, 2023-02-27 14:55:59.974
27.0, 7107.1394809650765, 187500.0, 187500.0, 187500.0, -187500.02235174447, -187500.02235174447, -187500.02235174447, -187500.02235174447, 0.446, -0.03, 0.914, 192.0, 13.0, 240.0, 255.0, 16.0, 28.0, 144.0, 0.0, 0.0, 0.0, 1.677527759982015E9, 0.0, 2023-02-27 14:55:59.982
28.0, 6837.577442834073, 187500.0, 187500.0, 187500.0, -187500.02235174447, -187500.02235174447, -187500.02235174447, -187500.02235174447, 0.446, -0.03, 0.914, 192.0, 0.0, 0.0, 0.0, 0.0, 0.0, 0.0, 0.0, 0.0, 0.0, 1.677527759982036E9, 0.0, 2023-02-27 14:55:59.982
29.0, 8454.189712308611, 187500.0, 187500.0, 187500.0, -187500.02235174447, -187500.02235174447, -187500.02235174447, -187500.02235174447, 0.446, -0.03, 0.914, 192.0, 0.0, 0.0, 0.0, 0.0, 0.0, 0.0, 0.0, 0.0, 0.0, 1.677527759989556E9, 0.0, 2023-02-27 14:55:59.989
30.0, 9624.728217688587, 187500.0, 187500.0, 187500.0, -187500.02235174447, -187500.02235174447, -187500.02235174447, -187500.02235174447, 0.446, -0.03, 0.914, 192.0, 0.0, 0.0, 0.0, 0.0, 0.0, 0.0, 0.0, 0.0, 0.0, 1.677527759989582E9, 0.0, 2023-02-27 14:55:59.989
31.0, 7677.2207232976825, 187500.0, 187500.0, 187500.0, -187500.02235174447, -187500.02235174447, -187500.02235174447, -187500.02235174447, 0.446, -0.03, 0.914, 192.0, 0.0, 0.0, 0.0, 0.0, 0.0, 0.0, 0.0, 0.0, 0.0, 1.677527759997632E9, 0.0, 2023-02-27 14:55:59.997
32.0, 5960.56204564119, 187500.0, 187500.0, 187500.0, -187500.02235174447, -187500.02235174447, -187500.02235174447, -187500.02235174447, 0.446, -0.03, 0.914, 192.0, 0.0, 0.0, 0.0, 0.0, 0.0, 0.0, 0.0, 0.0, 0.0, 1.677527759997652E9, 0.0, 2023-02-27 14:55:59.997
33.0, 7477.619645311791, 187500.0, 187500.0, 187500.0, -187500.02235174447, -187500.02235174447, -187500.02235174447, -187500.02235174447, 0.446, -0.03, 0.914, 192.0, 0.0, 0.0, 0.0, 0.0, 0.0, 0.0, 0.0, 0.0, 0.0, 1.677527760005485E9, 0.0, 2023-02-27 14:56:00.005
34.0, 8157.224435475402, 187500.0, 187500.0, 187500.0, -187500.02235174447, -187500.02235174447, -187500.02235174447, -187500.02235174447, 0.446, -0.03, 0.914, 192.0, 0.0, 0.0, 0.0, 0.0, 0.0, 0.0, 0.0, 0.0, 0.0, 1.677527760005508E9, 0.0, 2023-02-27 14:56:00.005
35.0, 8552.537387911963, 187500.0, 187500.0, 187500.0, -187500.02235174447, -187500.02235174447, -187500.02235174447, -187500.02235174447, 0.446, -0.03, 0.914, 192.0, 0.0, 0.0, 0.0, 0.0, 0.0, 0.0, 0.0, 0.0, 0.0, 1.67752776001339E9, 0.0, 2023-02-27 14:56:00.013
36.0, 9545.156007427693, 187500.0, 187500.0, 187500.0, -187500.02235174447, -187500.02235174447, -187500.02235174447, -187500.02235174447, 0.442, -0.028, 0.916, 192.0, 13.0, 208.0, 255.0, 32.0, 28.0, 160.0, 0.0, 0.0, 0.0, 1.677527760013405E9, 0.0, 2023-02-27 14:56:00.013
37.0, 6055.959290976441, 187500.0, 187500.0, 187500.0, -187500.02235174447, -187500.02235174447, -187500.02235174447, -187500.02235174447, 0.442, -0.028, 0.916, 192.0, 0.0, 0.0, 0.0, 0.0, 0.0, 0.0, 0.0, 0.0, 0.0, 1.677527760020135E9, 0.0, 2023-02-27 14:56:00.020
38.0, 6662.563283749018, 187500.0, 187500.0, 187500.0, -187500.02235174447, -187500.02235174447, -187500.02235174447, -187500.02235174447, 0.442, -0.028, 0.916, 192.0, 0.0, 0.0, 0.0, 0.0, 0.0, 0.0, 0.0, 0.0, 0.0, 1.677527760020151E9, 0.0, 2023-02-27 14:56:00.020
39.0, 9059.921987047434, 187500.0, 187500.0, 187500.0, -187500.02235174447, -187500.02235174447, -187500.02235174447, -187500.02235174447, 0.442, -0.028, 0.916, 192.0, 0.0, 0.0, 0.0, 0.0, 0.0, 0.0, 0.0, 0.0, 0.0, 1.677527760027279E9, 0.0, 2023-02-27 14:56:00.027
40.0, 9288.736795036411, 187500.0, 187500.0, 187500.0, -187500.02235174447, -187500.02235174447, -187500.02235174447, -187500.02235174447, 0.442, -0.028, 0.916, 192.0, 0.0, 0.0, 0.0, 0.0, 0.0, 0.0, 0.0, 0.0, 0.0, 1.677527760035289E9, 0.0, 2023-02-27 14:56:00.035
41.0, 6557.979471442637, 187500.0, 187500.0, 187500.0, -187500.02235174447, -187500.02235174447, -187500.02235174447, -187500.02235174447, 0.442, -0.028, 0.916, 192.0, 0.0, 0.0, 0.0, 0.0, 0.0, 0.0, 0.0, 0.0, 0.0, 1.677527760035312E9, 0.0, 2023-02-27 14:56:00.035
42.0, 6878.704652631838, 187500.0, 187500.0, 187500.0, -187500.02235174447, -187500.02235174447, -187500.02235174447, -187500.02235174447, 0.442, -0.028, 0.916, 192.0, 0.0, 0.0, 0.0, 0.0, 0.0, 0.0, 0.0, 0.0, 0.0, 1.6775277600419E9, 0.0, 2023-02-27 14:56:00.041
43.0, 7767.767640086132, 187500.0, 187500.0, 187500.0, -187500.02235174447, -187500.02235174447, -187500.02235174447, -187500.02235174447, 0.442, -0.028, 0.916, 192.0, 0.0, 0.0, 0.0, 0.0, 0.0, 0.0, 0.0, 0.0, 0.0, 1.677527760041912E9, 0.0, 2023-02-27 14:56:00.041
44.0, 9034.798626279668, 187500.0, 187500.0, 187500.0, -187500.02235174447, -187500.02235174447, -187500.02235174447, -187500.02235174447, 0.442, -0.028, 0.916, 192.0, 0.0, 0.0, 0.0, 0.0, 0.0, 0.0, 0.0, 0.0, 0.0, 1.677527760052375E9, 0.0, 2023-02-27 14:56:00.052
45.0, 8224.994924663893, 187500.0, 187500.0, 187500.0, -187500.02235174447, -187500.02235174447, -187500.02235174447, -187500.02235174447, 0.442, -0.028, 0.916, 192.0, 0.0, 0.0, 0.0, 0.0, 0.0, 0.0, 0.0, 0.0, 0.0, 1.677527760052393E9, 0.0, 2023-02-27 14:56:00.052
46.0, 7385.530458155926, 187500.0, 187500.0, 187500.0, -187500.02235174447, -187500.02235174447, -187500.02235174447, -187500.02235174447, 0.45, -0.026000000000000002, 0.916, 192.0, 14.0, 16.0, 255.0, 48.0, 28.0, 160.0, 0.0, 0.0, 0.0, 1.677527760057862E9, 0.0, 2023-02-27 14:56:00.057
47.0, 6643.564300962008, 187500.0, 187500.0, 187500.0, -187500.02235174447, -187500.02235174447, -187500.02235174447, -187500.02235174447, 0.45, -0.026000000000000002, 0.916, 192.0, 0.0, 0.0, 0.0, 0.0, 0.0, 0.0, 0.0, 0.0, 0.0, 1.677527760057878E9, 0.0, 2023-02-27 14:56:00.057
48.0, 8042.850559097596, 187500.0, 187500.0, 187500.0, -187500.02235174447, -187500.02235174447, -187500.02235174447, -187500.02235174447, 0.45, -0.026000000000000002, 0.916, 192.0, 0.0, 0.0, 0.0, 0.0, 0.0, 0.0, 0.0, 0.0, 0.0, 1.677527760064362E9, 0.0, 2023-02-27 14:56:00.064
49.0, 7925.101569307038, 187500.0, 187500.0, 187500.0, -187500.02235174447, -187500.02235174447, -187500.02235174447, -187500.02235174447, 0.45, -0.026000000000000002, 0.916, 192.0, 0.0, 0.0, 0.0, 0.0, 0.0, 0.0, 0.0, 0.0, 0.0, 1.67752776006438E9, 0.0, 2023-02-27 14:56:00.064
50.0, 8775.719556298203, 187500.0, 187500.0, 187500.0, -187500.02235174447, -187500.02235174447, -187500.02235174447, -187500.02235174447, 0.45, -0.026000000000000002, 0.916, 192.0, 0.0, 0.0, 0.0, 0.0, 0.0, 0.0, 0.0, 0.0, 0.0, 1.677527760072298E9, 0.0, 2023-02-27 14:56:00.072
51.0, 8774.378451630886, 187500.0, 187500.0, 187500.0, -187500.02235174447, -187500.02235174447, -187500.02235174447, -187500.02235174447, 0.45, -0.026000000000000002, 0.916, 192.0, 0.0, 0.0, 0.0, 0.0, 0.0, 0.0, 0.0, 0.0, 0.0, 1.677527760072319E9, 0.0, 2023-02-27 14:56:00.072
52.0, 6070.15264870556, 187500.0, 187500.0, 187500.0, -187500.02235174447, -187500.02235174447, -187500.02235174447, -187500.02235174447, 0.45, -0.026000000000000002, 0.916, 192.0, 0.0, 0.0, 0.0, 0.0, 0.0, 0.0, 0.0, 0.0, 0.0, 1.677527760080391E9, 0.0, 2023-02-27 14:56:00.080
53.0, 7922.799339628142, 187500.0, 187500.0, 187500.0, -187500.02235174447, -187500.02235174447, -187500.02235174447, -187500.02235174447, 0.45, -0.026000000000000002, 0.916, 192.0, 0.0, 0.0, 0.0, 0.0, 0.0, 0.0, 0.0, 0.0, 0.0, 1.677527760080414E9, 0.0, 2023-02-27 14:56:00.080
54.0, 8412.615467621741, 187500.0, 187500.0, 187500.0, -187500.02235174447, -187500.02235174447, -187500.02235174447, -187500.02235174447, 0.45, -0.026000000000000002, 0.916, 192.0, 0.0, 0.0, 0.0, 0.0, 0.0, 0.0, 0.0, 0.0, 0.0, 1.677527760087591E9, 0.0, 2023-02-27 14:56:00.087
55.0, 6886.728928891293, 187500.0, 187500.0, 187500.0, -187500.02235174447, -187500.02235174447, -187500.02235174447, -187500.02235174447, 0.45, -0.026000000000000002, 0.916, 192.0, 0.0, 0.0, 0.0, 0.0, 0.0, 0.0, 0.0, 0.0, 0.0, 1.677527760087604E9, 0.0, 2023-02-27 14:56:00.087
56.0, 8032.568756648155, 187500.0, 187500.0, 187500.0, -187500.02235174447, -187500.02235174447, -187500.02235174447, -187500.02235174447, 0.448, -0.03, 0.914, 192.0, 14.0, 0.0, 255.0, 16.0, 28.0, 144.0, 0.0, 0.0, 0.0, 1.677527760094204E9, 0.0, 2023-02-27 14:56:00.094
57.0, 9569.98879551754, 187500.0, 187500.0, 187500.0, -187500.02235174447, -187500.02235174447, -187500.02235174447, -187500.02235174447, 0.448, -0.03, 0.914, 192.0, 0.0, 0.0, 0.0, 0.0, 0.0, 0.0, 0.0, 0.0, 0.0, 1.677527760102021E9, 0.0, 2023-02-27 14:56:00.102
58.0, 8417.555203146363, 187500.0, 187500.0, 187500.0, -187500.02235174447, -187500.02235174447, -187500.02235174447, -187500.02235174447, 0.448, -0.03, 0.914, 192.0, 0.0, 0.0, 0.0, 0.0, 0.0, 0.0, 0.0, 0.0, 0.0, 1.677527760102038E9, 0.0, 2023-02-27 14:56:00.102
59.0, 6748.058706290568, 187500.0, 187500.0, 187500.0, -187500.02235174447, -187500.02235174447, -187500.02235174447, -187500.02235174447, 0.448, -0.03, 0.914, 192.0, 0.0, 0.0, 0.0, 0.0, 0.0, 0.0, 0.0, 0.0, 0.0, 1.677527760109955E9, 0.0, 2023-02-27 14:56:00.109
60.0, 6873.5190479182065, 187500.0, 187500.0, 187500.0, -187500.02235174447, -187500.02235174447, -187500.02235174447, -187500.02235174447, 0.448, -0.03, 0.914, 192.0, 0.0, 0.0, 0.0, 0.0, 0.0, 0.0, 0.0, 0.0, 0.0, 1.677527760109972E9, 0.0, 2023-02-27 14:56:00.109
61.0, 8623.012438179545, 187500.0, 187500.0, 187500.0, -187500.02235174447, -187500.02235174447, -187500.02235174447, -187500.02235174447, 0.448, -0.03, 0.914, 192.0, 0.0, 0.0, 0.0, 0.0, 0.0, 0.0, 0.0, 0.0, 0.0, 1.677527760117028E9, 0.0, 2023-02-27 14:56:00.117
62.0, 10624.834671596846, 187500.0, 187500.0, 187500.0, -187500.02235174447, -187500.02235174447, -187500.02235174447, -187500.02235174447, 0.448, -0.03, 0.914, 192.0, 0.0, 0.0, 0.0, 0.0, 0.0, 0.0, 0.0, 0.0, 0.0, 1.677527760117048E9, 0.0, 2023-02-27 14:56:00.117
63.0, 7016.011418820789, 187500.0, 187500.0, 187500.0, -187500.02235174447, -187500.02235174447, -187500.02235174447, -187500.02235174447, 0.448, -0.03, 0.914, 192.0, 0.0, 0.0, 0.0, 0.0, 0.0, 0.0, 0.0, 0.0, 0.0, 1.677527760124648E9, 0.0, 2023-02-27 14:56:00.124
64.0, 6454.490894614565, 187500.0, 187500.0, 187500.0, -187500.02235174447, -187500.02235174447, -187500.02235174447, -187500.02235174447, 0.448, -0.03, 0.914, 192.0, 0.0, 0.0, 0.0, 0.0, 0.0, 0.0, 0.0, 0.0, 0.0, 1.677527760124668E9, 0.0, 2023-02-27 14:56:00.124
65.0, 7721.879508719387, 187500.0, 187500.0, 187500.0, -187500.02235174447, -187500.02235174447, -187500.02235174447, -187500.02235174447, 0.448, -0.03, 0.914, 192.0, 0.0, 0.0, 0.0, 0.0, 0.0, 0.0, 0.0, 0.0, 0.0, 1.677527760132699E9, 0.0, 2023-02-27 14:56:00.132
66.0, 8087.039957885738, 187500.0, 187500.0, 187500.0, -187500.02235174447, -187500.02235174447, -187500.02235174447, -187500.02235174447, 0.436, -0.032, 0.912, 192.0, 13.0, 160.0, 255.0, 0.0, 28.0, 128.0, 0.0, 0.0, 0.0, 1.677527760132713E9, 0.0, 2023-02-27 14:56:00.132
67.0, 10011.726321187774, 187500.0, 187500.0, 187500.0, -187500.02235174447, -187500.02235174447, -187500.02235174447, -187500.02235174447, 0.436, -0.032, 0.912, 192.0, 0.0, 0.0, 0.0, 0.0, 0.0, 0.0, 0.0, 0.0, 0.0, 1.677527760142103E9, 0.0, 2023-02-27 14:56:00.142
68.0, 7465.169723650185, 187500.0, 187500.0, 187500.0, -187500.02235174447, -187500.02235174447, -187500.02235174447, -187500.02235174447, 0.436, -0.032, 0.912, 192.0, 0.0, 0.0, 0.0, 0.0, 0.0, 0.0, 0.0, 0.0, 0.0, 1.677527760142121E9, 0.0, 2023-02-27 14:56:00.142
69.0, 6492.71237763314, 187500.0, 187500.0, 187500.0, -187500.02235174447, -187500.02235174447, -187500.02235174447, -187500.02235174447, 0.436, -0.032, 0.912, 192.0, 0.0, 0.0, 0.0, 0.0, 0.0, 0.0, 0.0, 0.0, 0.0, 1.677527760148319E9, 0.0, 2023-02-27 14:56:00.148
70.0, 8403.563011117341, 187500.0, 187500.0, 187500.0, -187500.02235174447, -187500.02235174447, -187500.02235174447, -187500.02235174447, 0.436, -0.032, 0.912, 192.0, 0.0, 0.0, 0.0, 0.0, 0.0, 0.0, 0.0, 0.0, 0.0, 1.677527760148336E9, 0.0, 2023-02-27 14:56:00.148
71.0, 9114.70611270739, 187500.0, 187500.0, 187500.0, -187500.02235174447, -187500.02235174447, -187500.02235174447, -187500.02235174447, 0.436, -0.032, 0.912, 192.0, 0.0, 0.0, 0.0, 0.0, 0.0, 0.0, 0.0, 0.0, 0.0, 1.677527760154564E9, 0.0, 2023-02-27 14:56:00.154
72.0, 7627.443388395714, 187500.0, 187500.0, 187500.0, -187500.02235174447, -187500.02235174447, -187500.02235174447, -187500.02235174447, 0.436, -0.032, 0.912, 192.0, 0.0, 0.0, 0.0, 0.0, 0.0, 0.0, 0.0, 0.0, 0.0, 1.677527760162389E9, 0.0, 2023-02-27 14:56:00.162
73.0, 7568.345376055882, 187500.0, 187500.0, 187500.0, -187500.02235174447, -187500.02235174447, -187500.02235174447, -187500.02235174447, 0.436, -0.032, 0.912, 192.0, 0.0, 0.0, 0.0, 0.0, 0.0, 0.0, 0.0, 0.0, 0.0, 1.677527760162417E9, 0.0, 2023-02-27 14:56:00.162
74.0, 7591.747652500589, 187500.0, 187500.0, 187500.0, -187500.02235174447, -187500.02235174447, -187500.02235174447, -187500.02235174447, 0.436, -0.032, 0.912, 192.0, 0.0, 0.0, 0.0, 0.0, 0.0, 0.0, 0.0, 0.0, 0.0, 1.677527760170294E9, 0.0, 2023-02-27 14:56:00.170
75.0, 8790.538762872073, 187500.0, 187500.0, 187500.0, -187500.02235174447, -187500.02235174447, -187500.02235174447, -187500.02235174447, 0.436, -0.032, 0.912, 192.0, 0.0, 0.0, 0.0, 0.0, 0.0, 0.0, 0.0, 0.0, 0.0, 1.67752776017032E9, 0.0, 2023-02-27 14:56:00.170
76.0, 8771.942111485258, 187500.0, 187500.0, 187500.0, -187500.02235174447, -187500.02235174447, -187500.02235174447, -187500.02235174447, 0.438, -0.026000000000000002, 0.91, 192.0, 13.0, 176.0, 255.0, 48.0, 28.0, 112.0, 0.0, 0.0, 0.0, 1.677527760176884E9, 0.0, 2023-02-27 14:56:00.176
77.0, 8504.123509421768, 187500.0, 187500.0, 187500.0, -187500.02235174447, -187500.02235174447, -187500.02235174447, -187500.02235174447, 0.438, -0.026000000000000002, 0.91, 192.0, 0.0, 0.0, 0.0, 0.0, 0.0, 0.0, 0.0, 0.0, 0.0, 1.677527760176902E9, 0.0, 2023-02-27 14:56:00.176
78.0, 8177.184543273991, 187500.0, 187500.0, 187500.0, -187500.02235174447, -187500.02235174447, -187500.02235174447, -187500.02235174447, 0.438, -0.026000000000000002, 0.91, 192.0, 0.0, 0.0, 0.0, 0.0, 0.0, 0.0, 0.0, 0.0, 0.0, 1.677527760184932E9, 0.0, 2023-02-27 14:56:00.184
79.0, 8007.087767969105, 187500.0, 187500.0, 187500.0, -187500.02235174447, -187500.02235174447, -187500.02235174447, -187500.02235174447, 0.438, -0.026000000000000002, 0.91, 192.0, 0.0, 0.0, 0.0, 0.0, 0.0, 0.0, 0.0, 0.0, 0.0, 1.677527760184943E9, 0.0, 2023-02-27 14:56:00.184
80.0, 7943.117075338016, 187500.0, 187500.0, 187500.0, -187500.02235174447, -187500.02235174447, -187500.02235174447, -187500.02235174447, 0.438, -0.026000000000000002, 0.91, 192.0, 0.0, 0.0, 0.0, 0.0, 0.0, 0.0, 0.0, 0.0, 0.0, 1.67752776019294E9, 0.0, 2023-02-27 14:56:00.192
81.0, 7613.160623688773, 187500.0, 187500.0, 187500.0, -187500.02235174447, -187500.02235174447, -187500.02235174447, -187500.02235174447, 0.438, -0.026000000000000002, 0.91, 192.0, 0.0, 0.0, 0.0, 0.0, 0.0, 0.0, 0.0, 0.0, 0.0, 1.677527760192956E9, 0.0, 2023-02-27 14:56:00.192
82.0, 8826.078036556011, 187500.0, 187500.0, 187500.0, -187500.02235174447, -187500.02235174447, -187500.02235174447, -187500.02235174447, 0.438, -0.026000000000000002, 0.91, 192.0, 0.0, 0.0, 0.0, 0.0, 0.0, 0.0, 0.0, 0.0, 0.0, 1.677527760199449E9, 0.0, 2023-02-27 14:56:00.199
83.0, 7174.552342242282, 187500.0, 187500.0, 187500.0, -187500.02235174447, -187500.02235174447, -187500.02235174447, -187500.02235174447, 0.438, -0.026000000000000002, 0.91, 192.0, 0.0, 0.0, 0.0, 0.0, 0.0, 0.0, 0.0, 0.0, 0.0, 1.677527760199461E9, 0.0, 2023-02-27 14:56:00.199
84.0, 7578.537771527502, 187500.0, 187500.0, 187500.0, -187500.02235174447, -187500.02235174447, -187500.02235174447, -187500.02235174447, 0.438, -0.026000000000000002, 0.91, 192.0, 0.0, 0.0, 0.0, 0.0, 0.0, 0.0, 0.0, 0.0, 0.0, 1.677527760207669E9, 0.0, 2023-02-27 14:56:00.207
85.0, 9561.718650069077, 187500.0, 187500.0, 187500.0, -187500.02235174447, -187500.02235174447, -187500.02235174447, -187500.02235174447, 0.438, -0.026000000000000002, 0.91, 192.0, 0.0, 0.0, 0.0, 0.0, 0.0, 0.0, 0.0, 0.0, 0.0, 1.677527760207691E9, 0.0, 2023-02-27 14:56:00.207
86.0, 8693.442784958219, 187500.0, 187500.0, 187500.0, -187500.02235174447, -187500.02235174447, -187500.02235174447, -187500.02235174447, 0.434, -0.022, 0.912, 192.0, 13.0, 144.0, 255.0, 80.0, 28.0, 128.0, 0.0, 0.0, 0.0, 1.677527760214575E9, 0.0, 2023-02-27 14:56:00.214
87.0, 6600.447785907721, 187500.0, 187500.0, 187500.0, -187500.02235174447, -187500.02235174447, -187500.02235174447, -187500.02235174447, 0.434, -0.022, 0.912, 192.0, 0.0, 0.0, 0.0, 0.0, 0.0, 0.0, 0.0, 0.0, 0.0, 1.677527760222547E9, 0.0, 2023-02-27 14:56:00.222
88.0, 6735.3405636954985, 187500.0, 187500.0, 187500.0, -187500.02235174447, -187500.02235174447, -187500.02235174447, -187500.02235174447, 0.434, -0.022, 0.912, 192.0, 0.0, 0.0, 0.0, 0.0, 0.0, 0.0, 0.0, 0.0, 0.0, 1.677527760222562E9, 0.0, 2023-02-27 14:56:00.222
89.0, 8277.409765411589, 187500.0, 187500.0, 187500.0, -187500.02235174447, -187500.02235174447, -187500.02235174447, -187500.02235174447, 0.434, -0.022, 0.912, 192.0, 0.0, 0.0, 0.0, 0.0, 0.0, 0.0, 0.0, 0.0, 0.0, 1.677527760229075E9, 0.0, 2023-02-27 14:56:00.229
90.0, 8549.966937299603, 187500.0, 187500.0, 187500.0, -187500.02235174447, -187500.02235174447, -187500.02235174447, -187500.02235174447, 0.434, -0.022, 0.912, 192.0, 0.0, 0.0, 0.0, 0.0, 0.0, 0.0, 0.0, 0.0, 0.0, 1.67752776022909E9, 0.0, 2023-02-27 14:56:00.229
91.0, 9603.225839522582, 187500.0, 187500.0, 187500.0, -187500.02235174447, -187500.02235174447, -187500.02235174447, -187500.02235174447, 0.434, -0.022, 0.912, 192.0, 0.0, 0.0, 0.0, 0.0, 0.0, 0.0, 0.0, 0.0, 0.0, 1.677527760237132E9, 0.0, 2023-02-27 14:56:00.237
92.0, 7696.867906673898, 187500.0, 187500.0, 187500.0, -187500.02235174447, -187500.02235174447, -187500.02235174447, -187500.02235174447, 0.434, -0.022, 0.912, 192.0, 0.0, 0.0, 0.0, 0.0, 0.0, 0.0, 0.0, 0.0, 0.0, 1.677527760237148E9, 0.0, 2023-02-27 14:56:00.237
93.0, 7328.444102817071, 187500.0, 187500.0, 187500.0, -187500.02235174447, -187500.02235174447, -187500.02235174447, -187500.02235174447, 0.434, -0.022, 0.912, 192.0, 0.0, 0.0, 0.0, 0.0, 0.0, 0.0, 0.0, 0.0, 0.0, 1.677527760245202E9, 0.0, 2023-02-27 14:56:00.245
94.0, 8111.917449464495, 187500.0, 187500.0, 187500.0, -187500.02235174447, -187500.02235174447, -187500.02235174447, -187500.02235174447, 0.434, -0.022, 0.912, 192.0, 0.0, 0.0, 0.0, 0.0, 0.0, 0.0, 0.0, 0.0, 0.0, 1.677527760245215E9, 0.0, 2023-02-27 14:56:00.245
95.0, 9594.195734762638, 187500.0, 187500.0, 187500.0, -187500.02235174447, -187500.02235174447, -187500.02235174447, -187500.02235174447, 0.44, -0.024, 0.916, 192.0, 13.0, 192.0, 255.0, 64.0, 28.0, 160.0, 0.0, 0.0, 0.0, 1.677527760252449E9, 0.0, 2023-02-27 14:56:00.252
96.0, 7568.703003967167, 187500.0, 187500.0, 187500.0, -187500.02235174447, -187500.02235174447, -187500.02235174447, -187500.02235174447, 0.44, -0.024, 0.916, 192.0, 0.0, 0.0, 0.0, 0.0, 0.0, 0.0, 0.0, 0.0, 0.0, 1.677527760252472E9, 0.0, 2023-02-27 14:56:00.252
97.0, 7105.150175708553, 187500.0, 187500.0, 187500.0, -187500.02235174447, -187500.02235174447, -187500.02235174447, -187500.02235174447, 0.44, -0.024, 0.916, 192.0, 0.0, 0.0, 0.0, 0.0, 0.0, 0.0, 0.0, 0.0, 0.0, 1.677527760259811E9, 0.0, 2023-02-27 14:56:00.259
98.0, 8713.693465434726, 187500.0, 187500.0, 187500.0, -187500.02235174447, -187500.02235174447, -187500.02235174447, -187500.02235174447, 0.44, -0.024, 0.916, 192.0, 0.0, 0.0, 0.0, 0.0, 0.0, 0.0, 0.0, 0.0, 0.0, 1.677527760259845E9, 0.0, 2023-02-27 14:56:00.259
99.0, 10149.234253076822, 187500.0, 187500.0, 187500.0, -187500.02235174447, -187500.02235174447, -187500.02235174447, -187500.02235174447, 0.44, -0.024, 0.916, 192.0, 0.0, 0.0, 0.0, 0.0, 0.0, 0.0, 0.0, 0.0, 0.0, 1.677527760267852E9, 0.0, 2023-02-27 14:56:00.267
100.0, 7757.418782403324, 187500.0, 187500.0, 187500.0, -187500.02235174447, -187500.02235174447, -187500.02235174447, -187500.02235174447, 0.44, -0.024, 0.916, 192.0, 0.0, 0.0, 0.0, 0.0, 0.0, 0.0, 0.0, 0.0, 0.0, 1.677527760267873E9, 0.0, 2023-02-27 14:56:00.267
101.0, 6969.944473498402, 187500.0, 187500.0, 187500.0, -187500.02235174447, -187500.02235174447, -187500.02235174447, -187500.02235174447, 0.44, -0.024, 0.916, 192.0, 0.0, 0.0, 0.0, 0.0, 0.0, 0.0, 0.0, 0.0, 0.0, 1.677527760274909E9, 0.0, 2023-02-27 14:56:00.274
102.0, 8173.720022883418, 187500.0, 187500.0, 187500.0, -187500.02235174447, -187500.02235174447, -187500.02235174447, -187500.02235174447, 0.44, -0.024, 0.916, 192.0, 0.0, 0.0, 0.0, 0.0, 0.0, 0.0, 0.0, 0.0, 0.0, 1.677527760281858E9, 0.0, 2023-02-27 14:56:00.281
103.0, 9442.15916897764, 187500.0, 187500.0, 187500.0, -187500.02235174447, -187500.02235174447, -187500.02235174447, -187500.02235174447, 0.44, -0.024, 0.916, 192.0, 0.0, 0.0, 0.0, 0.0, 0.0, 0.0, 0.0, 0.0, 0.0, 1.677527760281874E9, 0.0, 2023-02-27 14:56:00.281
104.0, 7531.196776771161, 187500.0, 187500.0, 187500.0, -187500.02235174447, -187500.02235174447, -187500.02235174447, -187500.02235174447, 0.44, -0.024, 0.916, 192.0, 0.0, 0.0, 0.0, 0.0, 0.0, 0.0, 0.0, 0.0, 0.0, 1.677527760289595E9, 0.0, 2023-02-27 14:56:00.289
105.0, 7076.696405016948, 187500.0, 187500.0, 187500.0, -187500.02235174447, -187500.02235174447, -187500.02235174447, -187500.02235174447, 0.44, -0.02, 0.916, 192.0, 13.0, 192.0, 255.0, 96.0, 28.0, 160.0, 0.0, 0.0, 0.0, 1.677527760289607E9, 0.0, 2023-02-27 14:56:00.289
106.0, 8979.522762241693, 187500.0, 187500.0, 187500.0, -187500.02235174447, -187500.02235174447, -187500.02235174447, -187500.02235174447, 0.44, -0.02, 0.916, 192.0, 0.0, 0.0, 0.0, 0.0, 0.0, 0.0, 0.0, 0.0, 0.0, 1.677527760297549E9, 0.0, 2023-02-27 14:56:00.297
107.0, 8941.658907134402, 187500.0, 187500.0, 187500.0, -187500.02235174447, -187500.02235174447, -187500.02235174447, -187500.02235174447, 0.44, -0.02, 0.916, 192.0, 0.0, 0.0, 0.0, 0.0, 0.0, 0.0, 0.0, 0.0, 0.0, 1.67752776029758E9, 0.0, 2023-02-27 14:56:00.297
108.0, 7857.979280707751, 187500.0, 187500.0, 187500.0, -187500.02235174447, -187500.02235174447, -187500.02235174447, -187500.02235174447, 0.44, -0.02, 0.916, 192.0, 0.0, 0.0, 0.0, 0.0, 0.0, 0.0, 0.0, 0.0, 0.0, 1.677527760305393E9, 0.0, 2023-02-27 14:56:00.305
109.0, 8713.514651479085, 187500.0, 187500.0, 187500.0, -187500.02235174447, -187500.02235174447, -187500.02235174447, -187500.02235174447, 0.44, -0.02, 0.916, 192.0, 0.0, 0.0, 0.0, 0.0, 0.0, 0.0, 0.0, 0.0, 0.0, 1.677527760305415E9, 0.0, 2023-02-27 14:56:00.305
110.0, 8339.905242908626, 187500.0, 187500.0, 187500.0, -187500.02235174447, -187500.02235174447, -187500.02235174447, -187500.02235174447, 0.44, -0.02, 0.916, 192.0, 0.0, 0.0, 0.0, 0.0, 0.0, 0.0, 0.0, 0.0, 0.0, 1.67752776031205E9, 0.0, 2023-02-27 14:56:00.312
111.0, 7636.495844900113, 187500.0, 187500.0, 187500.0, -187500.02235174447, -187500.02235174447, -187500.02235174447, -187500.02235174447, 0.44, -0.02, 0.916, 192.0, 0.0, 0.0, 0.0, 0.0, 0.0, 0.0, 0.0, 0.0, 0.0, 1.677527760312068E9, 0.0, 2023-02-27 14:56:00.312
112.0, 7617.385103390826, 187500.0, 187500.0, 187500.0, -187500.02235174447, -187500.02235174447, -187500.02235174447, -187500.02235174447, 0.44, -0.02, 0.916, 192.0, 0.0, 0.0, 0.0, 0.0, 0.0, 0.0, 0.0, 0.0, 0.0, 1.677527760320166E9, 0.0, 2023-02-27 14:56:00.320
113.0, 8330.405751515122, 187500.0, 187500.0, 187500.0, -187500.02235174447, -187500.02235174447, -187500.02235174447, -187500.02235174447, 0.44, -0.02, 0.916, 192.0, 0.0, 0.0, 0.0, 0.0, 0.0, 0.0, 0.0, 0.0, 0.0, 1.677527760320183E9, 0.0, 2023-02-27 14:56:00.320
114.0, 10006.02662635167, 187500.0, 187500.0, 187500.0, -187500.02235174447, -187500.02235174447, -187500.02235174447, -187500.02235174447, 0.44, -0.02, 0.916, 192.0, 0.0, 0.0, 0.0, 0.0, 0.0, 0.0, 0.0, 0.0, 0.0, 1.677527760328177E9, 0.0, 2023-02-27 14:56:00.328
115.0, 6845.69112607135, 187500.0, 187500.0, 187500.0, -187500.02235174447, -187500.02235174447, -187500.02235174447, -187500.02235174447, 0.44, -0.018000000000000002, 0.914, 192.0, 13.0, 192.0, 255.0, 112.0, 28.0, 144.0, 0.0, 0.0, 0.0, 1.677527760328192E9, 0.0, 2023-02-27 14:56:00.328
116.0, 7840.500216543701, 187500.0, 187500.0, 187500.0, -187500.02235174447, -187500.02235174447, -187500.02235174447, -187500.02235174447, 0.44, -0.018000000000000002, 0.914, 192.0, 0.0, 0.0, 0.0, 0.0, 0.0, 0.0, 0.0, 0.0, 0.0, 1.677527760334142E9, 0.0, 2023-02-27 14:56:00.334
117.0, 9663.284976873992, 187500.0, 187500.0, 187500.0, -187500.02235174447, -187500.02235174447, -187500.02235174447, -187500.02235174447, 0.44, -0.018000000000000002, 0.914, 192.0, 0.0, 0.0, 0.0, 0.0, 0.0, 0.0, 0.0, 0.0, 0.0, 1.677527760334158E9, 0.0, 2023-02-27 14:56:00.334
118.0, 7954.494113265767, 187500.0, 187500.0, 187500.0, -187500.02235174447, -187500.02235174447, -187500.02235174447, -187500.02235174447, 0.44, -0.018000000000000002, 0.914, 192.0, 0.0, 0.0, 0.0, 0.0, 0.0, 0.0, 0.0, 0.0, 0.0, 1.677527760341643E9, 0.0, 2023-02-27 14:56:00.341
119.0, 7242.903976786612, 187500.0, 187500.0, 187500.0, -187500.02235174447, -187500.02235174447, -187500.02235174447, -187500.02235174447, 0.44, -0.018000000000000002, 0.914, 192.0, 0.0, 0.0, 0.0, 0.0, 0.0, 0.0, 0.0, 0.0, 0.0, 1.677527760349781E9, 0.0, 2023-02-27 14:56:00.349
120.0, 8855.537635748105, 187500.0, 187500.0, 187500.0, -187500.02235174447, -187500.02235174447, -187500.02235174447, -187500.02235174447, 0.44, -0.018000000000000002, 0.914, 192.0, 0.0, 0.0, 0.0, 0.0, 0.0, 0.0, 0.0, 0.0, 0.0, 1.677527760349796E9, 0.0, 2023-02-27 14:56:00.349
121.0, 8198.150479573069, 187500.0, 187500.0, 187500.0, -187500.02235174447, -187500.02235174447, -187500.02235174447, -187500.02235174447, 0.44, -0.018000000000000002, 0.914, 192.0, 0.0, 0.0, 0.0, 0.0, 0.0, 0.0, 0.0, 0.0, 0.0, 1.677527760357731E9, 0.0, 2023-02-27 14:56:00.357
122.0, 7641.189711235727, 187500.0, 187500.0, 187500.0, -187500.02235174447, -187500.02235174447, -187500.02235174447, -187500.02235174447, 0.44, -0.018000000000000002, 0.914, 192.0, 0.0, 0.0, 0.0, 0.0, 0.0, 0.0, 0.0, 0.0, 0.0, 1.677527760357743E9, 0.0, 2023-02-27 14:56:00.357
123.0, 8938.820235588579, 187500.0, 187500.0, 187500.0, -187500.02235174447, -187500.02235174447, -187500.02235174447, -187500.02235174447, 0.44, -0.018000000000000002, 0.914, 192.0, 0.0, 0.0, 0.0, 0.0, 0.0, 0.0, 0.0, 0.0, 0.0, 1.67752776036438E9, 0.0, 2023-02-27 14:56:00.364
124.0, 8564.339108984364, 187500.0, 187500.0, 187500.0, -187500.02235174447, -187500.02235174447, -187500.02235174447, -187500.02235174447, 0.44, -0.018000000000000002, 0.914, 192.0, 0.0, 0.0, 0.0, 0.0, 0.0, 0.0, 0.0, 0.0, 0.0, 1.677527760364396E9, 0.0, 2023-02-27 14:56:00.364
125.0, 8648.51577860305, 187500.0, 187500.0, 187500.0, -187500.02235174447, -187500.02235174447, -187500.02235174447, -187500.02235174447, 0.446, -0.02, 0.912, 192.0, 13.0, 240.0, 255.0, 96.0, 28.0, 128.0, 0.0, 0.0, 0.0, 1.67752776037237E9, 0.0, 2023-02-27 14:56:00.372
126.0, 8315.161861796601, 187500.0, 187500.0, 187500.0, -187500.02235174447, -187500.02235174447, -187500.02235174447, -187500.02235174447, 0.446, -0.02, 0.912, 192.0, 0.0, 0.0, 0.0, 0.0, 0.0, 0.0, 0.0, 0.0, 0.0, 1.677527760372389E9, 0.0, 2023-02-27 14:56:00.372
127.0, 8155.682165107985, 187500.0, 187500.0, 187500.0, -187500.02235174447, -187500.02235174447, -187500.02235174447, -187500.02235174447, 0.446, -0.02, 0.912, 192.0, 0.0, 0.0, 0.0, 0.0, 0.0, 0.0, 0.0, 0.0, 0.0, 1.677527760380425E9, 0.0, 2023-02-27 14:56:00.380
128.0, 8738.72741922467, 187500.0, 187500.0, 187500.0, -187500.02235174447, -187500.02235174447, -187500.02235174447, -187500.02235174447, 0.446, -0.02, 0.912, 192.0, 0.0, 0.0, 0.0, 0.0, 0.0, 0.0, 0.0, 0.0, 0.0, 1.677527760380445E9, 0.0, 2023-02-27 14:56:00.380
129.0, 9106.726539936846, 187500.0, 187500.0, 187500.0, -187500.02235174447, -187500.02235174447, -187500.02235174447, -187500.02235174447, 0.446, -0.02, 0.912, 192.0, 0.0, 0.0, 0.0, 0.0, 0.0, 0.0, 0.0, 0.0, 0.0, 1.677527760387433E9, 0.0, 2023-02-27 14:56:00.387
130.0, 6383.278236779957, 187500.0, 187500.0, 187500.0, -187500.02235174447, -187500.02235174447, -187500.02235174447, -187500.02235174447, 0.446, -0.02, 0.912, 192.0, 0.0, 0.0, 0.0, 0.0, 0.0, 0.0, 0.0, 0.0, 0.0, 1.677527760387455E9, 0.0, 2023-02-27 14:56:00.387
131.0, 7997.923552742429, 187500.0, 187500.0, 187500.0, -187500.02235174447, -187500.02235174447, -187500.02235174447, -187500.02235174447, 0.446, -0.02, 0.912, 192.0, 0.0, 0.0, 0.0, 0.0, 0.0, 0.0, 0.0, 0.0, 0.0, 1.677527760395043E9, 0.0, 2023-02-27 14:56:00.395
132.0, 9965.659375865385, 187500.0, 187500.0, 187500.0, -187500.02235174447, -187500.02235174447, -187500.02235174447, -187500.02235174447, 0.446, -0.02, 0.912, 192.0, 0.0, 0.0, 0.0, 0.0, 0.0, 0.0, 0.0, 0.0, 0.0, 1.677527760395059E9, 0.0, 2023-02-27 14:56:00.395
133.0, 8139.544205611254, 187500.0, 187500.0, 187500.0, -187500.02235174447, -187500.02235174447, -187500.02235174447, -187500.02235174447, 0.446, -0.02, 0.912, 192.0, 0.0, 0.0, 0.0, 0.0, 0.0, 0.0, 0.0, 0.0, 0.0, 1.677527760402186E9, 0.0, 2023-02-27 14:56:00.402
134.0, 7740.3196978950145, 187500.0, 187500.0, 187500.0, -187500.02235174447, -187500.02235174447, -187500.02235174447, -187500.02235174447, 0.446, -0.02, 0.912, 192.0, 0.0, 0.0, 0.0, 0.0, 0.0, 0.0, 0.0, 0.0, 0.0, 1.677527760410046E9, 0.0, 2023-02-27 14:56:00.410
135.0, 7358.328385153817, 187500.0, 187500.0, 187500.0, -187500.02235174447, -187500.02235174447, -187500.02235174447, -187500.02235174447, 0.446, -0.022, 0.912, 192.0, 13.0, 240.0, 255.0, 80.0, 28.0, 128.0, 0.0, 0.0, 0.0, 1.677527760410063E9, 0.0, 2023-02-27 14:56:00.410
136.0, 9992.369710489478, 187500.0, 187500.0, 187500.0, -187500.02235174447, -187500.02235174447, -187500.02235174447, -187500.02235174447, 0.446, -0.022, 0.912, 192.0, 0.0, 0.0, 0.0, 0.0, 0.0, 0.0, 0.0, 0.0, 0.0, 1.677527760416951E9, 0.0, 2023-02-27 14:56:00.416
137.0, 9897.486555276699, 187500.0, 187500.0, 187500.0, -187500.02235174447, -187500.02235174447, -187500.02235174447, -187500.02235174447, 0.446, -0.022, 0.912, 192.0, 0.0, 0.0, 0.0, 0.0, 0.0, 0.0, 0.0, 0.0, 0.0, 1.677527760416968E9, 0.0, 2023-02-27 14:56:00.416
138.0, 5803.876317009487, 187500.0, 187500.0, 187500.0, -187500.02235174447, -187500.02235174447, -187500.02235174447, -187500.02235174447, 0.446, -0.022, 0.912, 192.0, 0.0, 0.0, 0.0, 0.0, 0.0, 0.0, 0.0, 0.0, 0.0, 1.677527760424779E9, 0.0, 2023-02-27 14:56:00.424
139.0, 7632.047847753507, 187500.0, 187500.0, 187500.0, -187500.02235174447, -187500.02235174447, -187500.02235174447, -187500.02235174447, 0.446, -0.022, 0.912, 192.0, 0.0, 0.0, 0.0, 0.0, 0.0, 0.0, 0.0, 0.0, 0.0, 1.677527760424797E9, 0.0, 2023-02-27 14:56:00.424
140.0, 8831.353048247463, 187500.0, 187500.0, 187500.0, -187500.02235174447, -187500.02235174447, -187500.02235174447, -187500.02235174447, 0.446, -0.022, 0.912, 192.0, 0.0, 0.0, 0.0, 0.0, 0.0, 0.0, 0.0, 0.0, 0.0, 1.677527760432675E9, 0.0, 2023-02-27 14:56:00.432
141.0, 9789.170001646282, 187500.0, 187500.0, 187500.0, -187500.02235174447, -187500.02235174447, -187500.02235174447, -187500.02235174447, 0.446, -0.022, 0.912, 192.0, 0.0, 0.0, 0.0, 0.0, 0.0, 0.0, 0.0, 0.0, 0.0, 1.677527760432697E9, 0.0, 2023-02-27 14:56:00.432
142.0, 7782.050404793073, 187500.0, 187500.0, 187500.0, -187500.02235174447, -187500.02235174447, -187500.02235174447, -187500.02235174447, 0.446, -0.022, 0.912, 192.0, 0.0, 0.0, 0.0, 0.0, 0.0, 0.0, 0.0, 0.0, 0.0, 1.677527760440645E9, 0.0, 2023-02-27 14:56:00.440
143.0, 7628.963307018675, 187500.0, 187500.0, 187500.0, -187500.02235174447, -187500.02235174447, -187500.02235174447, -187500.02235174447, 0.446, -0.022, 0.912, 192.0, 0.0, 0.0, 0.0, 0.0, 0.0, 0.0, 0.0, 0.0, 0.0, 1.677527760440661E9, 0.0, 2023-02-27 14:56:00.440
144.0, 7754.960090513241, 187500.0, 187500.0, 187500.0, -187500.02235174447, -187500.02235174447, -187500.02235174447, -187500.02235174447, 0.446, -0.022, 0.912, 192.0, 0.0, 0.0, 0.0, 0.0, 0.0, 0.0, 0.0, 0.0, 0.0, 1.677527760447308E9, 0.0, 2023-02-27 14:56:00.447
145.0, 8236.349610847188, 187500.0, 187500.0, 187500.0, -187500.02235174447, -187500.02235174447, -187500.02235174447, -187500.02235174447, 0.448, -0.024, 0.908, 192.0, 14.0, 0.0, 255.0, 64.0, 28.0, 96.0, 0.0, 0.0, 0.0, 1.677527760447326E9, 0.0, 2023-02-27 14:56:00.447
146.0, 9746.277004036547, 187500.0, 187500.0, 187500.0, -187500.02235174447, -187500.02235174447, -187500.02235174447, -187500.02235174447, 0.448, -0.024, 0.908, 192.0, 0.0, 0.0, 0.0, 0.0, 0.0, 0.0, 0.0, 0.0, 0.0, 1.677527760455302E9, 0.0, 2023-02-27 14:56:00.455
147.0, 9580.27059796698, 187500.0, 187500.0, 187500.0, -187500.02235174447, -187500.02235174447, -187500.02235174447, -187500.02235174447, 0.448, -0.024, 0.908, 192.0, 0.0, 0.0, 0.0, 0.0, 0.0, 0.0, 0.0, 0.0, 0.0, 1.677527760455319E9, 0.0, 2023-02-27 14:56:00.455
148.0, 6580.532381598042, 187500.0, 187500.0, 187500.0, -187500.02235174447, -187500.02235174447, -187500.02235174447, -187500.02235174447, 0.448, -0.024, 0.908, 192.0, 0.0, 0.0, 0.0, 0.0, 0.0, 0.0, 0.0, 0.0, 0.0, 1.677527760462394E9, 0.0, 2023-02-27 14:56:00.462
149.0, 8074.813553668685, 187500.0, 187500.0, 187500.0, -187500.02235174447, -187500.02235174447, -187500.02235174447, -187500.02235174447, 0.448, -0.024, 0.908, 192.0, 0.0, 0.0, 0.0, 0.0, 0.0, 0.0, 0.0, 0.0, 0.0, 1.67752776046932E9, 0.0, 2023-02-27 14:56:00.469
150.0, 8396.61161859174, 187500.0, 187500.0, 187500.0, -187500.02235174447, -187500.02235174447, -187500.02235174447, -187500.02235174447, 0.448, -0.024, 0.908, 192.0, 0.0, 0.0, 0.0, 0.0, 0.0, 0.0, 0.0, 0.0, 0.0, 1.677527760469338E9, 0.0, 2023-02-27 14:56:00.469
151.0, 8736.894576179335, 187500.0, 187500.0, 187500.0, -187500.02235174447, -187500.02235174447, -187500.02235174447, -187500.02235174447, 0.448, -0.024, 0.908, 192.0, 0.0, 0.0, 0.0, 0.0, 0.0, 0.0, 0.0, 0.0, 0.0, 1.677527760476982E9, 0.0, 2023-02-27 14:56:00.476
152.0, 9124.943211667922, 187500.0, 187500.0, 187500.0, -187500.02235174447, -187500.02235174447, -187500.02235174447, -187500.02235174447, 0.448, -0.024, 0.908, 192.0, 0.0, 0.0, 0.0, 0.0, 0.0, 0.0, 0.0, 0.0, 0.0, 1.677527760477005E9, 0.0, 2023-02-27 14:56:00.477
153.0, 9226.487186728382, 187500.0, 187500.0, 187500.0, -187500.02235174447, -187500.02235174447, -187500.02235174447, -187500.02235174447, 0.448, -0.024, 0.908, 192.0, 0.0, 0.0, 0.0, 0.0, 0.0, 0.0, 0.0, 0.0, 0.0, 1.677527760485461E9, 0.0, 2023-02-27 14:56:00.485
154.0, 7436.492435514026, 187500.0, 187500.0, 187500.0, -187500.02235174447, -187500.02235174447, -187500.02235174447, -187500.02235174447, 0.448, -0.026000000000000002, 0.91, 192.0, 14.0, 0.0, 255.0, 48.0, 28.0, 112.0, 0.0, 0.0, 0.0, 1.677527760485479E9, 0.0, 2023-02-27 14:56:00.485
155.0, 7604.0187602065525, 187500.0, 187500.0, 187500.0, -187500.02235174447, -187500.02235174447, -187500.02235174447, -187500.02235174447, 0.448, -0.026000000000000002, 0.91, 192.0, 0.0, 0.0, 0.0, 0.0, 0.0, 0.0, 0.0, 0.0, 0.0, 1.677527760493271E9, 0.0, 2023-02-27 14:56:00.493
156.0, 8873.08375514552, 187500.0, 187500.0, 187500.0, -187500.02235174447, -187500.02235174447, -187500.02235174447, -187500.02235174447, 0.448, -0.026000000000000002, 0.91, 192.0, 0.0, 0.0, 0.0, 0.0, 0.0, 0.0, 0.0, 0.0, 0.0, 1.677527760493284E9, 0.0, 2023-02-27 14:56:00.493
157.0, 8296.274637731867, 187500.0, 187500.0, 187500.0, -187500.02235174447, -187500.02235174447, -187500.02235174447, -187500.02235174447, 0.448, -0.026000000000000002, 0.91, 192.0, 0.0, 0.0, 0.0, 0.0, 0.0, 0.0, 0.0, 0.0, 0.0, 1.677527760499457E9, 0.0, 2023-02-27 14:56:00.499
158.0, 8691.967569824168, 187500.0, 187500.0, 187500.0, -187500.02235174447, -187500.02235174447, -187500.02235174447, -187500.02235174447, 0.448, -0.026000000000000002, 0.91, 192.0, 0.0, 0.0, 0.0, 0.0, 0.0, 0.0, 0.0, 0.0, 0.0, 1.677527760499475E9, 0.0, 2023-02-27 14:56:00.499
159.0, 8075.908789146994, 187500.0, 187500.0, 187500.0, -187500.02235174447, -187500.02235174447, -187500.02235174447, -187500.02235174447, 0.448, -0.026000000000000002, 0.91, 192.0, 0.0, 0.0, 0.0, 0.0, 0.0, 0.0, 0.0, 0.0, 0.0, 1.677527760507533E9, 0.0, 2023-02-27 14:56:00.507
160.0, 7128.999487042366, 187500.0, 187500.0, 187500.0, -187500.02235174447, -187500.02235174447, -187500.02235174447, -187500.02235174447, 0.448, -0.026000000000000002, 0.91, 192.0, 0.0, 0.0, 0.0, 0.0, 0.0, 0.0, 0.0, 0.0, 0.0, 1.677527760507545E9, 0.0, 2023-02-27 14:56:00.507
161.0, 9115.913106907978, 187500.0, 187500.0, 187500.0, -187500.02235174447, -187500.02235174447, -187500.02235174447, -187500.02235174447, 0.448, -0.026000000000000002, 0.91, 192.0, 0.0, 0.0, 0.0, 0.0, 0.0, 0.0, 0.0, 0.0, 0.0, 1.67752776051551E9, 0.0, 2023-02-27 14:56:00.515
162.0, 9068.505056918271, 187500.0, 187500.0, 187500.0, -187500.02235174447, -187500.02235174447, -187500.02235174447, -187500.02235174447, 0.448, -0.026000000000000002, 0.91, 192.0, 0.0, 0.0, 0.0, 0.0, 0.0, 0.0, 0.0, 0.0, 0.0, 1.677527760515536E9, 0.0, 2023-02-27 14:56:00.515
163.0, 8617.223336365621, 187500.0, 187500.0, 187500.0, -187500.02235174447, -187500.02235174447, -187500.02235174447, -187500.02235174447, 0.448, -0.026000000000000002, 0.91, 192.0, 0.0, 0.0, 0.0, 0.0, 0.0, 0.0, 0.0, 0.0, 0.0, 1.677527760522525E9, 0.0, 2023-02-27 14:56:00.522
164.0, 9263.769896479833, 187500.0, 187500.0, 187500.0, -187500.02235174447, -187500.02235174447, -187500.02235174447, -187500.02235174447, 0.446, -0.026000000000000002, 0.912, 192.0, 13.0, 240.0, 255.0, 48.0, 28.0, 128.0, 0.0, 0.0, 0.0, 1.677527760529134E9, 0.0, 2023-02-27 14:56:00.529
165.0, 8258.343727391211, 187500.0, 187500.0, 187500.0, -187500.02235174447, -187500.02235174447, -187500.02235174447, -187500.02235174447, 0.446, -0.026000000000000002, 0.912, 192.0, 0.0, 0.0, 0.0, 0.0, 0.0, 0.0, 0.0, 0.0, 0.0, 1.67752776052916E9, 0.0, 2023-02-27 14:56:00.529
166.0, 8214.064921625248, 187500.0, 187500.0, 187500.0, -187500.02235174447, -187500.02235174447, -187500.02235174447, -187500.02235174447, 0.446, -0.026000000000000002, 0.912, 192.0, 0.0, 0.0, 0.0, 0.0, 0.0, 0.0, 0.0, 0.0, 0.0, 1.67752776053731E9, 0.0, 2023-02-27 14:56:00.537
167.0, 8496.613323284784, 187500.0, 187500.0, 187500.0, -187500.02235174447, -187500.02235174447, -187500.02235174447, -187500.02235174447, 0.446, -0.026000000000000002, 0.912, 192.0, 0.0, 0.0, 0.0, 0.0, 0.0, 0.0, 0.0, 0.0, 0.0, 1.677527760537323E9, 0.0, 2023-02-27 14:56:00.537
168.0, 7400.282609496428, 187500.0, 187500.0, 187500.0, -187500.02235174447, -187500.02235174447, -187500.02235174447, -187500.02235174447, 0.446, -0.026000000000000002, 0.912, 192.0, 0.0, 0.0, 0.0, 0.0, 0.0, 0.0, 0.0, 0.0, 0.0, 1.677527760545203E9, 0.0, 2023-02-27 14:56:00.545
169.0, 9401.85897372472, 187500.0, 187500.0, 187500.0, -187500.02235174447, -187500.02235174447, -187500.02235174447, -187500.02235174447, 0.446, -0.026000000000000002, 0.912, 192.0, 0.0, 0.0, 0.0, 0.0, 0.0, 0.0, 0.0, 0.0, 0.0, 1.677527760545217E9, 0.0, 2023-02-27 14:56:00.545
170.0, 9692.118727221337, 187500.0, 187500.0, 187500.0, -187500.02235174447, -187500.02235174447, -187500.02235174447, -187500.02235174447, 0.446, -0.026000000000000002, 0.912, 192.0, 0.0, 0.0, 0.0, 0.0, 0.0, 0.0, 0.0, 0.0, 0.0, 1.677527760552329E9, 0.0, 2023-02-27 14:56:00.552
171.0, 7149.943071596989, 187500.0, 187500.0, 187500.0, -187500.02235174447, -187500.02235174447, -187500.02235174447, -187500.02235174447, 0.446, -0.026000000000000002, 0.912, 192.0, 0.0, 0.0, 0.0, 0.0, 0.0, 0.0, 0.0, 0.0, 0.0, 1.677527760552342E9, 0.0, 2023-02-27 14:56:00.552
172.0, 8556.381887958276, 187500.0, 187500.0, 187500.0, -187500.02235174447, -187500.02235174447, -187500.02235174447, -187500.02235174447, 0.446, -0.026000000000000002, 0.912, 192.0, 0.0, 0.0, 0.0, 0.0, 0.0, 0.0, 0.0, 0.0, 0.0, 1.677527760559877E9, 0.0, 2023-02-27 14:56:00.559
173.0, 8947.045677548133, 187500.0, 187500.0, 187500.0, -187500.02235174447, -187500.02235174447, -187500.02235174447, -187500.02235174447, 0.446, -0.026000000000000002, 0.912, 192.0, 0.0, 0.0, 0.0, 0.0, 0.0, 0.0, 0.0, 0.0, 0.0, 1.6775277605599E9, 0.0, 2023-02-27 14:56:00.559
174.0, 8964.860017879011, 187500.0, 187500.0, 187500.0, -187500.02235174447, -187500.02235174447, -187500.02235174447, -187500.02235174447, 0.442, -0.028, 0.912, 192.0, 13.0, 208.0, 255.0, 32.0, 28.0, 128.0, 0.0, 0.0, 0.0, 1.677527760567952E9, 0.0, 2023-02-27 14:56:00.567
175.0, 7906.057883031116, 187500.0, 187500.0, 187500.0, -187500.02235174447, -187500.02235174447, -187500.02235174447, -187500.02235174447, 0.442, -0.028, 0.912, 192.0, 0.0, 0.0, 0.0, 0.0, 0.0, 0.0, 0.0, 0.0, 0.0, 1.677527760567973E9, 0.0, 2023-02-27 14:56:00.567
176.0, 8254.007488966881, 187500.0, 187500.0, 187500.0, -187500.02235174447, -187500.02235174447, -187500.02235174447, -187500.02235174447, 0.442, -0.028, 0.912, 192.0, 0.0, 0.0, 0.0, 0.0, 0.0, 0.0, 0.0, 0.0, 0.0, 1.677527760575891E9, 0.0, 2023-02-27 14:56:00.575
177.0, 8447.797113394394, 187500.0, 187500.0, 187500.0, -187500.02235174447, -187500.02235174447, -187500.02235174447, -187500.02235174447, 0.442, -0.028, 0.912, 192.0, 0.0, 0.0, 0.0, 0.0, 0.0, 0.0, 0.0, 0.0, 0.0, 1.677527760575905E9, 0.0, 2023-02-27 14:56:00.575
178.0, 7767.432363919302, 187500.0, 187500.0, 187500.0, -187500.02235174447, -187500.02235174447, -187500.02235174447, -187500.02235174447, 0.442, -0.028, 0.912, 192.0, 0.0, 0.0, 0.0, 0.0, 0.0, 0.0, 0.0, 0.0, 0.0, 1.677527760581947E9, 0.0, 2023-02-27 14:56:00.581
179.0, 8723.237660317143, 187500.0, 187500.0, 187500.0, -187500.02235174447, -187500.02235174447, -187500.02235174447, -187500.02235174447, 0.442, -0.028, 0.912, 192.0, 0.0, 0.0, 0.0, 0.0, 0.0, 0.0, 0.0, 0.0, 0.0, 1.677527760581958E9, 0.0, 2023-02-27 14:56:00.581
180.0, 9470.098849546774, 187500.0, 187500.0, 187500.0, -187500.02235174447, -187500.02235174447, -187500.02235174447, -187500.02235174447, 0.442, -0.028, 0.912, 192.0, 0.0, 0.0, 0.0, 0.0, 0.0, 0.0, 0.0, 0.0, 0.0, 1.677527760589383E9, 0.0, 2023-02-27 14:56:00.589
181.0, 8778.468820866206, 187500.0, 187500.0, 187500.0, -187500.02235174447, -187500.02235174447, -187500.02235174447, -187500.02235174447, 0.442, -0.028, 0.912, 192.0, 0.0, 0.0, 0.0, 0.0, 0.0, 0.0, 0.0, 0.0, 0.0, 1.677527760597423E9, 0.0, 2023-02-27 14:56:00.597
182.0, 8046.471541699356, 187500.0, 187500.0, 187500.0, -187500.02235174447, -187500.02235174447, -187500.02235174447, -187500.02235174447, 0.442, -0.028, 0.912, 192.0, 0.0, 0.0, 0.0, 0.0, 0.0, 0.0, 0.0, 0.0, 0.0, 1.677527760597439E9, 0.0, 2023-02-27 14:56:00.597
183.0, 8270.97246300846, 187500.0, 187500.0, 187500.0, -187500.02235174447, -187500.02235174447, -187500.02235174447, -187500.02235174447, 0.442, -0.028, 0.912, 192.0, 0.0, 0.0, 0.0, 0.0, 0.0, 0.0, 0.0, 0.0, 0.0, 1.677527760606006E9, 0.0, 2023-02-27 14:56:00.606
184.0, 8435.86128185526, 187500.0, 187500.0, 187500.0, -187500.02235174447, -187500.02235174447, -187500.02235174447, -187500.02235174447, 0.444, -0.028, 0.91, 192.0, 13.0, 224.0, 255.0, 32.0, 28.0, 112.0, 0.0, 0.0, 0.0, 1.677527760606028E9, 0.0, 2023-02-27 14:56:00.606
185.0, 8469.992395638514, 187500.0, 187500.0, 187500.0, -187500.02235174447, -187500.02235174447, -187500.02235174447, -187500.02235174447, 0.444, -0.028, 0.91, 192.0, 0.0, 0.0, 0.0, 0.0, 0.0, 0.0, 0.0, 0.0, 0.0, 1.677527760612296E9, 0.0, 2023-02-27 14:56:00.612
186.0, 8161.046583777259, 187500.0, 187500.0, 187500.0, -187500.02235174447, -187500.02235174447, -187500.02235174447, -187500.02235174447, 0.444, -0.028, 0.91, 192.0, 0.0, 0.0, 0.0, 0.0, 0.0, 0.0, 0.0, 0.0, 0.0, 1.67752776061231E9, 0.0, 2023-02-27 14:56:00.612
187.0, 8839.913766373846, 187500.0, 187500.0, 187500.0, -187500.02235174447, -187500.02235174447, -187500.02235174447, -187500.02235174447, 0.444, -0.028, 0.91, 192.0, 0.0, 0.0, 0.0, 0.0, 0.0, 0.0, 0.0, 0.0, 0.0, 1.677527760619962E9, 0.0, 2023-02-27 14:56:00.619
188.0, 9129.480615792349, 187500.0, 187500.0, 187500.0, -187500.02235174447, -187500.02235174447, -187500.02235174447, -187500.02235174447, 0.444, -0.028, 0.91, 192.0, 0.0, 0.0, 0.0, 0.0, 0.0, 0.0, 0.0, 0.0, 0.0, 1.677527760619974E9, 0.0, 2023-02-27 14:56:00.619
