%OpenBCI Raw EEG Data
%Number of channels = 8
%Sample Rate = 250 Hz
%Board = OpenBCI_GUI$BoardCytonSerial
Sample Index, EXG Channel 0, EXG Channel 1, EXG Channel 2, EXG Channel 3, EXG Channel 4, EXG Channel 5, EXG Channel 6, EXG Channel 7, Accel Channel 0, Accel Channel 1, Accel Channel 2, Other, Other, Other, Other, Other, Other, Other, Analog Channel 0, Analog Channel 1, Analog Channel 2, Timestamp, Other, Timestamp (Formatted)
64.0, 4070.610293222701, 187500.0, 187500.0, 187500.0, -187500.02235174447, -187500.02235174447, -187500.02235174447, -187500.02235174447, 0.0, 0.0, 0.0, 192.0, 0.0, 0.0, 0.0, 0.0, 0.0, 0.0, 0.0, 0.0, 0.0, 1.677527925489155E9, 0.0, 2023-02-27 14:58:45.489
65.0, 4051.4324964800476, 187500.0, 187500.0, 187500.0, -187500.02235174447, -187500.02235174447, -187500.02235174447, -187500.02235174447, 0.0, 0.0, 0.0, 192.0, 0.0, 0.0, 0.0, 0.0, 0.0, 0.0, 0.0, 0.0, 0.0, 1.677527925489173E9, 0.0, 2023-02-27 14:58:45.489
66.0, 4022.4869874104247, 187500.0, 187500.0, 187500.0, -187500.02235174447, -187500.02235174447, -187500.02235174447, -187500.02235174447, 0.0, 0.0, 0.0, 192.0, 0.0, 0.0, 0.0, 0.0, 0.0, 0.0, 0.0, 0.0, 0.0, 1.677527925489182E9, 0.0, 2023-02-27 14:58:45.489
67.0, 4031.2712229813606, 187500.0, 187500.0, 187500.0, -187500.02235174447, -187500.02235174447, -187500.02235174447, -187500.02235174447, 0.0, 0.0, 0.0, 192.0, 0.0, 0.0, 0.0, 0.0, 0.0, 0.0, 0.0, 0.0, 0.0, 1.677527925489192E9, 0.0, 2023-02-27 14:58:45.489
1.0, 6587.64023633483, 187500.0, 187500.0, 187500.0, -187500.02235174447, -187500.02235174447, -187500.02235174447, -187500.02235174447, 0.0, 0.0, 0.0, 192.0, 0.0, 0.0, 0.0, 0.0, 0.0, 0.0, 0.0, 0.0, 0.0, 1.677527925608725E9, 0.0, 2023-02-27 14:58:45.608
2.0, 5074.136564032622, 187500.0, 187500.0, 187500.0, -187500.02235174447, -187500.02235174447, -187500.02235174447, -187500.02235174447, 0.0, 0.0, 0.0, 192.0, 0.0, 0.0, 0.0, 0.0, 0.0, 0.0, 0.0, 0.0, 0.0, 1.677527925608747E9, 0.0, 2023-02-27 14:58:45.608
3.0, 5118.862404687691, 187500.0, 187500.0, 187500.0, -187500.02235174447, -187500.02235174447, -187500.02235174447, -187500.02235174447, 0.0, 0.0, 0.0, 192.0, 0.0, 0.0, 0.0, 0.0, 0.0, 0.0, 0.0, 0.0, 0.0, 1.677527925616E9, 0.0, 2023-02-27 14:58:45.616
4.0, 4015.848519307199, 187500.0, 187500.0, 187500.0, -187500.02235174447, -187500.02235174447, -187500.02235174447, -187500.02235174447, 0.0, 0.0, 0.0, 192.0, 0.0, 0.0, 0.0, 0.0, 0.0, 0.0, 0.0, 0.0, 0.0, 1.677527925616027E9, 0.0, 2023-02-27 14:58:45.616
5.0, 4556.917197336817, 187500.0, 187500.0, 187500.0, -187500.02235174447, -187500.02235174447, -187500.02235174447, -187500.02235174447, 0.0, 0.0, 0.0, 192.0, 0.0, 0.0, 0.0, 0.0, 0.0, 0.0, 0.0, 0.0, 0.0, 1.677527925622658E9, 0.0, 2023-02-27 14:58:45.622
6.0, 5574.659177620313, 187500.0, 187500.0, 187500.0, -187500.02235174447, -187500.02235174447, -187500.02235174447, -187500.02235174447, 0.0, 0.0, 0.0, 192.0, 0.0, 0.0, 0.0, 0.0, 0.0, 0.0, 0.0, 0.0, 0.0, 1.677527925630482E9, 0.0, 2023-02-27 14:58:45.630
7.0, 6018.564822502712, 187500.0, 187500.0, 187500.0, -187500.02235174447, -187500.02235174447, -187500.02235174447, -187500.02235174447, 0.0, 0.0, 0.0, 192.0, 0.0, 0.0, 0.0, 0.0, 0.0, 0.0, 0.0, 0.0, 0.0, 1.677527925630494E9, 0.0, 2023-02-27 14:58:45.630
8.0, 5755.32832805256, 187500.0, 187500.0, 187500.0, -187500.02235174447, -187500.02235174447, -187500.02235174447, -187500.02235174447, 0.442, -0.03, 0.91, 192.0, 13.0, 208.0, 255.0, 16.0, 28.0, 112.0, 0.0, 0.0, 0.0, 1.677527925638484E9, 0.0, 2023-02-27 14:58:45.638
9.0, 4002.9739145009416, 187500.0, 187500.0, 187500.0, -187500.02235174447, -187500.02235174447, -187500.02235174447, -187500.02235174447, 0.442, -0.03, 0.91, 192.0, 0.0, 0.0, 0.0, 0.0, 0.0, 0.0, 0.0, 0.0, 0.0, 1.677527925638499E9, 0.0, 2023-02-27 14:58:45.638
10.0, 4591.3835872869, 187500.0, 187500.0, 187500.0, -187500.02235174447, -187500.02235174447, -187500.02235174447, -187500.02235174447, 0.442, -0.03, 0.91, 192.0, 0.0, 0.0, 0.0, 0.0, 0.0, 0.0, 0.0, 0.0, 0.0, 1.677527925645409E9, 0.0, 2023-02-27 14:58:45.645
11.0, 5712.837661843021, 187500.0, 187500.0, 187500.0, -187500.02235174447, -187500.02235174447, -187500.02235174447, -187500.02235174447, 0.442, -0.03, 0.91, 192.0, 0.0, 0.0, 0.0, 0.0, 0.0, 0.0, 0.0, 0.0, 0.0, 1.677527925645424E9, 0.0, 2023-02-27 14:58:45.645
12.0, 5548.150008696319, 187500.0, 187500.0, 187500.0, -187500.02235174447, -187500.02235174447, -187500.02235174447, -187500.02235174447, 0.442, -0.03, 0.91, 192.0, 0.0, 0.0, 0.0, 0.0, 0.0, 0.0, 0.0, 0.0, 0.0, 1.677527925653091E9, 0.0, 2023-02-27 14:58:45.653
13.0, 5451.434010438205, 187500.0, 187500.0, 187500.0, -187500.02235174447, -187500.02235174447, -187500.02235174447, -187500.02235174447, 0.442, -0.03, 0.91, 192.0, 0.0, 0.0, 0.0, 0.0, 0.0, 0.0, 0.0, 0.0, 0.0, 1.677527925653171E9, 0.0, 2023-02-27 14:58:45.653
14.0, 5387.642131762759, 187500.0, 187500.0, 187500.0, -187500.02235174447, -187500.02235174447, -187500.02235174447, -187500.02235174447, 0.442, -0.03, 0.91, 192.0, 0.0, 0.0, 0.0, 0.0, 0.0, 0.0, 0.0, 0.0, 0.0, 1.677527925661225E9, 0.0, 2023-02-27 14:58:45.661
15.0, 4966.244693546855, 187500.0, 187500.0, 187500.0, -187500.02235174447, -187500.02235174447, -187500.02235174447, -187500.02235174447, 0.442, -0.03, 0.91, 192.0, 0.0, 0.0, 0.0, 0.0, 0.0, 0.0, 0.0, 0.0, 0.0, 1.677527925661248E9, 0.0, 2023-02-27 14:58:45.661
16.0, 4857.168180604956, 187500.0, 187500.0, 187500.0, -187500.02235174447, -187500.02235174447, -187500.02235174447, -187500.02235174447, 0.442, -0.03, 0.91, 192.0, 0.0, 0.0, 0.0, 0.0, 0.0, 0.0, 0.0, 0.0, 0.0, 1.677527925669144E9, 0.0, 2023-02-27 14:58:45.669
17.0, 5476.6691299282475, 187500.0, 187500.0, 187500.0, -187500.02235174447, -187500.02235174447, -187500.02235174447, -187500.02235174447, 0.45, -0.028, 0.914, 192.0, 14.0, 16.0, 255.0, 32.0, 28.0, 144.0, 0.0, 0.0, 0.0, 1.677527925669167E9, 0.0, 2023-02-27 14:58:45.669
18.0, 4635.885910497416, 187500.0, 187500.0, 187500.0, -187500.02235174447, -187500.02235174447, -187500.02235174447, -187500.02235174447, 0.45, -0.028, 0.914, 192.0, 0.0, 0.0, 0.0, 0.0, 0.0, 0.0, 0.0, 0.0, 0.0, 1.677527925675661E9, 0.0, 2023-02-27 14:58:45.675
19.0, 5113.587392996239, 187500.0, 187500.0, 187500.0, -187500.02235174447, -187500.02235174447, -187500.02235174447, -187500.02235174447, 0.45, -0.028, 0.914, 192.0, 0.0, 0.0, 0.0, 0.0, 0.0, 0.0, 0.0, 0.0, 0.0, 1.677527925675675E9, 0.0, 2023-02-27 14:58:45.675
20.0, 5508.0733308879535, 187500.0, 187500.0, 187500.0, -187500.02235174447, -187500.02235174447, -187500.02235174447, -187500.02235174447, 0.45, -0.028, 0.914, 192.0, 0.0, 0.0, 0.0, 0.0, 0.0, 0.0, 0.0, 0.0, 0.0, 1.677527925682695E9, 0.0, 2023-02-27 14:58:45.682
21.0, 4658.774096819651, 187500.0, 187500.0, 187500.0, -187500.02235174447, -187500.02235174447, -187500.02235174447, -187500.02235174447, 0.45, -0.028, 0.914, 192.0, 0.0, 0.0, 0.0, 0.0, 0.0, 0.0, 0.0, 0.0, 0.0, 1.677527925690727E9, 0.0, 2023-02-27 14:58:45.690
22.0, 5096.7118259324825, 187500.0, 187500.0, 187500.0, -187500.02235174447, -187500.02235174447, -187500.02235174447, -187500.02235174447, 0.45, -0.028, 0.914, 192.0, 0.0, 0.0, 0.0, 0.0, 0.0, 0.0, 0.0, 0.0, 0.0, 1.677527925690753E9, 0.0, 2023-02-27 14:58:45.690
23.0, 5454.675013384225, 187500.0, 187500.0, 187500.0, -187500.02235174447, -187500.02235174447, -187500.02235174447, -187500.02235174447, 0.45, -0.028, 0.914, 192.0, 0.0, 0.0, 0.0, 0.0, 0.0, 0.0, 0.0, 0.0, 0.0, 1.677527925698742E9, 0.0, 2023-02-27 14:58:45.698
24.0, 6343.268614204957, 187500.0, 187500.0, 187500.0, -187500.02235174447, -187500.02235174447, -187500.02235174447, -187500.02235174447, 0.45, -0.028, 0.914, 192.0, 0.0, 0.0, 0.0, 0.0, 0.0, 0.0, 0.0, 0.0, 0.0, 1.677527925698764E9, 0.0, 2023-02-27 14:58:45.698
25.0, 4212.767387958454, 187500.0, 187500.0, 187500.0, -187500.02235174447, -187500.02235174447, -187500.02235174447, -187500.02235174447, 0.45, -0.028, 0.914, 192.0, 0.0, 0.0, 0.0, 0.0, 0.0, 0.0, 0.0, 0.0, 0.0, 1.67752792570553E9, 0.0, 2023-02-27 14:58:45.705
26.0, 4907.861937029593, 187500.0, 187500.0, 187500.0, -187500.02235174447, -187500.02235174447, -187500.02235174447, -187500.02235174447, 0.45, -0.028, 0.914, 192.0, 0.0, 0.0, 0.0, 0.0, 0.0, 0.0, 0.0, 0.0, 0.0, 1.677527925705546E9, 0.0, 2023-02-27 14:58:45.705
27.0, 5569.607683373414, 187500.0, 187500.0, 187500.0, -187500.02235174447, -187500.02235174447, -187500.02235174447, -187500.02235174447, 0.448, -0.03, 0.916, 192.0, 14.0, 0.0, 255.0, 16.0, 28.0, 160.0, 0.0, 0.0, 0.0, 1.67752792571338E9, 0.0, 2023-02-27 14:58:45.713
28.0, 5303.845441799813, 187500.0, 187500.0, 187500.0, -187500.02235174447, -187500.02235174447, -187500.02235174447, -187500.02235174447, 0.448, -0.03, 0.916, 192.0, 0.0, 0.0, 0.0, 0.0, 0.0, 0.0, 0.0, 0.0, 0.0, 1.67752792571344E9, 0.0, 2023-02-27 14:58:45.713
29.0, 5009.405912090053, 187500.0, 187500.0, 187500.0, -187500.02235174447, -187500.02235174447, -187500.02235174447, -187500.02235174447, 0.448, -0.03, 0.916, 192.0, 0.0, 0.0, 0.0, 0.0, 0.0, 0.0, 0.0, 0.0, 0.0, 1.677527925721411E9, 0.0, 2023-02-27 14:58:45.721
30.0, 6734.1112177504565, 187500.0, 187500.0, 187500.0, -187500.02235174447, -187500.02235174447, -187500.02235174447, -187500.02235174447, 0.448, -0.03, 0.916, 192.0, 0.0, 0.0, 0.0, 0.0, 0.0, 0.0, 0.0, 0.0, 0.0, 1.677527925721426E9, 0.0, 2023-02-27 14:58:45.721
31.0, 5202.50263243945, 187500.0, 187500.0, 187500.0, -187500.02235174447, -187500.02235174447, -187500.02235174447, -187500.02235174447, 0.448, -0.03, 0.916, 192.0, 0.0, 0.0, 0.0, 0.0, 0.0, 0.0, 0.0, 0.0, 0.0, 1.677527925727914E9, 0.0, 2023-02-27 14:58:45.727
32.0, 4849.523884001242, 187500.0, 187500.0, 187500.0, -187500.02235174447, -187500.02235174447, -187500.02235174447, -187500.02235174447, 0.448, -0.03, 0.916, 192.0, 0.0, 0.0, 0.0, 0.0, 0.0, 0.0, 0.0, 0.0, 0.0, 1.677527925727937E9, 0.0, 2023-02-27 14:58:45.727
33.0, 5109.854651672203, 187500.0, 187500.0, 187500.0, -187500.02235174447, -187500.02235174447, -187500.02235174447, -187500.02235174447, 0.448, -0.03, 0.916, 192.0, 0.0, 0.0, 0.0, 0.0, 0.0, 0.0, 0.0, 0.0, 0.0, 1.677527925735925E9, 0.0, 2023-02-27 14:58:45.735
34.0, 4946.955138081925, 187500.0, 187500.0, 187500.0, -187500.02235174447, -187500.02235174447, -187500.02235174447, -187500.02235174447, 0.448, -0.03, 0.916, 192.0, 0.0, 0.0, 0.0, 0.0, 0.0, 0.0, 0.0, 0.0, 0.0, 1.677527925735951E9, 0.0, 2023-02-27 14:58:45.735
35.0, 5529.843929987423, 187500.0, 187500.0, 187500.0, -187500.02235174447, -187500.02235174447, -187500.02235174447, -187500.02235174447, 0.448, -0.03, 0.916, 192.0, 0.0, 0.0, 0.0, 0.0, 0.0, 0.0, 0.0, 0.0, 0.0, 1.677527925742956E9, 0.0, 2023-02-27 14:58:45.742
36.0, 5781.301055109627, 187500.0, 187500.0, 187500.0, -187500.02235174447, -187500.02235174447, -187500.02235174447, -187500.02235174447, 0.448, -0.03, 0.916, 192.0, 0.0, 0.0, 0.0, 0.0, 0.0, 0.0, 0.0, 0.0, 0.0, 1.677527925751152E9, 0.0, 2023-02-27 14:58:45.751
37.0, 5715.206946755284, 187500.0, 187500.0, 187500.0, -187500.02235174447, -187500.02235174447, -187500.02235174447, -187500.02235174447, 0.442, -0.022, 0.916, 192.0, 13.0, 208.0, 255.0, 80.0, 28.0, 160.0, 0.0, 0.0, 0.0, 1.677527925751165E9, 0.0, 2023-02-27 14:58:45.751
38.0, 6090.962122793451, 187500.0, 187500.0, 187500.0, -187500.02235174447, -187500.02235174447, -187500.02235174447, -187500.02235174447, 0.442, -0.022, 0.916, 192.0, 0.0, 0.0, 0.0, 0.0, 0.0, 0.0, 0.0, 0.0, 0.0, 1.677527925757656E9, 0.0, 2023-02-27 14:58:45.757
39.0, 5788.498316824236, 187500.0, 187500.0, 187500.0, -187500.02235174447, -187500.02235174447, -187500.02235174447, -187500.02235174447, 0.442, -0.022, 0.916, 192.0, 0.0, 0.0, 0.0, 0.0, 0.0, 0.0, 0.0, 0.0, 0.0, 1.677527925757667E9, 0.0, 2023-02-27 14:58:45.757
40.0, 4602.62651474792, 187500.0, 187500.0, 187500.0, -187500.02235174447, -187500.02235174447, -187500.02235174447, -187500.02235174447, 0.442, -0.022, 0.916, 192.0, 0.0, 0.0, 0.0, 0.0, 0.0, 0.0, 0.0, 0.0, 0.0, 1.677527925765635E9, 0.0, 2023-02-27 14:58:45.765
41.0, 5458.564216919448, 187500.0, 187500.0, 187500.0, -187500.02235174447, -187500.02235174447, -187500.02235174447, -187500.02235174447, 0.442, -0.022, 0.916, 192.0, 0.0, 0.0, 0.0, 0.0, 0.0, 0.0, 0.0, 0.0, 0.0, 1.677527925765649E9, 0.0, 2023-02-27 14:58:45.765
42.0, 6006.226659563382, 187500.0, 187500.0, 187500.0, -187500.02235174447, -187500.02235174447, -187500.02235174447, -187500.02235174447, 0.442, -0.022, 0.916, 192.0, 0.0, 0.0, 0.0, 0.0, 0.0, 0.0, 0.0, 0.0, 0.0, 1.677527925773699E9, 0.0, 2023-02-27 14:58:45.773
43.0, 4701.711797918296, 187500.0, 187500.0, 187500.0, -187500.02235174447, -187500.02235174447, -187500.02235174447, -187500.02235174447, 0.442, -0.022, 0.916, 192.0, 0.0, 0.0, 0.0, 0.0, 0.0, 0.0, 0.0, 0.0, 0.0, 1.677527925773753E9, 0.0, 2023-02-27 14:58:45.773
44.0, 6541.908567179271, 187500.0, 187500.0, 187500.0, -187500.02235174447, -187500.02235174447, -187500.02235174447, -187500.02235174447, 0.442, -0.022, 0.916, 192.0, 0.0, 0.0, 0.0, 0.0, 0.0, 0.0, 0.0, 0.0, 0.0, 1.677527925780616E9, 0.0, 2023-02-27 14:58:45.780
45.0, 4477.903780687307, 187500.0, 187500.0, 187500.0, -187500.02235174447, -187500.02235174447, -187500.02235174447, -187500.02235174447, 0.442, -0.022, 0.916, 192.0, 0.0, 0.0, 0.0, 0.0, 0.0, 0.0, 0.0, 0.0, 0.0, 1.677527925780628E9, 0.0, 2023-02-27 14:58:45.780
46.0, 4771.113964452024, 187500.0, 187500.0, 187500.0, -187500.02235174447, -187500.02235174447, -187500.02235174447, -187500.02235174447, 0.442, -0.022, 0.916, 192.0, 0.0, 0.0, 0.0, 0.0, 0.0, 0.0, 0.0, 0.0, 0.0, 1.677527925788356E9, 0.0, 2023-02-27 14:58:45.788
47.0, 5059.719688858949, 187500.0, 187500.0, 187500.0, -187500.02235174447, -187500.02235174447, -187500.02235174447, -187500.02235174447, 0.44, -0.022, 0.914, 192.0, 13.0, 192.0, 255.0, 80.0, 28.0, 144.0, 0.0, 0.0, 0.0, 1.677527925788367E9, 0.0, 2023-02-27 14:58:45.788
48.0, 5748.511045993691, 187500.0, 187500.0, 187500.0, -187500.02235174447, -187500.02235174447, -187500.02235174447, -187500.02235174447, 0.44, -0.022, 0.914, 192.0, 0.0, 0.0, 0.0, 0.0, 0.0, 0.0, 0.0, 0.0, 0.0, 1.677527925796336E9, 0.0, 2023-02-27 14:58:45.796
49.0, 5973.347243469625, 187500.0, 187500.0, 187500.0, -187500.02235174447, -187500.02235174447, -187500.02235174447, -187500.02235174447, 0.44, -0.022, 0.914, 192.0, 0.0, 0.0, 0.0, 0.0, 0.0, 0.0, 0.0, 0.0, 0.0, 1.67752792579635E9, 0.0, 2023-02-27 14:58:45.796
50.0, 6742.448418432286, 187500.0, 187500.0, 187500.0, -187500.02235174447, -187500.02235174447, -187500.02235174447, -187500.02235174447, 0.44, -0.022, 0.914, 192.0, 0.0, 0.0, 0.0, 0.0, 0.0, 0.0, 0.0, 0.0, 0.0, 1.677527925803299E9, 0.0, 2023-02-27 14:58:45.803
51.0, 5515.09177864692, 187500.0, 187500.0, 187500.0, -187500.02235174447, -187500.02235174447, -187500.02235174447, -187500.02235174447, 0.44, -0.022, 0.914, 192.0, 0.0, 0.0, 0.0, 0.0, 0.0, 0.0, 0.0, 0.0, 0.0, 1.677527925810455E9, 0.0, 2023-02-27 14:58:45.810
52.0, 5274.207028652076, 187500.0, 187500.0, 187500.0, -187500.02235174447, -187500.02235174447, -187500.02235174447, -187500.02235174447, 0.44, -0.022, 0.914, 192.0, 0.0, 0.0, 0.0, 0.0, 0.0, 0.0, 0.0, 0.0, 0.0, 1.677527925810475E9, 0.0, 2023-02-27 14:58:45.810
53.0, 4336.23842432957, 187500.0, 187500.0, 187500.0, -187500.02235174447, -187500.02235174447, -187500.02235174447, -187500.02235174447, 0.44, -0.022, 0.914, 192.0, 0.0, 0.0, 0.0, 0.0, 0.0, 0.0, 0.0, 0.0, 0.0, 1.677527925817983E9, 0.0, 2023-02-27 14:58:45.817
54.0, 5121.231689599954, 187500.0, 187500.0, 187500.0, -187500.02235174447, -187500.02235174447, -187500.02235174447, -187500.02235174447, 0.44, -0.022, 0.914, 192.0, 0.0, 0.0, 0.0, 0.0, 0.0, 0.0, 0.0, 0.0, 0.0, 1.677527925818003E9, 0.0, 2023-02-27 14:58:45.818
55.0, 5431.675068339714, 187500.0, 187500.0, 187500.0, -187500.02235174447, -187500.02235174447, -187500.02235174447, -187500.02235174447, 0.44, -0.022, 0.914, 192.0, 0.0, 0.0, 0.0, 0.0, 0.0, 0.0, 0.0, 0.0, 0.0, 1.677527925825834E9, 0.0, 2023-02-27 14:58:45.825
56.0, 6334.104398978281, 187500.0, 187500.0, 187500.0, -187500.02235174447, -187500.02235174447, -187500.02235174447, -187500.02235174447, 0.44, -0.022, 0.914, 192.0, 0.0, 0.0, 0.0, 0.0, 0.0, 0.0, 0.0, 0.0, 0.0, 1.677527925825855E9, 0.0, 2023-02-27 14:58:45.825
57.0, 6289.691482745587, 187500.0, 187500.0, 187500.0, -187500.02235174447, -187500.02235174447, -187500.02235174447, -187500.02235174447, 0.44, -0.024, 0.912, 192.0, 13.0, 192.0, 255.0, 64.0, 28.0, 128.0, 0.0, 0.0, 0.0, 1.677527925834019E9, 0.0, 2023-02-27 14:58:45.834
58.0, 6476.641473369775, 187500.0, 187500.0, 187500.0, -187500.02235174447, -187500.02235174447, -187500.02235174447, -187500.02235174447, 0.44, -0.024, 0.912, 192.0, 0.0, 0.0, 0.0, 0.0, 0.0, 0.0, 0.0, 0.0, 0.0, 1.677527925834079E9, 0.0, 2023-02-27 14:58:45.834
59.0, 5137.459056074507, 187500.0, 187500.0, 187500.0, -187500.02235174447, -187500.02235174447, -187500.02235174447, -187500.02235174447, 0.44, -0.024, 0.912, 192.0, 0.0, 0.0, 0.0, 0.0, 0.0, 0.0, 0.0, 0.0, 0.0, 1.677527925840539E9, 0.0, 2023-02-27 14:58:45.840
60.0, 4744.895368205949, 187500.0, 187500.0, 187500.0, -187500.02235174447, -187500.02235174447, -187500.02235174447, -187500.02235174447, 0.44, -0.024, 0.912, 192.0, 0.0, 0.0, 0.0, 0.0, 0.0, 0.0, 0.0, 0.0, 0.0, 1.677527925840555E9, 0.0, 2023-02-27 14:58:45.840
61.0, 5566.165514727297, 187500.0, 187500.0, 187500.0, -187500.02235174447, -187500.02235174447, -187500.02235174447, -187500.02235174447, 0.44, -0.024, 0.912, 192.0, 0.0, 0.0, 0.0, 0.0, 0.0, 0.0, 0.0, 0.0, 0.0, 1.677527925848535E9, 0.0, 2023-02-27 14:58:45.848
62.0, 5421.326210656906, 187500.0, 187500.0, 187500.0, -187500.02235174447, -187500.02235174447, -187500.02235174447, -187500.02235174447, 0.44, -0.024, 0.912, 192.0, 0.0, 0.0, 0.0, 0.0, 0.0, 0.0, 0.0, 0.0, 0.0, 1.677527925848556E9, 0.0, 2023-02-27 14:58:45.848
63.0, 5708.568478652058, 187500.0, 187500.0, 187500.0, -187500.02235174447, -187500.02235174447, -187500.02235174447, -187500.02235174447, 0.44, -0.024, 0.912, 192.0, 0.0, 0.0, 0.0, 0.0, 0.0, 0.0, 0.0, 0.0, 0.0, 1.677527925856524E9, 0.0, 2023-02-27 14:58:45.856
64.0, 6343.738000838519, 187500.0, 187500.0, 187500.0, -187500.02235174447, -187500.02235174447, -187500.02235174447, -187500.02235174447, 0.44, -0.024, 0.912, 192.0, 0.0, 0.0, 0.0, 0.0, 0.0, 0.0, 0.0, 0.0, 0.0, 1.677527925856544E9, 0.0, 2023-02-27 14:58:45.856
65.0, 5933.784655783732, 187500.0, 187500.0, 187500.0, -187500.02235174447, -187500.02235174447, -187500.02235174447, -187500.02235174447, 0.44, -0.024, 0.912, 192.0, 0.0, 0.0, 0.0, 0.0, 0.0, 0.0, 0.0, 0.0, 0.0, 1.677527925863667E9, 0.0, 2023-02-27 14:58:45.863
66.0, 5255.856246454268, 187500.0, 187500.0, 187500.0, -187500.02235174447, -187500.02235174447, -187500.02235174447, -187500.02235174447, 0.444, -0.02, 0.91, 192.0, 13.0, 224.0, 255.0, 96.0, 28.0, 112.0, 0.0, 0.0, 0.0, 1.67752792586368E9, 0.0, 2023-02-27 14:58:45.863
67.0, 6469.04188025497, 187500.0, 187500.0, 187500.0, -187500.02235174447, -187500.02235174447, -187500.02235174447, -187500.02235174447, 0.444, -0.02, 0.91, 192.0, 0.0, 0.0, 0.0, 0.0, 0.0, 0.0, 0.0, 0.0, 0.0, 1.677527925871136E9, 0.0, 2023-02-27 14:58:45.871
68.0, 6350.77880034194, 187500.0, 187500.0, 187500.0, -187500.02235174447, -187500.02235174447, -187500.02235174447, -187500.02235174447, 0.444, -0.02, 0.91, 192.0, 0.0, 0.0, 0.0, 0.0, 0.0, 0.0, 0.0, 0.0, 0.0, 1.677527925878175E9, 0.0, 2023-02-27 14:58:45.878
69.0, 4659.534056131131, 187500.0, 187500.0, 187500.0, -187500.02235174447, -187500.02235174447, -187500.02235174447, -187500.02235174447, 0.444, -0.02, 0.91, 192.0, 0.0, 0.0, 0.0, 0.0, 0.0, 0.0, 0.0, 0.0, 0.0, 1.677527925878191E9, 0.0, 2023-02-27 14:58:45.878
70.0, 5430.713943328135, 187500.0, 187500.0, 187500.0, -187500.02235174447, -187500.02235174447, -187500.02235174447, -187500.02235174447, 0.444, -0.02, 0.91, 192.0, 0.0, 0.0, 0.0, 0.0, 0.0, 0.0, 0.0, 0.0, 0.0, 1.677527925886149E9, 0.0, 2023-02-27 14:58:45.886
71.0, 5488.537906234015, 187500.0, 187500.0, 187500.0, -187500.02235174447, -187500.02235174447, -187500.02235174447, -187500.02235174447, 0.444, -0.02, 0.91, 192.0, 0.0, 0.0, 0.0, 0.0, 0.0, 0.0, 0.0, 0.0, 0.0, 1.677527925886169E9, 0.0, 2023-02-27 14:58:45.886
72.0, 5976.342377226637, 187500.0, 187500.0, 187500.0, -187500.02235174447, -187500.02235174447, -187500.02235174447, -187500.02235174447, 0.444, -0.02, 0.91, 192.0, 0.0, 0.0, 0.0, 0.0, 0.0, 0.0, 0.0, 0.0, 0.0, 1.677527925892764E9, 0.0, 2023-02-27 14:58:45.892
73.0, 5339.8988056062235, 187500.0, 187500.0, 187500.0, -187500.02235174447, -187500.02235174447, -187500.02235174447, -187500.02235174447, 0.444, -0.02, 0.91, 192.0, 0.0, 0.0, 0.0, 0.0, 0.0, 0.0, 0.0, 0.0, 0.0, 1.677527925892836E9, 0.0, 2023-02-27 14:58:45.892
74.0, 5870.193942808383, 187500.0, 187500.0, 187500.0, -187500.02235174447, -187500.02235174447, -187500.02235174447, -187500.02235174447, 0.444, -0.02, 0.91, 192.0, 0.0, 0.0, 0.0, 0.0, 0.0, 0.0, 0.0, 0.0, 0.0, 1.677527925900768E9, 0.0, 2023-02-27 14:58:45.900
75.0, 6687.440775327776, 187500.0, 187500.0, 187500.0, -187500.02235174447, -187500.02235174447, -187500.02235174447, -187500.02235174447, 0.444, -0.02, 0.91, 192.0, 0.0, 0.0, 0.0, 0.0, 0.0, 0.0, 0.0, 0.0, 0.0, 1.677527925900793E9, 0.0, 2023-02-27 14:58:45.900
76.0, 6061.77074453482, 187500.0, 187500.0, 187500.0, -187500.02235174447, -187500.02235174447, -187500.02235174447, -187500.02235174447, 0.442, -0.026000000000000002, 0.914, 192.0, 13.0, 208.0, 255.0, 48.0, 28.0, 144.0, 0.0, 0.0, 0.0, 1.677527925908959E9, 0.0, 2023-02-27 14:58:45.908
77.0, 6002.471566494891, 187500.0, 187500.0, 187500.0, -187500.02235174447, -187500.02235174447, -187500.02235174447, -187500.02235174447, 0.442, -0.026000000000000002, 0.914, 192.0, 0.0, 0.0, 0.0, 0.0, 0.0, 0.0, 0.0, 0.0, 0.0, 1.677527925908976E9, 0.0, 2023-02-27 14:58:45.908
78.0, 5105.406654525596, 187500.0, 187500.0, 187500.0, -187500.02235174447, -187500.02235174447, -187500.02235174447, -187500.02235174447, 0.442, -0.026000000000000002, 0.914, 192.0, 0.0, 0.0, 0.0, 0.0, 0.0, 0.0, 0.0, 0.0, 0.0, 1.677527925916596E9, 0.0, 2023-02-27 14:58:45.916
79.0, 6078.7357185763985, 187500.0, 187500.0, 187500.0, -187500.02235174447, -187500.02235174447, -187500.02235174447, -187500.02235174447, 0.442, -0.026000000000000002, 0.914, 192.0, 0.0, 0.0, 0.0, 0.0, 0.0, 0.0, 0.0, 0.0, 0.0, 1.677527925916614E9, 0.0, 2023-02-27 14:58:45.916
80.0, 6078.713366831943, 187500.0, 187500.0, 187500.0, -187500.02235174447, -187500.02235174447, -187500.02235174447, -187500.02235174447, 0.442, -0.026000000000000002, 0.914, 192.0, 0.0, 0.0, 0.0, 0.0, 0.0, 0.0, 0.0, 0.0, 0.0, 1.67752792592459E9, 0.0, 2023-02-27 14:58:45.924
81.0, 5598.642599420858, 187500.0, 187500.0, 187500.0, -187500.02235174447, -187500.02235174447, -187500.02235174447, -187500.02235174447, 0.442, -0.026000000000000002, 0.914, 192.0, 0.0, 0.0, 0.0, 0.0, 0.0, 0.0, 0.0, 0.0, 0.0, 1.677527925924612E9, 0.0, 2023-02-27 14:58:45.924
82.0, 5885.795460438188, 187500.0, 187500.0, 187500.0, -187500.02235174447, -187500.02235174447, -187500.02235174447, -187500.02235174447, 0.442, -0.026000000000000002, 0.914, 192.0, 0.0, 0.0, 0.0, 0.0, 0.0, 0.0, 0.0, 0.0, 0.0, 1.677527925930624E9, 0.0, 2023-02-27 14:58:45.930
83.0, 6252.788752649874, 187500.0, 187500.0, 187500.0, -187500.02235174447, -187500.02235174447, -187500.02235174447, -187500.02235174447, 0.442, -0.026000000000000002, 0.914, 192.0, 0.0, 0.0, 0.0, 0.0, 0.0, 0.0, 0.0, 0.0, 0.0, 1.677527925938541E9, 0.0, 2023-02-27 14:58:45.938
84.0, 6622.106626284913, 187500.0, 187500.0, 187500.0, -187500.02235174447, -187500.02235174447, -187500.02235174447, -187500.02235174447, 0.442, -0.026000000000000002, 0.914, 192.0, 0.0, 0.0, 0.0, 0.0, 0.0, 0.0, 0.0, 0.0, 0.0, 1.677527925938562E9, 0.0, 2023-02-27 14:58:45.938
85.0, 5928.889623748019, 187500.0, 187500.0, 187500.0, -187500.02235174447, -187500.02235174447, -187500.02235174447, -187500.02235174447, 0.442, -0.026000000000000002, 0.914, 192.0, 0.0, 0.0, 0.0, 0.0, 0.0, 0.0, 0.0, 0.0, 0.0, 1.677527925945665E9, 0.0, 2023-02-27 14:58:45.945
86.0, 5702.488804160214, 187500.0, 187500.0, 187500.0, -187500.02235174447, -187500.02235174447, -187500.02235174447, -187500.02235174447, 0.444, -0.026000000000000002, 0.924, 192.0, 13.0, 224.0, 255.0, 48.0, 28.0, 224.0, 0.0, 0.0, 0.0, 1.677527925945679E9, 0.0, 2023-02-27 14:58:45.945
87.0, 5165.465791877007, 187500.0, 187500.0, 187500.0, -187500.02235174447, -187500.02235174447, -187500.02235174447, -187500.02235174447, 0.444, -0.026000000000000002, 0.924, 192.0, 0.0, 0.0, 0.0, 0.0, 0.0, 0.0, 0.0, 0.0, 0.0, 1.677527925952914E9, 0.0, 2023-02-27 14:58:45.952
88.0, 6186.716996039987, 187500.0, 187500.0, 187500.0, -187500.02235174447, -187500.02235174447, -187500.02235174447, -187500.02235174447, 0.444, -0.026000000000000002, 0.924, 192.0, 0.0, 0.0, 0.0, 0.0, 0.0, 0.0, 0.0, 0.0, 0.0, 1.677527925952979E9, 0.0, 2023-02-27 14:58:45.952
89.0, 6971.687909565915, 187500.0, 187500.0, 187500.0, -187500.02235174447, -187500.02235174447, -187500.02235174447, -187500.02235174447, 0.444, -0.026000000000000002, 0.924, 192.0, 0.0, 0.0, 0.0, 0.0, 0.0, 0.0, 0.0, 0.0, 0.0, 1.677527925961031E9, 0.0, 2023-02-27 14:58:45.961
90.0, 5948.447400146413, 187500.0, 187500.0, 187500.0, -187500.02235174447, -187500.02235174447, -187500.02235174447, -187500.02235174447, 0.444, -0.026000000000000002, 0.924, 192.0, 0.0, 0.0, 0.0, 0.0, 0.0, 0.0, 0.0, 0.0, 0.0, 1.677527925961048E9, 0.0, 2023-02-27 14:58:45.961
91.0, 5667.620082809935, 187500.0, 187500.0, 187500.0, -187500.02235174447, -187500.02235174447, -187500.02235174447, -187500.02235174447, 0.444, -0.026000000000000002, 0.924, 192.0, 0.0, 0.0, 0.0, 0.0, 0.0, 0.0, 0.0, 0.0, 0.0, 1.67752792596908E9, 0.0, 2023-02-27 14:58:45.969
92.0, 5775.087270151052, 187500.0, 187500.0, 187500.0, -187500.02235174447, -187500.02235174447, -187500.02235174447, -187500.02235174447, 0.444, -0.026000000000000002, 0.924, 192.0, 0.0, 0.0, 0.0, 0.0, 0.0, 0.0, 0.0, 0.0, 0.0, 1.6775279259691E9, 0.0, 2023-02-27 14:58:45.969
93.0, 6765.403659987886, 187500.0, 187500.0, 187500.0, -187500.02235174447, -187500.02235174447, -187500.02235174447, -187500.02235174447, 0.444, -0.026000000000000002, 0.924, 192.0, 0.0, 0.0, 0.0, 0.0, 0.0, 0.0, 0.0, 0.0, 0.0, 1.677527925975732E9, 0.0, 2023-02-27 14:58:45.975
94.0, 5670.3693473779385, 187500.0, 187500.0, 187500.0, -187500.02235174447, -187500.02235174447, -187500.02235174447, -187500.02235174447, 0.444, -0.026000000000000002, 0.924, 192.0, 0.0, 0.0, 0.0, 0.0, 0.0, 0.0, 0.0, 0.0, 0.0, 1.677527925975752E9, 0.0, 2023-02-27 14:58:45.975
95.0, 5472.17642929273, 187500.0, 187500.0, 187500.0, -187500.02235174447, -187500.02235174447, -187500.02235174447, -187500.02235174447, 0.444, -0.026000000000000002, 0.924, 192.0, 0.0, 0.0, 0.0, 0.0, 0.0, 0.0, 0.0, 0.0, 0.0, 1.677527925983628E9, 0.0, 2023-02-27 14:58:45.983
96.0, 6828.68144854086, 187500.0, 187500.0, 187500.0, -187500.02235174447, -187500.02235174447, -187500.02235174447, -187500.02235174447, 0.448, -0.026000000000000002, 0.922, 192.0, 14.0, 0.0, 255.0, 48.0, 28.0, 208.0, 0.0, 0.0, 0.0, 1.677527925983642E9, 0.0, 2023-02-27 14:58:45.983
97.0, 5834.028820279696, 187500.0, 187500.0, 187500.0, -187500.02235174447, -187500.02235174447, -187500.02235174447, -187500.02235174447, 0.448, -0.026000000000000002, 0.922, 192.0, 0.0, 0.0, 0.0, 0.0, 0.0, 0.0, 0.0, 0.0, 0.0, 1.677527925990655E9, 0.0, 2023-02-27 14:58:45.990
98.0, 6054.7299450313985, 187500.0, 187500.0, 187500.0, -187500.02235174447, -187500.02235174447, -187500.02235174447, -187500.02235174447, 0.448, -0.026000000000000002, 0.922, 192.0, 0.0, 0.0, 0.0, 0.0, 0.0, 0.0, 0.0, 0.0, 0.0, 1.677527925998703E9, 0.0, 2023-02-27 14:58:45.998
99.0, 6213.404978919623, 187500.0, 187500.0, 187500.0, -187500.02235174447, -187500.02235174447, -187500.02235174447, -187500.02235174447, 0.448, -0.026000000000000002, 0.922, 192.0, 0.0, 0.0, 0.0, 0.0, 0.0, 0.0, 0.0, 0.0, 0.0, 1.677527925998719E9, 0.0, 2023-02-27 14:58:45.998
100.0, 6305.829442242318, 187500.0, 187500.0, 187500.0, -187500.02235174447, -187500.02235174447, -187500.02235174447, -187500.02235174447, 0.448, -0.026000000000000002, 0.922, 192.0, 0.0, 0.0, 0.0, 0.0, 0.0, 0.0, 0.0, 0.0, 0.0, 1.67752792600533E9, 0.0, 2023-02-27 14:58:46.005
101.0, 6115.571393438744, 187500.0, 187500.0, 187500.0, -187500.02235174447, -187500.02235174447, -187500.02235174447, -187500.02235174447, 0.448, -0.026000000000000002, 0.922, 192.0, 0.0, 0.0, 0.0, 0.0, 0.0, 0.0, 0.0, 0.0, 0.0, 1.677527926005344E9, 0.0, 2023-02-27 14:58:46.005
102.0, 6223.105636013226, 187500.0, 187500.0, 187500.0, -187500.02235174447, -187500.02235174447, -187500.02235174447, -187500.02235174447, 0.448, -0.026000000000000002, 0.922, 192.0, 0.0, 0.0, 0.0, 0.0, 0.0, 0.0, 0.0, 0.0, 0.0, 1.677527926013389E9, 0.0, 2023-02-27 14:58:46.013
103.0, 6285.57876176581, 187500.0, 187500.0, 187500.0, -187500.02235174447, -187500.02235174447, -187500.02235174447, -187500.02235174447, 0.448, -0.026000000000000002, 0.922, 192.0, 0.0, 0.0, 0.0, 0.0, 0.0, 0.0, 0.0, 0.0, 0.0, 1.677527926013449E9, 0.0, 2023-02-27 14:58:46.013
104.0, 6147.355574054191, 187500.0, 187500.0, 187500.0, -187500.02235174447, -187500.02235174447, -187500.02235174447, -187500.02235174447, 0.448, -0.026000000000000002, 0.922, 192.0, 0.0, 0.0, 0.0, 0.0, 0.0, 0.0, 0.0, 0.0, 0.0, 1.677527926021437E9, 0.0, 2023-02-27 14:58:46.021
105.0, 5627.498701512659, 187500.0, 187500.0, 187500.0, -187500.02235174447, -187500.02235174447, -187500.02235174447, -187500.02235174447, 0.448, -0.026000000000000002, 0.922, 192.0, 0.0, 0.0, 0.0, 0.0, 0.0, 0.0, 0.0, 0.0, 0.0, 1.677527926021457E9, 0.0, 2023-02-27 14:58:46.021
106.0, 6350.510579408477, 187500.0, 187500.0, 187500.0, -187500.02235174447, -187500.02235174447, -187500.02235174447, -187500.02235174447, 0.444, -0.026000000000000002, 0.92, 192.0, 13.0, 224.0, 255.0, 48.0, 28.0, 192.0, 0.0, 0.0, 0.0, 1.677527926028503E9, 0.0, 2023-02-27 14:58:46.028
107.0, 6909.572411724617, 187500.0, 187500.0, 187500.0, -187500.02235174447, -187500.02235174447, -187500.02235174447, -187500.02235174447, 0.444, -0.026000000000000002, 0.92, 192.0, 0.0, 0.0, 0.0, 0.0, 0.0, 0.0, 0.0, 0.0, 0.0, 1.677527926028519E9, 0.0, 2023-02-27 14:58:46.028
108.0, 5853.027803066708, 187500.0, 187500.0, 187500.0, -187500.02235174447, -187500.02235174447, -187500.02235174447, -187500.02235174447, 0.444, -0.026000000000000002, 0.92, 192.0, 0.0, 0.0, 0.0, 0.0, 0.0, 0.0, 0.0, 0.0, 0.0, 1.677527926035966E9, 0.0, 2023-02-27 14:58:46.035
109.0, 6301.940238707094, 187500.0, 187500.0, 187500.0, -187500.02235174447, -187500.02235174447, -187500.02235174447, -187500.02235174447, 0.444, -0.026000000000000002, 0.92, 192.0, 0.0, 0.0, 0.0, 0.0, 0.0, 0.0, 0.0, 0.0, 0.0, 1.677527926035989E9, 0.0, 2023-02-27 14:58:46.035
110.0, 6961.964900727857, 187500.0, 187500.0, 187500.0, -187500.02235174447, -187500.02235174447, -187500.02235174447, -187500.02235174447, 0.444, -0.026000000000000002, 0.92, 192.0, 0.0, 0.0, 0.0, 0.0, 0.0, 0.0, 0.0, 0.0, 0.0, 1.677527926044211E9, 0.0, 2023-02-27 14:58:46.044
111.0, 5276.442203097607, 187500.0, 187500.0, 187500.0, -187500.02235174447, -187500.02235174447, -187500.02235174447, -187500.02235174447, 0.444, -0.026000000000000002, 0.92, 192.0, 0.0, 0.0, 0.0, 0.0, 0.0, 0.0, 0.0, 0.0, 0.0, 1.677527926044231E9, 0.0, 2023-02-27 14:58:46.044
112.0, 6023.012819649318, 187500.0, 187500.0, 187500.0, -187500.02235174447, -187500.02235174447, -187500.02235174447, -187500.02235174447, 0.444, -0.026000000000000002, 0.92, 192.0, 0.0, 0.0, 0.0, 0.0, 0.0, 0.0, 0.0, 0.0, 0.0, 1.677527926051252E9, 0.0, 2023-02-27 14:58:46.051
113.0, 6052.003032207851, 187500.0, 187500.0, 187500.0, -187500.02235174447, -187500.02235174447, -187500.02235174447, -187500.02235174447, 0.444, -0.026000000000000002, 0.92, 192.0, 0.0, 0.0, 0.0, 0.0, 0.0, 0.0, 0.0, 0.0, 0.0, 1.677527926057656E9, 0.0, 2023-02-27 14:58:46.057
114.0, 6140.650050717599, 187500.0, 187500.0, 187500.0, -187500.02235174447, -187500.02235174447, -187500.02235174447, -187500.02235174447, 0.444, -0.026000000000000002, 0.92, 192.0, 0.0, 0.0, 0.0, 0.0, 0.0, 0.0, 0.0, 0.0, 0.0, 1.677527926057678E9, 0.0, 2023-02-27 14:58:46.057
115.0, 6462.1575429627355, 187500.0, 187500.0, 187500.0, -187500.02235174447, -187500.02235174447, -187500.02235174447, -187500.02235174447, 0.444, -0.026000000000000002, 0.92, 192.0, 0.0, 0.0, 0.0, 0.0, 0.0, 0.0, 0.0, 0.0, 0.0, 1.677527926065557E9, 0.0, 2023-02-27 14:58:46.065
116.0, 6324.895480262695, 187500.0, 187500.0, 187500.0, -187500.02235174447, -187500.02235174447, -187500.02235174447, -187500.02235174447, 0.444, -0.024, 0.918, 192.0, 13.0, 224.0, 255.0, 64.0, 28.0, 176.0, 0.0, 0.0, 0.0, 1.677527926065576E9, 0.0, 2023-02-27 14:58:46.065
117.0, 6480.843601327372, 187500.0, 187500.0, 187500.0, -187500.02235174447, -187500.02235174447, -187500.02235174447, -187500.02235174447, 0.444, -0.024, 0.918, 192.0, 0.0, 0.0, 0.0, 0.0, 0.0, 0.0, 0.0, 0.0, 0.0, 1.677527926073604E9, 0.0, 2023-02-27 14:58:46.073
118.0, 7342.5257018239145, 187500.0, 187500.0, 187500.0, -187500.02235174447, -187500.02235174447, -187500.02235174447, -187500.02235174447, 0.444, -0.024, 0.918, 192.0, 0.0, 0.0, 0.0, 0.0, 0.0, 0.0, 0.0, 0.0, 0.0, 1.677527926073647E9, 0.0, 2023-02-27 14:58:46.073
119.0, 5969.6592056345, 187500.0, 187500.0, 187500.0, -187500.02235174447, -187500.02235174447, -187500.02235174447, -187500.02235174447, 0.444, -0.024, 0.918, 192.0, 0.0, 0.0, 0.0, 0.0, 0.0, 0.0, 0.0, 0.0, 0.0, 1.67752792608068E9, 0.0, 2023-02-27 14:58:46.080
120.0, 5618.4238932638045, 187500.0, 187500.0, 187500.0, -187500.02235174447, -187500.02235174447, -187500.02235174447, -187500.02235174447, 0.444, -0.024, 0.918, 192.0, 0.0, 0.0, 0.0, 0.0, 0.0, 0.0, 0.0, 0.0, 0.0, 1.677527926080697E9, 0.0, 2023-02-27 14:58:46.080
121.0, 6316.670038303142, 187500.0, 187500.0, 187500.0, -187500.02235174447, -187500.02235174447, -187500.02235174447, -187500.02235174447, 0.444, -0.024, 0.918, 192.0, 0.0, 0.0, 0.0, 0.0, 0.0, 0.0, 0.0, 0.0, 0.0, 1.67752792608817E9, 0.0, 2023-02-27 14:58:46.088
122.0, 7161.454219991472, 187500.0, 187500.0, 187500.0, -187500.02235174447, -187500.02235174447, -187500.02235174447, -187500.02235174447, 0.444, -0.024, 0.918, 192.0, 0.0, 0.0, 0.0, 0.0, 0.0, 0.0, 0.0, 0.0, 0.0, 1.677527926088197E9, 0.0, 2023-02-27 14:58:46.088
123.0, 5758.099944365018, 187500.0, 187500.0, 187500.0, -187500.02235174447, -187500.02235174447, -187500.02235174447, -187500.02235174447, 0.444, -0.024, 0.918, 192.0, 0.0, 0.0, 0.0, 0.0, 0.0, 0.0, 0.0, 0.0, 0.0, 1.677527926096253E9, 0.0, 2023-02-27 14:58:46.096
124.0, 5848.557454175646, 187500.0, 187500.0, 187500.0, -187500.02235174447, -187500.02235174447, -187500.02235174447, -187500.02235174447, 0.444, -0.024, 0.918, 192.0, 0.0, 0.0, 0.0, 0.0, 0.0, 0.0, 0.0, 0.0, 0.0, 1.677527926096278E9, 0.0, 2023-02-27 14:58:46.096
125.0, 6679.997644424158, 187500.0, 187500.0, 187500.0, -187500.02235174447, -187500.02235174447, -187500.02235174447, -187500.02235174447, 0.44, -0.024, 0.918, 192.0, 13.0, 192.0, 255.0, 64.0, 28.0, 176.0, 0.0, 0.0, 0.0, 1.67752792610432E9, 0.0, 2023-02-27 14:58:46.104
126.0, 6454.602653336841, 187500.0, 187500.0, 187500.0, -187500.02235174447, -187500.02235174447, -187500.02235174447, -187500.02235174447, 0.44, -0.024, 0.918, 192.0, 0.0, 0.0, 0.0, 0.0, 0.0, 0.0, 0.0, 0.0, 0.0, 1.677527926104338E9, 0.0, 2023-02-27 14:58:46.104
127.0, 6262.131781832192, 187500.0, 187500.0, 187500.0, -187500.02235174447, -187500.02235174447, -187500.02235174447, -187500.02235174447, 0.44, -0.024, 0.918, 192.0, 0.0, 0.0, 0.0, 0.0, 0.0, 0.0, 0.0, 0.0, 0.0, 1.677527926110523E9, 0.0, 2023-02-27 14:58:46.110
128.0, 6049.499636828857, 187500.0, 187500.0, 187500.0, -187500.02235174447, -187500.02235174447, -187500.02235174447, -187500.02235174447, 0.44, -0.024, 0.918, 192.0, 0.0, 0.0, 0.0, 0.0, 0.0, 0.0, 0.0, 0.0, 0.0, 1.677527926110539E9, 0.0, 2023-02-27 14:58:46.110
129.0, 6875.351890963542, 187500.0, 187500.0, 187500.0, -187500.02235174447, -187500.02235174447, -187500.02235174447, -187500.02235174447, 0.44, -0.024, 0.918, 192.0, 0.0, 0.0, 0.0, 0.0, 0.0, 0.0, 0.0, 0.0, 0.0, 1.677527926117817E9, 0.0, 2023-02-27 14:58:46.117
130.0, 6065.659948070043, 187500.0, 187500.0, 187500.0, -187500.02235174447, -187500.02235174447, -187500.02235174447, -187500.02235174447, 0.44, -0.024, 0.918, 192.0, 0.0, 0.0, 0.0, 0.0, 0.0, 0.0, 0.0, 0.0, 0.0, 1.677527926125891E9, 0.0, 2023-02-27 14:58:46.125
131.0, 6340.631108359231, 187500.0, 187500.0, 187500.0, -187500.02235174447, -187500.02235174447, -187500.02235174447, -187500.02235174447, 0.44, -0.024, 0.918, 192.0, 0.0, 0.0, 0.0, 0.0, 0.0, 0.0, 0.0, 0.0, 0.0, 1.677527926125914E9, 0.0, 2023-02-27 14:58:46.125
132.0, 6437.592975806353, 187500.0, 187500.0, 187500.0, -187500.02235174447, -187500.02235174447, -187500.02235174447, -187500.02235174447, 0.44, -0.024, 0.918, 192.0, 0.0, 0.0, 0.0, 0.0, 0.0, 0.0, 0.0, 0.0, 0.0, 1.677527926133935E9, 0.0, 2023-02-27 14:58:46.133
133.0, 6656.3942022793535, 187500.0, 187500.0, 187500.0, -187500.02235174447, -187500.02235174447, -187500.02235174447, -187500.02235174447, 0.44, -0.024, 0.918, 192.0, 0.0, 0.0, 0.0, 0.0, 0.0, 0.0, 0.0, 0.0, 0.0, 1.677527926134004E9, 0.0, 2023-02-27 14:58:46.134
134.0, 6670.587560008474, 187500.0, 187500.0, 187500.0, -187500.02235174447, -187500.02235174447, -187500.02235174447, -187500.02235174447, 0.44, -0.024, 0.918, 192.0, 0.0, 0.0, 0.0, 0.0, 0.0, 0.0, 0.0, 0.0, 0.0, 1.677527926140441E9, 0.0, 2023-02-27 14:58:46.140
135.0, 5716.212775255773, 187500.0, 187500.0, 187500.0, -187500.02235174447, -187500.02235174447, -187500.02235174447, -187500.02235174447, 0.442, -0.022, 0.918, 192.0, 13.0, 208.0, 255.0, 80.0, 28.0, 176.0, 0.0, 0.0, 0.0, 1.677527926140455E9, 0.0, 2023-02-27 14:58:46.140
136.0, 6187.70047279602, 187500.0, 187500.0, 187500.0, -187500.02235174447, -187500.02235174447, -187500.02235174447, -187500.02235174447, 0.442, -0.022, 0.918, 192.0, 0.0, 0.0, 0.0, 0.0, 0.0, 0.0, 0.0, 0.0, 0.0, 1.677527926148579E9, 0.0, 2023-02-27 14:58:46.148
137.0, 6697.566115566029, 187500.0, 187500.0, 187500.0, -187500.02235174447, -187500.02235174447, -187500.02235174447, -187500.02235174447, 0.442, -0.022, 0.918, 192.0, 0.0, 0.0, 0.0, 0.0, 0.0, 0.0, 0.0, 0.0, 0.0, 1.677527926148602E9, 0.0, 2023-02-27 14:58:46.148
138.0, 7271.424802711583, 187500.0, 187500.0, 187500.0, -187500.02235174447, -187500.02235174447, -187500.02235174447, -187500.02235174447, 0.442, -0.022, 0.918, 192.0, 0.0, 0.0, 0.0, 0.0, 0.0, 0.0, 0.0, 0.0, 0.0, 1.677527926156551E9, 0.0, 2023-02-27 14:58:46.156
139.0, 5925.559213824179, 187500.0, 187500.0, 187500.0, -187500.02235174447, -187500.02235174447, -187500.02235174447, -187500.02235174447, 0.442, -0.022, 0.918, 192.0, 0.0, 0.0, 0.0, 0.0, 0.0, 0.0, 0.0, 0.0, 0.0, 1.677527926156568E9, 0.0, 2023-02-27 14:58:46.156
140.0, 6283.276532086913, 187500.0, 187500.0, 187500.0, -187500.02235174447, -187500.02235174447, -187500.02235174447, -187500.02235174447, 0.442, -0.022, 0.918, 192.0, 0.0, 0.0, 0.0, 0.0, 0.0, 0.0, 0.0, 0.0, 0.0, 1.677527926163588E9, 0.0, 2023-02-27 14:58:46.163
141.0, 7095.807146526236, 187500.0, 187500.0, 187500.0, -187500.02235174447, -187500.02235174447, -187500.02235174447, -187500.02235174447, 0.442, -0.022, 0.918, 192.0, 0.0, 0.0, 0.0, 0.0, 0.0, 0.0, 0.0, 0.0, 0.0, 1.677527926163623E9, 0.0, 2023-02-27 14:58:46.163
142.0, 6188.907466996607, 187500.0, 187500.0, 187500.0, -187500.02235174447, -187500.02235174447, -187500.02235174447, -187500.02235174447, 0.442, -0.022, 0.918, 192.0, 0.0, 0.0, 0.0, 0.0, 0.0, 0.0, 0.0, 0.0, 0.0, 1.677527926171111E9, 0.0, 2023-02-27 14:58:46.171
143.0, 7430.658630211191, 187500.0, 187500.0, 187500.0, -187500.02235174447, -187500.02235174447, -187500.02235174447, -187500.02235174447, 0.442, -0.022, 0.918, 192.0, 0.0, 0.0, 0.0, 0.0, 0.0, 0.0, 0.0, 0.0, 0.0, 1.677527926171136E9, 0.0, 2023-02-27 14:58:46.171
144.0, 6922.424664786418, 187500.0, 187500.0, 187500.0, -187500.02235174447, -187500.02235174447, -187500.02235174447, -187500.02235174447, 0.442, -0.022, 0.918, 192.0, 0.0, 0.0, 0.0, 0.0, 0.0, 0.0, 0.0, 0.0, 0.0, 1.677527926178191E9, 0.0, 2023-02-27 14:58:46.178
145.0, 5167.1198209667, 187500.0, 187500.0, 187500.0, -187500.02235174447, -187500.02235174447, -187500.02235174447, -187500.02235174447, 0.442, -0.024, 0.91, 192.0, 13.0, 208.0, 255.0, 64.0, 28.0, 112.0, 0.0, 0.0, 0.0, 1.677527926186262E9, 0.0, 2023-02-27 14:58:46.186
146.0, 6283.231828598003, 187500.0, 187500.0, 187500.0, -187500.02235174447, -187500.02235174447, -187500.02235174447, -187500.02235174447, 0.442, -0.024, 0.91, 192.0, 0.0, 0.0, 0.0, 0.0, 0.0, 0.0, 0.0, 0.0, 0.0, 1.677527926186281E9, 0.0, 2023-02-27 14:58:46.186
147.0, 6720.56606061054, 187500.0, 187500.0, 187500.0, -187500.02235174447, -187500.02235174447, -187500.02235174447, -187500.02235174447, 0.442, -0.024, 0.91, 192.0, 0.0, 0.0, 0.0, 0.0, 0.0, 0.0, 0.0, 0.0, 0.0, 1.677527926193273E9, 0.0, 2023-02-27 14:58:46.193
148.0, 6540.075724133936, 187500.0, 187500.0, 187500.0, -187500.02235174447, -187500.02235174447, -187500.02235174447, -187500.02235174447, 0.442, -0.024, 0.91, 192.0, 0.0, 0.0, 0.0, 0.0, 0.0, 0.0, 0.0, 0.0, 0.0, 1.677527926193331E9, 0.0, 2023-02-27 14:58:46.193
149.0, 7057.630366996571, 187500.0, 187500.0, 187500.0, -187500.02235174447, -187500.02235174447, -187500.02235174447, -187500.02235174447, 0.442, -0.024, 0.91, 192.0, 0.0, 0.0, 0.0, 0.0, 0.0, 0.0, 0.0, 0.0, 0.0, 1.677527926200699E9, 0.0, 2023-02-27 14:58:46.200
150.0, 6923.721065964826, 187500.0, 187500.0, 187500.0, -187500.02235174447, -187500.02235174447, -187500.02235174447, -187500.02235174447, 0.442, -0.024, 0.91, 192.0, 0.0, 0.0, 0.0, 0.0, 0.0, 0.0, 0.0, 0.0, 0.0, 1.677527926200723E9, 0.0, 2023-02-27 14:58:46.200
151.0, 6502.636552171297, 187500.0, 187500.0, 187500.0, -187500.02235174447, -187500.02235174447, -187500.02235174447, -187500.02235174447, 0.442, -0.024, 0.91, 192.0, 0.0, 0.0, 0.0, 0.0, 0.0, 0.0, 0.0, 0.0, 0.0, 1.677527926208828E9, 0.0, 2023-02-27 14:58:46.208
152.0, 6125.227347043437, 187500.0, 187500.0, 187500.0, -187500.02235174447, -187500.02235174447, -187500.02235174447, -187500.02235174447, 0.442, -0.024, 0.91, 192.0, 0.0, 0.0, 0.0, 0.0, 0.0, 0.0, 0.0, 0.0, 0.0, 1.677527926208857E9, 0.0, 2023-02-27 14:58:46.208
153.0, 6920.234193829799, 187500.0, 187500.0, 187500.0, -187500.02235174447, -187500.02235174447, -187500.02235174447, -187500.02235174447, 0.442, -0.024, 0.91, 192.0, 0.0, 0.0, 0.0, 0.0, 0.0, 0.0, 0.0, 0.0, 0.0, 1.677527926216785E9, 0.0, 2023-02-27 14:58:46.216
154.0, 6411.642600493741, 187500.0, 187500.0, 187500.0, -187500.02235174447, -187500.02235174447, -187500.02235174447, -187500.02235174447, 0.442, -0.024, 0.91, 192.0, 0.0, 0.0, 0.0, 0.0, 0.0, 0.0, 0.0, 0.0, 0.0, 1.677527926216808E9, 0.0, 2023-02-27 14:58:46.216
155.0, 5805.217421676805, 187500.0, 187500.0, 187500.0, -187500.02235174447, -187500.02235174447, -187500.02235174447, -187500.02235174447, 0.446, -0.022, 0.914, 192.0, 13.0, 240.0, 255.0, 80.0, 28.0, 144.0, 0.0, 0.0, 0.0, 1.677527926223449E9, 0.0, 2023-02-27 14:58:46.223
156.0, 6176.256379634903, 187500.0, 187500.0, 187500.0, -187500.02235174447, -187500.02235174447, -187500.02235174447, -187500.02235174447, 0.446, -0.022, 0.914, 192.0, 0.0, 0.0, 0.0, 0.0, 0.0, 0.0, 0.0, 0.0, 0.0, 1.677527926223465E9, 0.0, 2023-02-27 14:58:46.223
157.0, 7500.753700823034, 187500.0, 187500.0, 187500.0, -187500.02235174447, -187500.02235174447, -187500.02235174447, -187500.02235174447, 0.446, -0.022, 0.914, 192.0, 0.0, 0.0, 0.0, 0.0, 0.0, 0.0, 0.0, 0.0, 0.0, 1.677527926231492E9, 0.0, 2023-02-27 14:58:46.231
158.0, 6830.268422397187, 187500.0, 187500.0, 187500.0, -187500.02235174447, -187500.02235174447, -187500.02235174447, -187500.02235174447, 0.446, -0.022, 0.914, 192.0, 0.0, 0.0, 0.0, 0.0, 0.0, 0.0, 0.0, 0.0, 0.0, 1.67752792623151E9, 0.0, 2023-02-27 14:58:46.231
159.0, 5814.895727025953, 187500.0, 187500.0, 187500.0, -187500.02235174447, -187500.02235174447, -187500.02235174447, -187500.02235174447, 0.446, -0.022, 0.914, 192.0, 0.0, 0.0, 0.0, 0.0, 0.0, 0.0, 0.0, 0.0, 0.0, 1.677527926238503E9, 0.0, 2023-02-27 14:58:46.238
160.0, 6802.1052243835, 187500.0, 187500.0, 187500.0, -187500.02235174447, -187500.02235174447, -187500.02235174447, -187500.02235174447, 0.446, -0.022, 0.914, 192.0, 0.0, 0.0, 0.0, 0.0, 0.0, 0.0, 0.0, 0.0, 0.0, 1.677527926245429E9, 0.0, 2023-02-27 14:58:46.245
161.0, 7005.90843032699, 187500.0, 187500.0, 187500.0, -187500.02235174447, -187500.02235174447, -187500.02235174447, -187500.02235174447, 0.446, -0.022, 0.914, 192.0, 0.0, 0.0, 0.0, 0.0, 0.0, 0.0, 0.0, 0.0, 0.0, 1.677527926245445E9, 0.0, 2023-02-27 14:58:46.245
162.0, 6579.101869952902, 187500.0, 187500.0, 187500.0, -187500.02235174447, -187500.02235174447, -187500.02235174447, -187500.02235174447, 0.446, -0.022, 0.914, 192.0, 0.0, 0.0, 0.0, 0.0, 0.0, 0.0, 0.0, 0.0, 0.0, 1.677527926253011E9, 0.0, 2023-02-27 14:58:46.253
163.0, 6085.39653842408, 187500.0, 187500.0, 187500.0, -187500.02235174447, -187500.02235174447, -187500.02235174447, -187500.02235174447, 0.446, -0.022, 0.914, 192.0, 0.0, 0.0, 0.0, 0.0, 0.0, 0.0, 0.0, 0.0, 0.0, 1.677527926253081E9, 0.0, 2023-02-27 14:58:46.253
164.0, 6649.331051031477, 187500.0, 187500.0, 187500.0, -187500.02235174447, -187500.02235174447, -187500.02235174447, -187500.02235174447, 0.446, -0.022, 0.914, 192.0, 0.0, 0.0, 0.0, 0.0, 0.0, 0.0, 0.0, 0.0, 0.0, 1.677527926261141E9, 0.0, 2023-02-27 14:58:46.261
165.0, 6899.938809864379, 187500.0, 187500.0, 187500.0, -187500.02235174447, -187500.02235174447, -187500.02235174447, -187500.02235174447, 0.442, -0.024, 0.912, 192.0, 13.0, 208.0, 255.0, 64.0, 28.0, 128.0, 0.0, 0.0, 0.0, 1.677527926261155E9, 0.0, 2023-02-27 14:58:46.261
166.0, 6977.432307890929, 187500.0, 187500.0, 187500.0, -187500.02235174447, -187500.02235174447, -187500.02235174447, -187500.02235174447, 0.442, -0.024, 0.912, 192.0, 0.0, 0.0, 0.0, 0.0, 0.0, 0.0, 0.0, 0.0, 0.0, 1.67752792626912E9, 0.0, 2023-02-27 14:58:46.269
167.0, 5784.027967933174, 187500.0, 187500.0, 187500.0, -187500.02235174447, -187500.02235174447, -187500.02235174447, -187500.02235174447, 0.442, -0.024, 0.912, 192.0, 0.0, 0.0, 0.0, 0.0, 0.0, 0.0, 0.0, 0.0, 0.0, 1.677527926269135E9, 0.0, 2023-02-27 14:58:46.269
168.0, 6562.740393011617, 187500.0, 187500.0, 187500.0, -187500.02235174447, -187500.02235174447, -187500.02235174447, -187500.02235174447, 0.442, -0.024, 0.912, 192.0, 0.0, 0.0, 0.0, 0.0, 0.0, 0.0, 0.0, 0.0, 0.0, 1.677527926275657E9, 0.0, 2023-02-27 14:58:46.275
169.0, 7097.237658171375, 187500.0, 187500.0, 187500.0, -187500.02235174447, -187500.02235174447, -187500.02235174447, -187500.02235174447, 0.442, -0.024, 0.912, 192.0, 0.0, 0.0, 0.0, 0.0, 0.0, 0.0, 0.0, 0.0, 0.0, 1.677527926275671E9, 0.0, 2023-02-27 14:58:46.275
170.0, 6562.114544166869, 187500.0, 187500.0, 187500.0, -187500.02235174447, -187500.02235174447, -187500.02235174447, -187500.02235174447, 0.442, -0.024, 0.912, 192.0, 0.0, 0.0, 0.0, 0.0, 0.0, 0.0, 0.0, 0.0, 0.0, 1.677527926283594E9, 0.0, 2023-02-27 14:58:46.283
171.0, 6628.946260088237, 187500.0, 187500.0, 187500.0, -187500.02235174447, -187500.02235174447, -187500.02235174447, -187500.02235174447, 0.442, -0.024, 0.912, 192.0, 0.0, 0.0, 0.0, 0.0, 0.0, 0.0, 0.0, 0.0, 0.0, 1.677527926283611E9, 0.0, 2023-02-27 14:58:46.283
172.0, 6473.221656468112, 187500.0, 187500.0, 187500.0, -187500.02235174447, -187500.02235174447, -187500.02235174447, -187500.02235174447, 0.442, -0.024, 0.912, 192.0, 0.0, 0.0, 0.0, 0.0, 0.0, 0.0, 0.0, 0.0, 0.0, 1.677527926291662E9, 0.0, 2023-02-27 14:58:46.291
173.0, 7347.8007135153675, 187500.0, 187500.0, 187500.0, -187500.02235174447, -187500.02235174447, -187500.02235174447, -187500.02235174447, 0.442, -0.024, 0.912, 192.0, 0.0, 0.0, 0.0, 0.0, 0.0, 0.0, 0.0, 0.0, 0.0, 1.677527926291684E9, 0.0, 2023-02-27 14:58:46.291
174.0, 6772.3774042579425, 187500.0, 187500.0, 187500.0, -187500.02235174447, -187500.02235174447, -187500.02235174447, -187500.02235174447, 0.442, -0.024, 0.912, 192.0, 0.0, 0.0, 0.0, 0.0, 0.0, 0.0, 0.0, 0.0, 0.0, 1.677527926298853E9, 0.0, 2023-02-27 14:58:46.298
175.0, 6211.616839363199, 187500.0, 187500.0, 187500.0, -187500.02235174447, -187500.02235174447, -187500.02235174447, -187500.02235174447, 0.436, -0.024, 0.906, 192.0, 13.0, 160.0, 255.0, 64.0, 28.0, 80.0, 0.0, 0.0, 0.0, 1.67752792630531E9, 0.0, 2023-02-27 14:58:46.305
176.0, 6655.857760412427, 187500.0, 187500.0, 187500.0, -187500.02235174447, -187500.02235174447, -187500.02235174447, -187500.02235174447, 0.436, -0.024, 0.906, 192.0, 0.0, 0.0, 0.0, 0.0, 0.0, 0.0, 0.0, 0.0, 0.0, 1.677527926305328E9, 0.0, 2023-02-27 14:58:46.305
177.0, 8012.675704082931, 187500.0, 187500.0, 187500.0, -187500.02235174447, -187500.02235174447, -187500.02235174447, -187500.02235174447, 0.436, -0.024, 0.906, 192.0, 0.0, 0.0, 0.0, 0.0, 0.0, 0.0, 0.0, 0.0, 0.0, 1.677527926313345E9, 0.0, 2023-02-27 14:58:46.313
178.0, 6321.095683705293, 187500.0, 187500.0, 187500.0, -187500.02235174447, -187500.02235174447, -187500.02235174447, -187500.02235174447, 0.436, -0.024, 0.906, 192.0, 0.0, 0.0, 0.0, 0.0, 0.0, 0.0, 0.0, 0.0, 0.0, 1.677527926313402E9, 0.0, 2023-02-27 14:58:46.313
179.0, 6365.64271040472, 187500.0, 187500.0, 187500.0, -187500.02235174447, -187500.02235174447, -187500.02235174447, -187500.02235174447, 0.436, -0.024, 0.906, 192.0, 0.0, 0.0, 0.0, 0.0, 0.0, 0.0, 0.0, 0.0, 0.0, 1.677527926321413E9, 0.0, 2023-02-27 14:58:46.321
180.0, 6008.193613075449, 187500.0, 187500.0, 187500.0, -187500.02235174447, -187500.02235174447, -187500.02235174447, -187500.02235174447, 0.436, -0.024, 0.906, 192.0, 0.0, 0.0, 0.0, 0.0, 0.0, 0.0, 0.0, 0.0, 0.0, 1.677527926321433E9, 0.0, 2023-02-27 14:58:46.321
181.0, 7060.871369942591, 187500.0, 187500.0, 187500.0, -187500.02235174447, -187500.02235174447, -187500.02235174447, -187500.02235174447, 0.436, -0.024, 0.906, 192.0, 0.0, 0.0, 0.0, 0.0, 0.0, 0.0, 0.0, 0.0, 0.0, 1.677527926328439E9, 0.0, 2023-02-27 14:58:46.328
182.0, 6519.757988424062, 187500.0, 187500.0, 187500.0, -187500.02235174447, -187500.02235174447, -187500.02235174447, -187500.02235174447, 0.436, -0.024, 0.906, 192.0, 0.0, 0.0, 0.0, 0.0, 0.0, 0.0, 0.0, 0.0, 0.0, 1.677527926328458E9, 0.0, 2023-02-27 14:58:46.328
183.0, 6710.70894130575, 187500.0, 187500.0, 187500.0, -187500.02235174447, -187500.02235174447, -187500.02235174447, -187500.02235174447, 0.436, -0.024, 0.906, 192.0, 0.0, 0.0, 0.0, 0.0, 0.0, 0.0, 0.0, 0.0, 0.0, 1.677527926336003E9, 0.0, 2023-02-27 14:58:46.336
184.0, 7387.8326878348225, 187500.0, 187500.0, 187500.0, -187500.02235174447, -187500.02235174447, -187500.02235174447, -187500.02235174447, 0.438, -0.026000000000000002, 0.908, 192.0, 13.0, 176.0, 255.0, 48.0, 28.0, 96.0, 0.0, 0.0, 0.0, 1.67752792633602E9, 0.0, 2023-02-27 14:58:46.336
185.0, 7265.8592183422115, 187500.0, 187500.0, 187500.0, -187500.02235174447, -187500.02235174447, -187500.02235174447, -187500.02235174447, 0.438, -0.026000000000000002, 0.908, 192.0, 0.0, 0.0, 0.0, 0.0, 0.0, 0.0, 0.0, 0.0, 0.0, 1.677527926343912E9, 0.0, 2023-02-27 14:58:46.343
186.0, 6269.261988313436, 187500.0, 187500.0, 187500.0, -187500.02235174447, -187500.02235174447, -187500.02235174447, -187500.02235174447, 0.438, -0.026000000000000002, 0.908, 192.0, 0.0, 0.0, 0.0, 0.0, 0.0, 0.0, 0.0, 0.0, 0.0, 1.677527926343926E9, 0.0, 2023-02-27 14:58:46.343
187.0, 6148.383754299135, 187500.0, 187500.0, 187500.0, -187500.02235174447, -187500.02235174447, -187500.02235174447, -187500.02235174447, 0.438, -0.026000000000000002, 0.908, 192.0, 0.0, 0.0, 0.0, 0.0, 0.0, 0.0, 0.0, 0.0, 0.0, 1.677527926352064E9, 0.0, 2023-02-27 14:58:46.352
188.0, 6360.747678369007, 187500.0, 187500.0, 187500.0, -187500.02235174447, -187500.02235174447, -187500.02235174447, -187500.02235174447, 0.438, -0.026000000000000002, 0.908, 192.0, 0.0, 0.0, 0.0, 0.0, 0.0, 0.0, 0.0, 0.0, 0.0, 1.677527926352077E9, 0.0, 2023-02-27 14:58:46.352
189.0, 6717.906203020359, 187500.0, 187500.0, 187500.0, -187500.02235174447, -187500.02235174447, -187500.02235174447, -187500.02235174447, 0.438, -0.026000000000000002, 0.908, 192.0, 0.0, 0.0, 0.0, 0.0, 0.0, 0.0, 0.0, 0.0, 0.0, 1.677527926358044E9, 0.0, 2023-02-27 14:58:46.358
190.0, 6993.950247043401, 187500.0, 187500.0, 187500.0, -187500.02235174447, -187500.02235174447, -187500.02235174447, -187500.02235174447, 0.438, -0.026000000000000002, 0.908, 192.0, 0.0, 0.0, 0.0, 0.0, 0.0, 0.0, 0.0, 0.0, 0.0, 1.67752792635806E9, 0.0, 2023-02-27 14:58:46.358
191.0, 7241.339354674739, 187500.0, 187500.0, 187500.0, -187500.02235174447, -187500.02235174447, -187500.02235174447, -187500.02235174447, 0.438, -0.026000000000000002, 0.908, 192.0, 0.0, 0.0, 0.0, 0.0, 0.0, 0.0, 0.0, 0.0, 0.0, 1.677527926365753E9, 0.0, 2023-02-27 14:58:46.365
192.0, 6679.483554301686, 187500.0, 187500.0, 187500.0, -187500.02235174447, -187500.02235174447, -187500.02235174447, -187500.02235174447, 0.438, -0.026000000000000002, 0.908, 192.0, 0.0, 0.0, 0.0, 0.0, 0.0, 0.0, 0.0, 0.0, 0.0, 1.677527926373701E9, 0.0, 2023-02-27 14:58:46.373
193.0, 6455.653185326241, 187500.0, 187500.0, 187500.0, -187500.02235174447, -187500.02235174447, -187500.02235174447, -187500.02235174447, 0.438, -0.026000000000000002, 0.908, 192.0, 0.0, 0.0, 0.0, 0.0, 0.0, 0.0, 0.0, 0.0, 0.0, 1.677527926373768E9, 0.0, 2023-02-27 14:58:46.373
194.0, 6533.079628119425, 187500.0, 187500.0, 187500.0, -187500.02235174447, -187500.02235174447, -187500.02235174447, -187500.02235174447, 0.446, -0.02, 0.908, 192.0, 13.0, 240.0, 255.0, 96.0, 28.0, 96.0, 0.0, 0.0, 0.0, 1.677527926380699E9, 0.0, 2023-02-27 14:58:46.380
195.0, 6914.445092015874, 187500.0, 187500.0, 187500.0, -187500.02235174447, -187500.02235174447, -187500.02235174447, -187500.02235174447, 0.446, -0.02, 0.908, 192.0, 0.0, 0.0, 0.0, 0.0, 0.0, 0.0, 0.0, 0.0, 0.0, 1.677527926380715E9, 0.0, 2023-02-27 14:58:46.380
196.0, 6598.480832395653, 187500.0, 187500.0, 187500.0, -187500.02235174447, -187500.02235174447, -187500.02235174447, -187500.02235174447, 0.446, -0.02, 0.908, 192.0, 0.0, 0.0, 0.0, 0.0, 0.0, 0.0, 0.0, 0.0, 0.0, 1.677527926388291E9, 0.0, 2023-02-27 14:58:46.388
197.0, 6725.66225834635, 187500.0, 187500.0, 187500.0, -187500.02235174447, -187500.02235174447, -187500.02235174447, -187500.02235174447, 0.446, -0.02, 0.908, 192.0, 0.0, 0.0, 0.0, 0.0, 0.0, 0.0, 0.0, 0.0, 0.0, 1.677527926388312E9, 0.0, 2023-02-27 14:58:46.388
198.0, 6936.193339370888, 187500.0, 187500.0, 187500.0, -187500.02235174447, -187500.02235174447, -187500.02235174447, -187500.02235174447, 0.446, -0.02, 0.908, 192.0, 0.0, 0.0, 0.0, 0.0, 0.0, 0.0, 0.0, 0.0, 0.0, 1.677527926396306E9, 0.0, 2023-02-27 14:58:46.396
199.0, 7240.758209318902, 187500.0, 187500.0, 187500.0, -187500.02235174447, -187500.02235174447, -187500.02235174447, -187500.02235174447, 0.446, -0.02, 0.908, 192.0, 0.0, 0.0, 0.0, 0.0, 0.0, 0.0, 0.0, 0.0, 0.0, 1.677527926396323E9, 0.0, 2023-02-27 14:58:46.396
200.0, 6690.570019551518, 187500.0, 187500.0, 187500.0, -187500.02235174447, -187500.02235174447, -187500.02235174447, -187500.02235174447, 0.446, -0.02, 0.908, 192.0, 0.0, 0.0, 0.0, 0.0, 0.0, 0.0, 0.0, 0.0, 0.0, 1.677527926404251E9, 0.0, 2023-02-27 14:58:46.404
201.0, 6404.199469590124, 187500.0, 187500.0, 187500.0, -187500.02235174447, -187500.02235174447, -187500.02235174447, -187500.02235174447, 0.446, -0.02, 0.908, 192.0, 0.0, 0.0, 0.0, 0.0, 0.0, 0.0, 0.0, 0.0, 0.0, 1.67752792640427E9, 0.0, 2023-02-27 14:58:46.404
202.0, 7477.686700545157, 187500.0, 187500.0, 187500.0, -187500.02235174447, -187500.02235174447, -187500.02235174447, -187500.02235174447, 0.446, -0.02, 0.908, 192.0, 0.0, 0.0, 0.0, 0.0, 0.0, 0.0, 0.0, 0.0, 0.0, 1.677527926410801E9, 0.0, 2023-02-27 14:58:46.410
203.0, 6748.1928167573, 187500.0, 187500.0, 187500.0, -187500.02235174447, -187500.02235174447, -187500.02235174447, -187500.02235174447, 0.446, -0.02, 0.908, 192.0, 0.0, 0.0, 0.0, 0.0, 0.0, 0.0, 0.0, 0.0, 0.0, 1.677527926410819E9, 0.0, 2023-02-27 14:58:46.410
204.0, 7014.536203686739, 187500.0, 187500.0, 187500.0, -187500.02235174447, -187500.02235174447, -187500.02235174447, -187500.02235174447, 0.444, -0.016, 0.914, 192.0, 13.0, 224.0, 255.0, 128.0, 28.0, 144.0, 0.0, 0.0, 0.0, 1.677527926418963E9, 0.0, 2023-02-27 14:58:46.418
205.0, 6284.438822798589, 187500.0, 187500.0, 187500.0, -187500.02235174447, -187500.02235174447, -187500.02235174447, -187500.02235174447, 0.444, -0.016, 0.914, 192.0, 0.0, 0.0, 0.0, 0.0, 0.0, 0.0, 0.0, 0.0, 0.0, 1.677527926418983E9, 0.0, 2023-02-27 14:58:46.418
206.0, 7286.4675267300045, 187500.0, 187500.0, 187500.0, -187500.02235174447, -187500.02235174447, -187500.02235174447, -187500.02235174447, 0.444, -0.016, 0.914, 192.0, 0.0, 0.0, 0.0, 0.0, 0.0, 0.0, 0.0, 0.0, 0.0, 1.677527926425942E9, 0.0, 2023-02-27 14:58:46.425
207.0, 6926.157406110455, 187500.0, 187500.0, 187500.0, -187500.02235174447, -187500.02235174447, -187500.02235174447, -187500.02235174447, 0.444, -0.016, 0.914, 192.0, 0.0, 0.0, 0.0, 0.0, 0.0, 0.0, 0.0, 0.0, 0.0, 1.677527926433785E9, 0.0, 2023-02-27 14:58:46.433
208.0, 6943.591766785595, 187500.0, 187500.0, 187500.0, -187500.02235174447, -187500.02235174447, -187500.02235174447, -187500.02235174447, 0.444, -0.016, 0.914, 192.0, 0.0, 0.0, 0.0, 0.0, 0.0, 0.0, 0.0, 0.0, 0.0, 1.677527926433837E9, 0.0, 2023-02-27 14:58:46.433
209.0, 6141.767637940364, 187500.0, 187500.0, 187500.0, -187500.02235174447, -187500.02235174447, -187500.02235174447, -187500.02235174447, 0.444, -0.016, 0.914, 192.0, 0.0, 0.0, 0.0, 0.0, 0.0, 0.0, 0.0, 0.0, 0.0, 1.677527926440503E9, 0.0, 2023-02-27 14:58:46.440
210.0, 6681.808135725038, 187500.0, 187500.0, 187500.0, -187500.02235174447, -187500.02235174447, -187500.02235174447, -187500.02235174447, 0.444, -0.016, 0.914, 192.0, 0.0, 0.0, 0.0, 0.0, 0.0, 0.0, 0.0, 0.0, 0.0, 1.677527926440524E9, 0.0, 2023-02-27 14:58:46.440
211.0, 6753.691345893306, 187500.0, 187500.0, 187500.0, -187500.02235174447, -187500.02235174447, -187500.02235174447, -187500.02235174447, 0.444, -0.016, 0.914, 192.0, 0.0, 0.0, 0.0, 0.0, 0.0, 0.0, 0.0, 0.0, 0.0, 1.677527926449183E9, 0.0, 2023-02-27 14:58:46.449
212.0, 7250.458866412505, 187500.0, 187500.0, 187500.0, -187500.02235174447, -187500.02235174447, -187500.02235174447, -187500.02235174447, 0.444, -0.016, 0.914, 192.0, 0.0, 0.0, 0.0, 0.0, 0.0, 0.0, 0.0, 0.0, 0.0, 1.677527926449205E9, 0.0, 2023-02-27 14:58:46.449
213.0, 7004.612029148582, 187500.0, 187500.0, 187500.0, -187500.02235174447, -187500.02235174447, -187500.02235174447, -187500.02235174447, 0.444, -0.016, 0.914, 192.0, 0.0, 0.0, 0.0, 0.0, 0.0, 0.0, 0.0, 0.0, 0.0, 1.677527926456453E9, 0.0, 2023-02-27 14:58:46.456
214.0, 6423.533728543965, 187500.0, 187500.0, 187500.0, -187500.02235174447, -187500.02235174447, -187500.02235174447, -187500.02235174447, 0.444, -0.018000000000000002, 0.918, 192.0, 13.0, 224.0, 255.0, 112.0, 28.0, 176.0, 0.0, 0.0, 0.0, 1.677527926456471E9, 0.0, 2023-02-27 14:58:46.456
215.0, 7637.211100722683, 187500.0, 187500.0, 187500.0, -187500.02235174447, -187500.02235174447, -187500.02235174447, -187500.02235174447, 0.444, -0.018000000000000002, 0.918, 192.0, 0.0, 0.0, 0.0, 0.0, 0.0, 0.0, 0.0, 0.0, 0.0, 1.677527926463502E9, 0.0, 2023-02-27 14:58:46.463
216.0, 7508.554459637936, 187500.0, 187500.0, 187500.0, -187500.02235174447, -187500.02235174447, -187500.02235174447, -187500.02235174447, 0.444, -0.018000000000000002, 0.918, 192.0, 0.0, 0.0, 0.0, 0.0, 0.0, 0.0, 0.0, 0.0, 0.0, 1.677527926463527E9, 0.0, 2023-02-27 14:58:46.463
217.0, 5917.870213731553, 187500.0, 187500.0, 187500.0, -187500.02235174447, -187500.02235174447, -187500.02235174447, -187500.02235174447, 0.444, -0.018000000000000002, 0.918, 192.0, 0.0, 0.0, 0.0, 0.0, 0.0, 0.0, 0.0, 0.0, 0.0, 1.677527926471152E9, 0.0, 2023-02-27 14:58:46.471
218.0, 6464.280958685989, 187500.0, 187500.0, 187500.0, -187500.02235174447, -187500.02235174447, -187500.02235174447, -187500.02235174447, 0.444, -0.018000000000000002, 0.918, 192.0, 0.0, 0.0, 0.0, 0.0, 0.0, 0.0, 0.0, 0.0, 0.0, 1.677527926471171E9, 0.0, 2023-02-27 14:58:46.471
219.0, 7566.177256843717, 187500.0, 187500.0, 187500.0, -187500.02235174447, -187500.02235174447, -187500.02235174447, -187500.02235174447, 0.444, -0.018000000000000002, 0.918, 192.0, 0.0, 0.0, 0.0, 0.0, 0.0, 0.0, 0.0, 0.0, 0.0, 1.677527926479089E9, 0.0, 2023-02-27 14:58:46.479
220.0, 7042.475884255873, 187500.0, 187500.0, 187500.0, -187500.02235174447, -187500.02235174447, -187500.02235174447, -187500.02235174447, 0.444, -0.018000000000000002, 0.918, 192.0, 0.0, 0.0, 0.0, 0.0, 0.0, 0.0, 0.0, 0.0, 0.0, 1.677527926479108E9, 0.0, 2023-02-27 14:58:46.479
221.0, 5814.895727025953, 187500.0, 187500.0, 187500.0, -187500.02235174447, -187500.02235174447, -187500.02235174447, -187500.02235174447, 0.444, -0.018000000000000002, 0.918, 192.0, 0.0, 0.0, 0.0, 0.0, 0.0, 0.0, 0.0, 0.0, 0.0, 1.677527926485986E9, 0.0, 2023-02-27 14:58:46.485
222.0, 6431.781522247973, 187500.0, 187500.0, 187500.0, -187500.02235174447, -187500.02235174447, -187500.02235174447, -187500.02235174447, 0.444, -0.018000000000000002, 0.918, 192.0, 0.0, 0.0, 0.0, 0.0, 0.0, 0.0, 0.0, 0.0, 0.0, 1.677527926493283E9, 0.0, 2023-02-27 14:58:46.493
223.0, 7070.884951458568, 187500.0, 187500.0, 187500.0, -187500.02235174447, -187500.02235174447, -187500.02235174447, -187500.02235174447, 0.444, -0.018000000000000002, 0.918, 192.0, 0.0, 0.0, 0.0, 0.0, 0.0, 0.0, 0.0, 0.0, 0.0, 1.677527926493329E9, 0.0, 2023-02-27 14:58:46.493
224.0, 7266.999157309432, 187500.0, 187500.0, 187500.0, -187500.02235174447, -187500.02235174447, -187500.02235174447, -187500.02235174447, 0.44, -0.022, 0.92, 192.0, 13.0, 192.0, 255.0, 80.0, 28.0, 192.0, 0.0, 0.0, 0.0, 1.677527926500853E9, 0.0, 2023-02-27 14:58:46.500
225.0, 7575.520286026036, 187500.0, 187500.0, 187500.0, -187500.02235174447, -187500.02235174447, -187500.02235174447, -187500.02235174447, 0.44, -0.022, 0.92, 192.0, 0.0, 0.0, 0.0, 0.0, 0.0, 0.0, 0.0, 0.0, 0.0, 1.677527926500872E9, 0.0, 2023-02-27 14:58:46.500
226.0, 7171.6466154630925, 187500.0, 187500.0, 187500.0, -187500.02235174447, -187500.02235174447, -187500.02235174447, -187500.02235174447, 0.44, -0.022, 0.92, 192.0, 0.0, 0.0, 0.0, 0.0, 0.0, 0.0, 0.0, 0.0, 0.0, 1.677527926508851E9, 0.0, 2023-02-27 14:58:46.508
227.0, 5942.233615187838, 187500.0, 187500.0, 187500.0, -187500.02235174447, -187500.02235174447, -187500.02235174447, -187500.02235174447, 0.44, -0.022, 0.92, 192.0, 0.0, 0.0, 0.0, 0.0, 0.0, 0.0, 0.0, 0.0, 0.0, 1.677527926508871E9, 0.0, 2023-02-27 14:58:46.508
228.0, 6920.457711274352, 187500.0, 187500.0, 187500.0, -187500.02235174447, -187500.02235174447, -187500.02235174447, -187500.02235174447, 0.44, -0.022, 0.92, 192.0, 0.0, 0.0, 0.0, 0.0, 0.0, 0.0, 0.0, 0.0, 0.0, 1.677527926515814E9, 0.0, 2023-02-27 14:58:46.515
229.0, 6677.002510667147, 187500.0, 187500.0, 187500.0, -187500.02235174447, -187500.02235174447, -187500.02235174447, -187500.02235174447, 0.44, -0.022, 0.92, 192.0, 0.0, 0.0, 0.0, 0.0, 0.0, 0.0, 0.0, 0.0, 0.0, 1.677527926515833E9, 0.0, 2023-02-27 14:58:46.515
230.0, 7085.413585354518, 187500.0, 187500.0, 187500.0, -187500.02235174447, -187500.02235174447, -187500.02235174447, -187500.02235174447, 0.44, -0.022, 0.92, 192.0, 0.0, 0.0, 0.0, 0.0, 0.0, 0.0, 0.0, 0.0, 0.0, 1.677527926523475E9, 0.0, 2023-02-27 14:58:46.523
231.0, 7471.271749886483, 187500.0, 187500.0, 187500.0, -187500.02235174447, -187500.02235174447, -187500.02235174447, -187500.02235174447, 0.44, -0.022, 0.92, 192.0, 0.0, 0.0, 0.0, 0.0, 0.0, 0.0, 0.0, 0.0, 0.0, 1.677527926523496E9, 0.0, 2023-02-27 14:58:46.523
232.0, 6845.892291771447, 187500.0, 187500.0, 187500.0, -187500.02235174447, -187500.02235174447, -187500.02235174447, -187500.02235174447, 0.44, -0.022, 0.92, 192.0, 0.0, 0.0, 0.0, 0.0, 0.0, 0.0, 0.0, 0.0, 0.0, 1.677527926531536E9, 0.0, 2023-02-27 14:58:46.531
233.0, 6278.7838314513965, 187500.0, 187500.0, 187500.0, -187500.02235174447, -187500.02235174447, -187500.02235174447, -187500.02235174447, 0.44, -0.022, 0.92, 192.0, 0.0, 0.0, 0.0, 0.0, 0.0, 0.0, 0.0, 0.0, 0.0, 1.677527926531556E9, 0.0, 2023-02-27 14:58:46.531
234.0, 6779.10527933899, 187500.0, 187500.0, 187500.0, -187500.02235174447, -187500.02235174447, -187500.02235174447, -187500.02235174447, 0.448, -0.022, 0.92, 192.0, 14.0, 0.0, 255.0, 80.0, 28.0, 192.0, 0.0, 0.0, 0.0, 1.677527926539432E9, 0.0, 2023-02-27 14:58:46.539
235.0, 8508.72796877956, 187500.0, 187500.0, 187500.0, -187500.02235174447, -187500.02235174447, -187500.02235174447, -187500.02235174447, 0.448, -0.022, 0.92, 192.0, 0.0, 0.0, 0.0, 0.0, 0.0, 0.0, 0.0, 0.0, 0.0, 1.677527926539455E9, 0.0, 2023-02-27 14:58:46.539
236.0, 6274.715813960531, 187500.0, 187500.0, 187500.0, -187500.02235174447, -187500.02235174447, -187500.02235174447, -187500.02235174447, 0.448, -0.022, 0.92, 192.0, 0.0, 0.0, 0.0, 0.0, 0.0, 0.0, 0.0, 0.0, 0.0, 1.677527926545559E9, 0.0, 2023-02-27 14:58:46.545
237.0, 6069.459744627446, 187500.0, 187500.0, 187500.0, -187500.02235174447, -187500.02235174447, -187500.02235174447, -187500.02235174447, 0.448, -0.022, 0.92, 192.0, 0.0, 0.0, 0.0, 0.0, 0.0, 0.0, 0.0, 0.0, 0.0, 1.677527926553136E9, 0.0, 2023-02-27 14:58:46.553
238.0, 7287.071023830298, 187500.0, 187500.0, 187500.0, -187500.02235174447, -187500.02235174447, -187500.02235174447, -187500.02235174447, 0.448, -0.022, 0.92, 192.0, 0.0, 0.0, 0.0, 0.0, 0.0, 0.0, 0.0, 0.0, 0.0, 1.677527926553185E9, 0.0, 2023-02-27 14:58:46.553
239.0, 6902.308094776642, 187500.0, 187500.0, 187500.0, -187500.02235174447, -187500.02235174447, -187500.02235174447, -187500.02235174447, 0.448, -0.022, 0.92, 192.0, 0.0, 0.0, 0.0, 0.0, 0.0, 0.0, 0.0, 0.0, 0.0, 1.67752792656112E9, 0.0, 2023-02-27 14:58:46.561
240.0, 6836.616317822495, 187500.0, 187500.0, 187500.0, -187500.02235174447, -187500.02235174447, -187500.02235174447, -187500.02235174447, 0.448, -0.022, 0.92, 192.0, 0.0, 0.0, 0.0, 0.0, 0.0, 0.0, 0.0, 0.0, 0.0, 1.677527926561137E9, 0.0, 2023-02-27 14:58:46.561
241.0, 7099.7410535503695, 187500.0, 187500.0, 187500.0, -187500.02235174447, -187500.02235174447, -187500.02235174447, -187500.02235174447, 0.448, -0.022, 0.92, 192.0, 0.0, 0.0, 0.0, 0.0, 0.0, 0.0, 0.0, 0.0, 0.0, 1.677527926569028E9, 0.0, 2023-02-27 14:58:46.569
242.0, 7804.089224826005, 187500.0, 187500.0, 187500.0, -187500.02235174447, -187500.02235174447, -187500.02235174447, -187500.02235174447, 0.448, -0.022, 0.92, 192.0, 0.0, 0.0, 0.0, 0.0, 0.0, 0.0, 0.0, 0.0, 0.0, 1.677527926569048E9, 0.0, 2023-02-27 14:58:46.569
243.0, 6706.037426714591, 187500.0, 187500.0, 187500.0, -187500.02235174447, -187500.02235174447, -187500.02235174447, -187500.02235174447, 0.444, -0.024, 0.922, 192.0, 13.0, 224.0, 255.0, 64.0, 28.0, 208.0, 0.0, 0.0, 0.0, 1.677527926575657E9, 0.0, 2023-02-27 14:58:46.575
244.0, 6335.177282712136, 187500.0, 187500.0, 187500.0, -187500.02235174447, -187500.02235174447, -187500.02235174447, -187500.02235174447, 0.444, -0.024, 0.922, 192.0, 0.0, 0.0, 0.0, 0.0, 0.0, 0.0, 0.0, 0.0, 0.0, 1.677527926575683E9, 0.0, 2023-02-27 14:58:46.575
245.0, 6567.277797136045, 187500.0, 187500.0, 187500.0, -187500.02235174447, -187500.02235174447, -187500.02235174447, -187500.02235174447, 0.444, -0.024, 0.922, 192.0, 0.0, 0.0, 0.0, 0.0, 0.0, 0.0, 0.0, 0.0, 0.0, 1.677527926583747E9, 0.0, 2023-02-27 14:58:46.583
246.0, 6922.581126997606, 187500.0, 187500.0, 187500.0, -187500.02235174447, -187500.02235174447, -187500.02235174447, -187500.02235174447, 0.444, -0.024, 0.922, 192.0, 0.0, 0.0, 0.0, 0.0, 0.0, 0.0, 0.0, 0.0, 0.0, 1.677527926583767E9, 0.0, 2023-02-27 14:58:46.583
247.0, 6805.972076174268, 187500.0, 187500.0, 187500.0, -187500.02235174447, -187500.02235174447, -187500.02235174447, -187500.02235174447, 0.444, -0.024, 0.922, 192.0, 0.0, 0.0, 0.0, 0.0, 0.0, 0.0, 0.0, 0.0, 0.0, 1.67752792659163E9, 0.0, 2023-02-27 14:58:46.591
248.0, 6714.531089607607, 187500.0, 187500.0, 187500.0, -187500.02235174447, -187500.02235174447, -187500.02235174447, -187500.02235174447, 0.444, -0.024, 0.922, 192.0, 0.0, 0.0, 0.0, 0.0, 0.0, 0.0, 0.0, 0.0, 0.0, 1.677527926591647E9, 0.0, 2023-02-27 14:58:46.591
249.0, 8304.634190158153, 187500.0, 187500.0, 187500.0, -187500.02235174447, -187500.02235174447, -187500.02235174447, -187500.02235174447, 0.444, -0.024, 0.922, 192.0, 0.0, 0.0, 0.0, 0.0, 0.0, 0.0, 0.0, 0.0, 0.0, 1.677527926598719E9, 0.0, 2023-02-27 14:58:46.598
250.0, 8117.214812900403, 187500.0, 187500.0, 187500.0, -187500.02235174447, -187500.02235174447, -187500.02235174447, -187500.02235174447, 0.444, -0.024, 0.922, 192.0, 0.0, 0.0, 0.0, 0.0, 0.0, 0.0, 0.0, 0.0, 0.0, 1.677527926598734E9, 0.0, 2023-02-27 14:58:46.598
251.0, 5501.904249418289, 187500.0, 187500.0, 187500.0, -187500.02235174447, -187500.02235174447, -187500.02235174447, -187500.02235174447, 0.444, -0.024, 0.922, 192.0, 0.0, 0.0, 0.0, 0.0, 0.0, 0.0, 0.0, 0.0, 0.0, 1.677527926605275E9, 0.0, 2023-02-27 14:58:46.605
252.0, 6072.745451062376, 187500.0, 187500.0, 187500.0, -187500.02235174447, -187500.02235174447, -187500.02235174447, -187500.02235174447, 0.444, -0.024, 0.922, 192.0, 0.0, 0.0, 0.0, 0.0, 0.0, 0.0, 0.0, 0.0, 0.0, 1.677527926605295E9, 0.0, 2023-02-27 14:58:46.605
253.0, 7148.981946585411, 187500.0, 187500.0, 187500.0, -187500.02235174447, -187500.02235174447, -187500.02235174447, -187500.02235174447, 0.44, -0.022, 0.92, 192.0, 13.0, 192.0, 255.0, 80.0, 28.0, 192.0, 0.0, 0.0, 0.0, 1.677527926613334E9, 0.0, 2023-02-27 14:58:46.613
254.0, 7143.014030815844, 187500.0, 187500.0, 187500.0, -187500.02235174447, -187500.02235174447, -187500.02235174447, -187500.02235174447, 0.44, -0.022, 0.92, 192.0, 0.0, 0.0, 0.0, 0.0, 0.0, 0.0, 0.0, 0.0, 0.0, 1.677527926621424E9, 0.0, 2023-02-27 14:58:46.621
255.0, 6508.738578407595, 187500.0, 187500.0, 187500.0, -187500.02235174447, -187500.02235174447, -187500.02235174447, -187500.02235174447, 0.44, -0.022, 0.92, 192.0, 0.0, 0.0, 0.0, 0.0, 0.0, 0.0, 0.0, 0.0, 0.0, 1.677527926621437E9, 0.0, 2023-02-27 14:58:46.621
0.0, 6864.019556524701, 187500.0, 187500.0, 187500.0, -187500.02235174447, -187500.02235174447, -187500.02235174447, -187500.02235174447, 0.44, -0.022, 0.92, 192.0, 0.0, 0.0, 0.0, 0.0, 0.0, 0.0, 0.0, 0.0, 0.0, 1.677527926628476E9, 0.0, 2023-02-27 14:58:46.628
1.0, 7913.925697079385, 187500.0, 187500.0, 187500.0, -187500.02235174447, -187500.02235174447, -187500.02235174447, -187500.02235174447, 0.44, -0.022, 0.92, 192.0, 0.0, 0.0, 0.0, 0.0, 0.0, 0.0, 0.0, 0.0, 0.0, 1.67752792662849E9, 0.0, 2023-02-27 14:58:46.628
2.0, 6879.844591599059, 187500.0, 187500.0, 187500.0, -187500.02235174447, -187500.02235174447, -187500.02235174447, -187500.02235174447, 0.44, -0.022, 0.92, 192.0, 0.0, 0.0, 0.0, 0.0, 0.0, 0.0, 0.0, 0.0, 0.0, 1.677527926635957E9, 0.0, 2023-02-27 14:58:46.635
3.0, 6421.767940731996, 187500.0, 187500.0, 187500.0, -187500.02235174447, -187500.02235174447, -187500.02235174447, -187500.02235174447, 0.44, -0.022, 0.92, 192.0, 0.0, 0.0, 0.0, 0.0, 0.0, 0.0, 0.0, 0.0, 0.0, 1.677527926635975E9, 0.0, 2023-02-27 14:58:46.635
4.0, 6550.893968450305, 187500.0, 187500.0, 187500.0, -187500.02235174447, -187500.02235174447, -187500.02235174447, -187500.02235174447, 0.44, -0.022, 0.92, 192.0, 0.0, 0.0, 0.0, 0.0, 0.0, 0.0, 0.0, 0.0, 0.0, 1.677527926643937E9, 0.0, 2023-02-27 14:58:46.643
5.0, 6917.283763561698, 187500.0, 187500.0, 187500.0, -187500.02235174447, -187500.02235174447, -187500.02235174447, -187500.02235174447, 0.44, -0.022, 0.92, 192.0, 0.0, 0.0, 0.0, 0.0, 0.0, 0.0, 0.0, 0.0, 0.0, 1.677527926643959E9, 0.0, 2023-02-27 14:58:46.643
6.0, 6712.0947494619795, 187500.0, 187500.0, 187500.0, -187500.02235174447, -187500.02235174447, -187500.02235174447, -187500.02235174447, 0.44, -0.022, 0.92, 192.0, 0.0, 0.0, 0.0, 0.0, 0.0, 0.0, 0.0, 0.0, 0.0, 1.677527926651961E9, 0.0, 2023-02-27 14:58:46.651
7.0, 6976.806459046181, 187500.0, 187500.0, 187500.0, -187500.02235174447, -187500.02235174447, -187500.02235174447, -187500.02235174447, 0.442, -0.02, 0.914, 192.0, 13.0, 208.0, 255.0, 96.0, 28.0, 144.0, 0.0, 0.0, 0.0, 1.67752792665198E9, 0.0, 2023-02-27 14:58:46.651
8.0, 7295.050596600842, 187500.0, 187500.0, 187500.0, -187500.02235174447, -187500.02235174447, -187500.02235174447, -187500.02235174447, 0.442, -0.02, 0.914, 192.0, 0.0, 0.0, 0.0, 0.0, 0.0, 0.0, 0.0, 0.0, 0.0, 1.67752792665843E9, 0.0, 2023-02-27 14:58:46.658
9.0, 8142.762856812818, 187500.0, 187500.0, 187500.0, -187500.02235174447, -187500.02235174447, -187500.02235174447, -187500.02235174447, 0.442, -0.02, 0.914, 192.0, 0.0, 0.0, 0.0, 0.0, 0.0, 0.0, 0.0, 0.0, 0.0, 1.677527926658451E9, 0.0, 2023-02-27 14:58:46.658
10.0, 6433.234385637568, 187500.0, 187500.0, 187500.0, -187500.02235174447, -187500.02235174447, -187500.02235174447, -187500.02235174447, 0.442, -0.02, 0.914, 192.0, 0.0, 0.0, 0.0, 0.0, 0.0, 0.0, 0.0, 0.0, 0.0, 1.677527926666661E9, 0.0, 2023-02-27 14:58:46.666
11.0, 6409.31801907039, 187500.0, 187500.0, 187500.0, -187500.02235174447, -187500.02235174447, -187500.02235174447, -187500.02235174447, 0.442, -0.02, 0.914, 192.0, 0.0, 0.0, 0.0, 0.0, 0.0, 0.0, 0.0, 0.0, 0.0, 1.677527926666689E9, 0.0, 2023-02-27 14:58:46.666
12.0, 7107.3182949207185, 187500.0, 187500.0, 187500.0, -187500.02235174447, -187500.02235174447, -187500.02235174447, -187500.02235174447, 0.442, -0.02, 0.914, 192.0, 0.0, 0.0, 0.0, 0.0, 0.0, 0.0, 0.0, 0.0, 0.0, 1.677527926673599E9, 0.0, 2023-02-27 14:58:46.673
13.0, 7459.38062183626, 187500.0, 187500.0, 187500.0, -187500.02235174447, -187500.02235174447, -187500.02235174447, -187500.02235174447, 0.442, -0.02, 0.914, 192.0, 0.0, 0.0, 0.0, 0.0, 0.0, 0.0, 0.0, 0.0, 0.0, 1.67752792668075E9, 0.0, 2023-02-27 14:58:46.680
14.0, 6776.0207386041575, 187500.0, 187500.0, 187500.0, -187500.02235174447, -187500.02235174447, -187500.02235174447, -187500.02235174447, 0.442, -0.02, 0.914, 192.0, 0.0, 0.0, 0.0, 0.0, 0.0, 0.0, 0.0, 0.0, 0.0, 1.677527926680767E9, 0.0, 2023-02-27 14:58:46.680
15.0, 6657.265920313111, 187500.0, 187500.0, 187500.0, -187500.02235174447, -187500.02235174447, -187500.02235174447, -187500.02235174447, 0.442, -0.02, 0.914, 192.0, 0.0, 0.0, 0.0, 0.0, 0.0, 0.0, 0.0, 0.0, 0.0, 1.677527926688222E9, 0.0, 2023-02-27 14:58:46.688
16.0, 7797.3166462560475, 187500.0, 187500.0, 187500.0, -187500.02235174447, -187500.02235174447, -187500.02235174447, -187500.02235174447, 0.442, -0.02, 0.914, 192.0, 0.0, 0.0, 0.0, 0.0, 0.0, 0.0, 0.0, 0.0, 0.0, 1.67752792668825E9, 0.0, 2023-02-27 14:58:46.688
17.0, 7669.576426693968, 187500.0, 187500.0, 187500.0, -187500.02235174447, -187500.02235174447, -187500.02235174447, -187500.02235174447, 0.446, -0.022, 0.91, 192.0, 13.0, 240.0, 255.0, 80.0, 28.0, 112.0, 0.0, 0.0, 0.0, 1.677527926696102E9, 0.0, 2023-02-27 14:58:46.696
18.0, 5893.506812275268, 187500.0, 187500.0, 187500.0, -187500.02235174447, -187500.02235174447, -187500.02235174447, -187500.02235174447, 0.446, -0.022, 0.91, 192.0, 0.0, 0.0, 0.0, 0.0, 0.0, 0.0, 0.0, 0.0, 0.0, 1.67752792669613E9, 0.0, 2023-02-27 14:58:46.696
19.0, 6642.670231183795, 187500.0, 187500.0, 187500.0, -187500.02235174447, -187500.02235174447, -187500.02235174447, -187500.02235174447, 0.446, -0.022, 0.91, 192.0, 0.0, 0.0, 0.0, 0.0, 0.0, 0.0, 0.0, 0.0, 0.0, 1.677527926704284E9, 0.0, 2023-02-27 14:58:46.704
20.0, 6908.253658801754, 187500.0, 187500.0, 187500.0, -187500.02235174447, -187500.02235174447, -187500.02235174447, -187500.02235174447, 0.446, -0.022, 0.91, 192.0, 0.0, 0.0, 0.0, 0.0, 0.0, 0.0, 0.0, 0.0, 0.0, 1.677527926704303E9, 0.0, 2023-02-27 14:58:46.704
21.0, 7054.098791372632, 187500.0, 187500.0, 187500.0, -187500.02235174447, -187500.02235174447, -187500.02235174447, -187500.02235174447, 0.446, -0.022, 0.91, 192.0, 0.0, 0.0, 0.0, 0.0, 0.0, 0.0, 0.0, 0.0, 0.0, 1.677527926710821E9, 0.0, 2023-02-27 14:58:46.710
22.0, 7160.761315913358, 187500.0, 187500.0, 187500.0, -187500.02235174447, -187500.02235174447, -187500.02235174447, -187500.02235174447, 0.446, -0.022, 0.91, 192.0, 0.0, 0.0, 0.0, 0.0, 0.0, 0.0, 0.0, 0.0, 0.0, 1.677527926710839E9, 0.0, 2023-02-27 14:58:46.710
23.0, 7489.421366384193, 187500.0, 187500.0, 187500.0, -187500.02235174447, -187500.02235174447, -187500.02235174447, -187500.02235174447, 0.446, -0.022, 0.91, 192.0, 0.0, 0.0, 0.0, 0.0, 0.0, 0.0, 0.0, 0.0, 0.0, 1.677527926718745E9, 0.0, 2023-02-27 14:58:46.718
24.0, 6856.039983754156, 187500.0, 187500.0, 187500.0, -187500.02235174447, -187500.02235174447, -187500.02235174447, -187500.02235174447, 0.446, -0.022, 0.91, 192.0, 0.0, 0.0, 0.0, 0.0, 0.0, 0.0, 0.0, 0.0, 0.0, 1.677527926718763E9, 0.0, 2023-02-27 14:58:46.718
25.0, 6820.25484088121, 187500.0, 187500.0, 187500.0, -187500.02235174447, -187500.02235174447, -187500.02235174447, -187500.02235174447, 0.446, -0.022, 0.91, 192.0, 0.0, 0.0, 0.0, 0.0, 0.0, 0.0, 0.0, 0.0, 0.0, 1.677527926727128E9, 0.0, 2023-02-27 14:58:46.727
26.0, 6393.224763062569, 187500.0, 187500.0, 187500.0, -187500.02235174447, -187500.02235174447, -187500.02235174447, -187500.02235174447, 0.446, -0.022, 0.91, 192.0, 0.0, 0.0, 0.0, 0.0, 0.0, 0.0, 0.0, 0.0, 0.0, 1.67752792672715E9, 0.0, 2023-02-27 14:58:46.727
27.0, 7102.289152418274, 187500.0, 187500.0, 187500.0, -187500.02235174447, -187500.02235174447, -187500.02235174447, -187500.02235174447, 0.442, -0.024, 0.916, 192.0, 13.0, 208.0, 255.0, 64.0, 28.0, 160.0, 0.0, 0.0, 0.0, 1.677527926734174E9, 0.0, 2023-02-27 14:58:46.734
28.0, 7867.8140482680865, 187500.0, 187500.0, 187500.0, -187500.02235174447, -187500.02235174447, -187500.02235174447, -187500.02235174447, 0.442, -0.024, 0.916, 192.0, 0.0, 0.0, 0.0, 0.0, 0.0, 0.0, 0.0, 0.0, 0.0, 1.677527926740543E9, 0.0, 2023-02-27 14:58:46.740
29.0, 6360.278291735446, 187500.0, 187500.0, 187500.0, -187500.02235174447, -187500.02235174447, -187500.02235174447, -187500.02235174447, 0.442, -0.024, 0.916, 192.0, 0.0, 0.0, 0.0, 0.0, 0.0, 0.0, 0.0, 0.0, 0.0, 1.677527926740556E9, 0.0, 2023-02-27 14:58:46.740
30.0, 6673.448583298753, 187500.0, 187500.0, 187500.0, -187500.02235174447, -187500.02235174447, -187500.02235174447, -187500.02235174447, 0.442, -0.024, 0.916, 192.0, 0.0, 0.0, 0.0, 0.0, 0.0, 0.0, 0.0, 0.0, 0.0, 1.677527926748466E9, 0.0, 2023-02-27 14:58:46.748
31.0, 7081.345567863652, 187500.0, 187500.0, 187500.0, -187500.02235174447, -187500.02235174447, -187500.02235174447, -187500.02235174447, 0.442, -0.024, 0.916, 192.0, 0.0, 0.0, 0.0, 0.0, 0.0, 0.0, 0.0, 0.0, 0.0, 1.677527926748479E9, 0.0, 2023-02-27 14:58:46.748
32.0, 7499.502003133536, 187500.0, 187500.0, 187500.0, -187500.02235174447, -187500.02235174447, -187500.02235174447, -187500.02235174447, 0.442, -0.024, 0.916, 192.0, 0.0, 0.0, 0.0, 0.0, 0.0, 0.0, 0.0, 0.0, 0.0, 1.677527926756527E9, 0.0, 2023-02-27 14:58:46.756
33.0, 7005.7072646268925, 187500.0, 187500.0, 187500.0, -187500.02235174447, -187500.02235174447, -187500.02235174447, -187500.02235174447, 0.442, -0.024, 0.916, 192.0, 0.0, 0.0, 0.0, 0.0, 0.0, 0.0, 0.0, 0.0, 0.0, 1.677527926756547E9, 0.0, 2023-02-27 14:58:46.756
34.0, 7327.304163849851, 187500.0, 187500.0, 187500.0, -187500.02235174447, -187500.02235174447, -187500.02235174447, -187500.02235174447, 0.442, -0.024, 0.916, 192.0, 0.0, 0.0, 0.0, 0.0, 0.0, 0.0, 0.0, 0.0, 0.0, 1.67752792676369E9, 0.0, 2023-02-27 14:58:46.763
35.0, 7421.092083584319, 187500.0, 187500.0, 187500.0, -187500.02235174447, -187500.02235174447, -187500.02235174447, -187500.02235174447, 0.442, -0.024, 0.916, 192.0, 0.0, 0.0, 0.0, 0.0, 0.0, 0.0, 0.0, 0.0, 0.0, 1.67752792676371E9, 0.0, 2023-02-27 14:58:46.763
36.0, 6749.086886535512, 187500.0, 187500.0, 187500.0, -187500.02235174447, -187500.02235174447, -187500.02235174447, -187500.02235174447, 0.442, -0.024, 0.92, 192.0, 13.0, 208.0, 255.0, 64.0, 28.0, 192.0, 0.0, 0.0, 0.0, 1.677527926771171E9, 0.0, 2023-02-27 14:58:46.771
37.0, 6181.196115159526, 187500.0, 187500.0, 187500.0, -187500.02235174447, -187500.02235174447, -187500.02235174447, -187500.02235174447, 0.442, -0.024, 0.92, 192.0, 0.0, 0.0, 0.0, 0.0, 0.0, 0.0, 0.0, 0.0, 0.0, 1.677527926771195E9, 0.0, 2023-02-27 14:58:46.771
38.0, 6730.020848515135, 187500.0, 187500.0, 187500.0, -187500.02235174447, -187500.02235174447, -187500.02235174447, -187500.02235174447, 0.442, -0.024, 0.92, 192.0, 0.0, 0.0, 0.0, 0.0, 0.0, 0.0, 0.0, 0.0, 0.0, 1.677527926779058E9, 0.0, 2023-02-27 14:58:46.779
39.0, 7219.926383486555, 187500.0, 187500.0, 187500.0, -187500.02235174447, -187500.02235174447, -187500.02235174447, -187500.02235174447, 0.442, -0.024, 0.92, 192.0, 0.0, 0.0, 0.0, 0.0, 0.0, 0.0, 0.0, 0.0, 0.0, 1.677527926779073E9, 0.0, 2023-02-27 14:58:46.779
40.0, 7669.107040060407, 187500.0, 187500.0, 187500.0, -187500.02235174447, -187500.02235174447, -187500.02235174447, -187500.02235174447, 0.442, -0.024, 0.92, 192.0, 0.0, 0.0, 0.0, 0.0, 0.0, 0.0, 0.0, 0.0, 0.0, 1.677527926790496E9, 0.0, 2023-02-27 14:58:46.790
41.0, 6921.642353730483, 187500.0, 187500.0, 187500.0, -187500.02235174447, -187500.02235174447, -187500.02235174447, -187500.02235174447, 0.442, -0.024, 0.92, 192.0, 0.0, 0.0, 0.0, 0.0, 0.0, 0.0, 0.0, 0.0, 0.0, 1.677527926790519E9, 0.0, 2023-02-27 14:58:46.790
42.0, 6612.8977075693265, 187500.0, 187500.0, 187500.0, -187500.02235174447, -187500.02235174447, -187500.02235174447, -187500.02235174447, 0.442, -0.024, 0.92, 192.0, 0.0, 0.0, 0.0, 0.0, 0.0, 0.0, 0.0, 0.0, 0.0, 1.677527926793256E9, 0.0, 2023-02-27 14:58:46.793
43.0, 6977.119383468555, 187500.0, 187500.0, 187500.0, -187500.02235174447, -187500.02235174447, -187500.02235174447, -187500.02235174447, 0.442, -0.024, 0.92, 192.0, 0.0, 0.0, 0.0, 0.0, 0.0, 0.0, 0.0, 0.0, 0.0, 1.677527926800878E9, 0.0, 2023-02-27 14:58:46.800
44.0, 7554.1296665823065, 187500.0, 187500.0, 187500.0, -187500.02235174447, -187500.02235174447, -187500.02235174447, -187500.02235174447, 0.442, -0.024, 0.92, 192.0, 0.0, 0.0, 0.0, 0.0, 0.0, 0.0, 0.0, 0.0, 0.0, 1.677527926800901E9, 0.0, 2023-02-27 14:58:46.800
45.0, 6808.1848988753445, 187500.0, 187500.0, 187500.0, -187500.02235174447, -187500.02235174447, -187500.02235174447, -187500.02235174447, 0.442, -0.024, 0.92, 192.0, 0.0, 0.0, 0.0, 0.0, 0.0, 0.0, 0.0, 0.0, 0.0, 1.677527926808859E9, 0.0, 2023-02-27 14:58:46.808
46.0, 7269.211980010507, 187500.0, 187500.0, 187500.0, -187500.02235174447, -187500.02235174447, -187500.02235174447, -187500.02235174447, 0.446, -0.022, 0.918, 192.0, 13.0, 240.0, 255.0, 80.0, 28.0, 176.0, 0.0, 0.0, 0.0, 1.67752792680888E9, 0.0, 2023-02-27 14:58:46.808
47.0, 7844.970565434763, 187500.0, 187500.0, 187500.0, -187500.02235174447, -187500.02235174447, -187500.02235174447, -187500.02235174447, 0.446, -0.022, 0.918, 192.0, 0.0, 0.0, 0.0, 0.0, 0.0, 0.0, 0.0, 0.0, 0.0, 1.677527926816861E9, 0.0, 2023-02-27 14:58:46.816
48.0, 6257.862598641229, 187500.0, 187500.0, 187500.0, -187500.02235174447, -187500.02235174447, -187500.02235174447, -187500.02235174447, 0.446, -0.022, 0.918, 192.0, 0.0, 0.0, 0.0, 0.0, 0.0, 0.0, 0.0, 0.0, 0.0, 1.677527926816877E9, 0.0, 2023-02-27 14:58:46.816
49.0, 6892.898010360958, 187500.0, 187500.0, 187500.0, -187500.02235174447, -187500.02235174447, -187500.02235174447, -187500.02235174447, 0.446, -0.022, 0.918, 192.0, 0.0, 0.0, 0.0, 0.0, 0.0, 0.0, 0.0, 0.0, 0.0, 1.677527926823498E9, 0.0, 2023-02-27 14:58:46.823
50.0, 7849.351507348002, 187500.0, 187500.0, 187500.0, -187500.02235174447, -187500.02235174447, -187500.02235174447, -187500.02235174447, 0.446, -0.022, 0.918, 192.0, 0.0, 0.0, 0.0, 0.0, 0.0, 0.0, 0.0, 0.0, 0.0, 1.677527926823513E9, 0.0, 2023-02-27 14:58:46.823
51.0, 7030.115369572088, 187500.0, 187500.0, 187500.0, -187500.02235174447, -187500.02235174447, -187500.02235174447, -187500.02235174447, 0.446, -0.022, 0.918, 192.0, 0.0, 0.0, 0.0, 0.0, 0.0, 0.0, 0.0, 0.0, 0.0, 1.67752792683138E9, 0.0, 2023-02-27 14:58:46.831
52.0, 6680.1094031464345, 187500.0, 187500.0, 187500.0, -187500.02235174447, -187500.02235174447, -187500.02235174447, -187500.02235174447, 0.446, -0.022, 0.918, 192.0, 0.0, 0.0, 0.0, 0.0, 0.0, 0.0, 0.0, 0.0, 0.0, 1.677527926831403E9, 0.0, 2023-02-27 14:58:46.831
53.0, 7054.903454173023, 187500.0, 187500.0, 187500.0, -187500.02235174447, -187500.02235174447, -187500.02235174447, -187500.02235174447, 0.446, -0.022, 0.918, 192.0, 0.0, 0.0, 0.0, 0.0, 0.0, 0.0, 0.0, 0.0, 0.0, 1.677527926839492E9, 0.0, 2023-02-27 14:58:46.839
54.0, 7599.101376426384, 187500.0, 187500.0, 187500.0, -187500.02235174447, -187500.02235174447, -187500.02235174447, -187500.02235174447, 0.446, -0.022, 0.918, 192.0, 0.0, 0.0, 0.0, 0.0, 0.0, 0.0, 0.0, 0.0, 0.0, 1.677527926839518E9, 0.0, 2023-02-27 14:58:46.839
55.0, 6922.201147341865, 187500.0, 187500.0, 187500.0, -187500.02235174447, -187500.02235174447, -187500.02235174447, -187500.02235174447, 0.446, -0.022, 0.918, 192.0, 0.0, 0.0, 0.0, 0.0, 0.0, 0.0, 0.0, 0.0, 0.0, 1.677527926846771E9, 0.0, 2023-02-27 14:58:46.846
56.0, 6445.483141599077, 187500.0, 187500.0, 187500.0, -187500.02235174447, -187500.02235174447, -187500.02235174447, -187500.02235174447, 0.444, -0.024, 0.916, 192.0, 13.0, 224.0, 255.0, 64.0, 28.0, 160.0, 0.0, 0.0, 0.0, 1.677527926846793E9, 0.0, 2023-02-27 14:58:46.846
57.0, 7395.208763505074, 187500.0, 187500.0, 187500.0, -187500.02235174447, -187500.02235174447, -187500.02235174447, -187500.02235174447, 0.444, -0.024, 0.916, 192.0, 0.0, 0.0, 0.0, 0.0, 0.0, 0.0, 0.0, 0.0, 0.0, 1.677527926853197E9, 0.0, 2023-02-27 14:58:46.853
58.0, 7748.768657299121, 187500.0, 187500.0, 187500.0, -187500.02235174447, -187500.02235174447, -187500.02235174447, -187500.02235174447, 0.444, -0.024, 0.916, 192.0, 0.0, 0.0, 0.0, 0.0, 0.0, 0.0, 0.0, 0.0, 0.0, 1.677527926853211E9, 0.0, 2023-02-27 14:58:46.853
59.0, 6366.559131927387, 187500.0, 187500.0, 187500.0, -187500.02235174447, -187500.02235174447, -187500.02235174447, -187500.02235174447, 0.444, -0.024, 0.916, 192.0, 0.0, 0.0, 0.0, 0.0, 0.0, 0.0, 0.0, 0.0, 0.0, 1.677527926861197E9, 0.0, 2023-02-27 14:58:46.861
60.0, 6551.273948106044, 187500.0, 187500.0, 187500.0, -187500.02235174447, -187500.02235174447, -187500.02235174447, -187500.02235174447, 0.444, -0.024, 0.916, 192.0, 0.0, 0.0, 0.0, 0.0, 0.0, 0.0, 0.0, 0.0, 0.0, 1.677527926869171E9, 0.0, 2023-02-27 14:58:46.869
61.0, 6998.95703780139, 187500.0, 187500.0, 187500.0, -187500.02235174447, -187500.02235174447, -187500.02235174447, -187500.02235174447, 0.444, -0.024, 0.916, 192.0, 0.0, 0.0, 0.0, 0.0, 0.0, 0.0, 0.0, 0.0, 0.0, 1.677527926869194E9, 0.0, 2023-02-27 14:58:46.869
62.0, 6936.394505070985, 187500.0, 187500.0, 187500.0, -187500.02235174447, -187500.02235174447, -187500.02235174447, -187500.02235174447, 0.444, -0.024, 0.916, 192.0, 0.0, 0.0, 0.0, 0.0, 0.0, 0.0, 0.0, 0.0, 0.0, 1.677527926875814E9, 0.0, 2023-02-27 14:58:46.875
63.0, 6806.4861662967405, 187500.0, 187500.0, 187500.0, -187500.02235174447, -187500.02235174447, -187500.02235174447, -187500.02235174447, 0.444, -0.024, 0.916, 192.0, 0.0, 0.0, 0.0, 0.0, 0.0, 0.0, 0.0, 0.0, 0.0, 1.677527926875828E9, 0.0, 2023-02-27 14:58:46.875
64.0, 7583.388100074304, 187500.0, 187500.0, 187500.0, -187500.02235174447, -187500.02235174447, -187500.02235174447, -187500.02235174447, 0.444, -0.024, 0.916, 192.0, 0.0, 0.0, 0.0, 0.0, 0.0, 0.0, 0.0, 0.0, 0.0, 1.677527926883798E9, 0.0, 2023-02-27 14:58:46.883
65.0, 6757.133514539423, 187500.0, 187500.0, 187500.0, -187500.02235174447, -187500.02235174447, -187500.02235174447, -187500.02235174447, 0.444, -0.024, 0.916, 192.0, 0.0, 0.0, 0.0, 0.0, 0.0, 0.0, 0.0, 0.0, 0.0, 1.67752792688382E9, 0.0, 2023-02-27 14:58:46.883
66.0, 6712.51943260663, 187500.0, 187500.0, 187500.0, -187500.02235174447, -187500.02235174447, -187500.02235174447, -187500.02235174447, 0.444, -0.028, 0.918, 192.0, 13.0, 224.0, 255.0, 32.0, 28.0, 176.0, 0.0, 0.0, 0.0, 1.677527926891739E9, 0.0, 2023-02-27 14:58:46.891
67.0, 7154.815751888246, 187500.0, 187500.0, 187500.0, -187500.02235174447, -187500.02235174447, -187500.02235174447, -187500.02235174447, 0.444, -0.028, 0.918, 192.0, 0.0, 0.0, 0.0, 0.0, 0.0, 0.0, 0.0, 0.0, 0.0, 1.67752792689176E9, 0.0, 2023-02-27 14:58:46.891
68.0, 6948.620909288038, 187500.0, 187500.0, 187500.0, -187500.02235174447, -187500.02235174447, -187500.02235174447, -187500.02235174447, 0.444, -0.028, 0.918, 192.0, 0.0, 0.0, 0.0, 0.0, 0.0, 0.0, 0.0, 0.0, 0.0, 1.677527926898967E9, 0.0, 2023-02-27 14:58:46.898
69.0, 7608.287943397516, 187500.0, 187500.0, 187500.0, -187500.02235174447, -187500.02235174447, -187500.02235174447, -187500.02235174447, 0.444, -0.028, 0.918, 192.0, 0.0, 0.0, 0.0, 0.0, 0.0, 0.0, 0.0, 0.0, 0.0, 1.677527926898981E9, 0.0, 2023-02-27 14:58:46.898
70.0, 6736.011116029158, 187500.0, 187500.0, 187500.0, -187500.02235174447, -187500.02235174447, -187500.02235174447, -187500.02235174447, 0.444, -0.028, 0.918, 192.0, 0.0, 0.0, 0.0, 0.0, 0.0, 0.0, 0.0, 0.0, 0.0, 1.677527926906319E9, 0.0, 2023-02-27 14:58:46.906
71.0, 6864.086611758067, 187500.0, 187500.0, 187500.0, -187500.02235174447, -187500.02235174447, -187500.02235174447, -187500.02235174447, 0.444, -0.028, 0.918, 192.0, 0.0, 0.0, 0.0, 0.0, 0.0, 0.0, 0.0, 0.0, 0.0, 1.677527926906332E9, 0.0, 2023-02-27 14:58:46.906
72.0, 6845.087628971056, 187500.0, 187500.0, 187500.0, -187500.02235174447, -187500.02235174447, -187500.02235174447, -187500.02235174447, 0.444, -0.028, 0.918, 192.0, 0.0, 0.0, 0.0, 0.0, 0.0, 0.0, 0.0, 0.0, 0.0, 1.677527926914315E9, 0.0, 2023-02-27 14:58:46.914
73.0, 6870.322748461098, 187500.0, 187500.0, 187500.0, -187500.02235174447, -187500.02235174447, -187500.02235174447, -187500.02235174447, 0.444, -0.028, 0.918, 192.0, 0.0, 0.0, 0.0, 0.0, 0.0, 0.0, 0.0, 0.0, 0.0, 1.677527926914381E9, 0.0, 2023-02-27 14:58:46.914
74.0, 6858.386916921963, 187500.0, 187500.0, 187500.0, -187500.02235174447, -187500.02235174447, -187500.02235174447, -187500.02235174447, 0.444, -0.028, 0.918, 192.0, 0.0, 0.0, 0.0, 0.0, 0.0, 0.0, 0.0, 0.0, 0.0, 1.677527926921353E9, 0.0, 2023-02-27 14:58:46.921
75.0, 7160.962481613456, 187500.0, 187500.0, 187500.0, -187500.02235174447, -187500.02235174447, -187500.02235174447, -187500.02235174447, 0.444, -0.028, 0.918, 192.0, 0.0, 0.0, 0.0, 0.0, 0.0, 0.0, 0.0, 0.0, 0.0, 1.677527926928447E9, 0.0, 2023-02-27 14:58:46.928
76.0, 7363.26812067844, 187500.0, 187500.0, 187500.0, -187500.02235174447, -187500.02235174447, -187500.02235174447, -187500.02235174447, 0.442, -0.024, 0.922, 192.0, 13.0, 208.0, 255.0, 64.0, 28.0, 208.0, 0.0, 0.0, 0.0, 1.677527926928466E9, 0.0, 2023-02-27 14:58:46.928
77.0, 7430.189243577629, 187500.0, 187500.0, 187500.0, -187500.02235174447, -187500.02235174447, -187500.02235174447, -187500.02235174447, 0.442, -0.024, 0.922, 192.0, 0.0, 0.0, 0.0, 0.0, 0.0, 0.0, 0.0, 0.0, 0.0, 1.677527926936029E9, 0.0, 2023-02-27 14:58:46.936
78.0, 6719.783749554605, 187500.0, 187500.0, 187500.0, -187500.02235174447, -187500.02235174447, -187500.02235174447, -187500.02235174447, 0.442, -0.024, 0.922, 192.0, 0.0, 0.0, 0.0, 0.0, 0.0, 0.0, 0.0, 0.0, 0.0, 1.67752792693604E9, 0.0, 2023-02-27 14:58:46.936
79.0, 7777.535352413101, 187500.0, 187500.0, 187500.0, -187500.02235174447, -187500.02235174447, -187500.02235174447, -187500.02235174447, 0.442, -0.024, 0.922, 192.0, 0.0, 0.0, 0.0, 0.0, 0.0, 0.0, 0.0, 0.0, 0.0, 1.677527926944065E9, 0.0, 2023-02-27 14:58:46.944
80.0, 6448.433571867177, 187500.0, 187500.0, 187500.0, -187500.02235174447, -187500.02235174447, -187500.02235174447, -187500.02235174447, 0.442, -0.024, 0.922, 192.0, 0.0, 0.0, 0.0, 0.0, 0.0, 0.0, 0.0, 0.0, 0.0, 1.677527926944087E9, 0.0, 2023-02-27 14:58:46.944
81.0, 6458.760077805528, 187500.0, 187500.0, 187500.0, -187500.02235174447, -187500.02235174447, -187500.02235174447, -187500.02235174447, 0.442, -0.024, 0.922, 192.0, 0.0, 0.0, 0.0, 0.0, 0.0, 0.0, 0.0, 0.0, 0.0, 1.677527926952148E9, 0.0, 2023-02-27 14:58:46.952
82.0, 6493.137060777791, 187500.0, 187500.0, 187500.0, -187500.02235174447, -187500.02235174447, -187500.02235174447, -187500.02235174447, 0.442, -0.024, 0.922, 192.0, 0.0, 0.0, 0.0, 0.0, 0.0, 0.0, 0.0, 0.0, 0.0, 1.677527926952164E9, 0.0, 2023-02-27 14:58:46.952
83.0, 7046.8568261691125, 187500.0, 187500.0, 187500.0, -187500.02235174447, -187500.02235174447, -187500.02235174447, -187500.02235174447, 0.442, -0.024, 0.922, 192.0, 0.0, 0.0, 0.0, 0.0, 0.0, 0.0, 0.0, 0.0, 0.0, 1.67752792695997E9, 0.0, 2023-02-27 14:58:46.959
84.0, 7082.396099853051, 187500.0, 187500.0, 187500.0, -187500.02235174447, -187500.02235174447, -187500.02235174447, -187500.02235174447, 0.442, -0.024, 0.922, 192.0, 0.0, 0.0, 0.0, 0.0, 0.0, 0.0, 0.0, 0.0, 0.0, 1.677527926959989E9, 0.0, 2023-02-27 14:58:46.959
85.0, 7080.4291463409845, 187500.0, 187500.0, 187500.0, -187500.02235174447, -187500.02235174447, -187500.02235174447, -187500.02235174447, 0.442, -0.024, 0.922, 192.0, 0.0, 0.0, 0.0, 0.0, 0.0, 0.0, 0.0, 0.0, 0.0, 1.677527926966765E9, 0.0, 2023-02-27 14:58:46.966
86.0, 7208.906973470089, 187500.0, 187500.0, 187500.0, -187500.02235174447, -187500.02235174447, -187500.02235174447, -187500.02235174447, 0.446, -0.034, 0.92, 192.0, 13.0, 240.0, 254.0, 240.0, 28.0, 192.0, 0.0, 0.0, 0.0, 1.677527926966791E9, 0.0, 2023-02-27 14:58:46.966
87.0, 6753.579587171029, 187500.0, 187500.0, 187500.0, -187500.02235174447, -187500.02235174447, -187500.02235174447, -187500.02235174447, 0.446, -0.034, 0.92, 192.0, 0.0, 0.0, 0.0, 0.0, 0.0, 0.0, 0.0, 0.0, 0.0, 1.677527926974715E9, 0.0, 2023-02-27 14:58:46.974
88.0, 6687.999568939158, 187500.0, 187500.0, 187500.0, -187500.02235174447, -187500.02235174447, -187500.02235174447, -187500.02235174447, 0.446, -0.034, 0.92, 192.0, 0.0, 0.0, 0.0, 0.0, 0.0, 0.0, 0.0, 0.0, 0.0, 1.677527926974753E9, 0.0, 2023-02-27 14:58:46.974
89.0, 7720.761921496621, 187500.0, 187500.0, 187500.0, -187500.02235174447, -187500.02235174447, -187500.02235174447, -187500.02235174447, 0.446, -0.034, 0.92, 192.0, 0.0, 0.0, 0.0, 0.0, 0.0, 0.0, 0.0, 0.0, 0.0, 1.677527926981875E9, 0.0, 2023-02-27 14:58:46.981
90.0, 6815.985657690247, 187500.0, 187500.0, 187500.0, -187500.02235174447, -187500.02235174447, -187500.02235174447, -187500.02235174447, 0.446, -0.034, 0.92, 192.0, 0.0, 0.0, 0.0, 0.0, 0.0, 0.0, 0.0, 0.0, 0.0, 1.677527926988336E9, 0.0, 2023-02-27 14:58:46.988
91.0, 6609.12026275638, 187500.0, 187500.0, 187500.0, -187500.02235174447, -187500.02235174447, -187500.02235174447, -187500.02235174447, 0.446, -0.034, 0.92, 192.0, 0.0, 0.0, 0.0, 0.0, 0.0, 0.0, 0.0, 0.0, 0.0, 1.677527926988349E9, 0.0, 2023-02-27 14:58:46.988
92.0, 7015.407921720496, 187500.0, 187500.0, 187500.0, -187500.02235174447, -187500.02235174447, -187500.02235174447, -187500.02235174447, 0.446, -0.034, 0.92, 192.0, 0.0, 0.0, 0.0, 0.0, 0.0, 0.0, 0.0, 0.0, 0.0, 1.677527926996371E9, 0.0, 2023-02-27 14:58:46.996
93.0, 6901.324618020609, 187500.0, 187500.0, 187500.0, -187500.02235174447, -187500.02235174447, -187500.02235174447, -187500.02235174447, 0.446, -0.034, 0.92, 192.0, 0.0, 0.0, 0.0, 0.0, 0.0, 0.0, 0.0, 0.0, 0.0, 1.677527926996391E9, 0.0, 2023-02-27 14:58:46.996
94.0, 6740.302650964577, 187500.0, 187500.0, 187500.0, -187500.02235174447, -187500.02235174447, -187500.02235174447, -187500.02235174447, 0.446, -0.034, 0.92, 192.0, 0.0, 0.0, 0.0, 0.0, 0.0, 0.0, 0.0, 0.0, 0.0, 1.677527927004244E9, 0.0, 2023-02-27 14:58:47.004
95.0, 7608.310295141971, 187500.0, 187500.0, 187500.0, -187500.02235174447, -187500.02235174447, -187500.02235174447, -187500.02235174447, 0.446, -0.028, 0.912, 192.0, 13.0, 240.0, 255.0, 32.0, 28.0, 128.0, 0.0, 0.0, 0.0, 1.677527927004262E9, 0.0, 2023-02-27 14:58:47.004
96.0, 7392.973589059543, 187500.0, 187500.0, 187500.0, -187500.02235174447, -187500.02235174447, -187500.02235174447, -187500.02235174447, 0.446, -0.028, 0.912, 192.0, 0.0, 0.0, 0.0, 0.0, 0.0, 0.0, 0.0, 0.0, 0.0, 1.677527927010911E9, 0.0, 2023-02-27 14:58:47.010
97.0, 6308.511651576955, 187500.0, 187500.0, 187500.0, -187500.02235174447, -187500.02235174447, -187500.02235174447, -187500.02235174447, 0.446, -0.028, 0.912, 192.0, 0.0, 0.0, 0.0, 0.0, 0.0, 0.0, 0.0, 0.0, 0.0, 1.677527927010932E9, 0.0, 2023-02-27 14:58:47.010
98.0, 6914.1321675935, 187500.0, 187500.0, 187500.0, -187500.02235174447, -187500.02235174447, -187500.02235174447, -187500.02235174447, 0.446, -0.028, 0.912, 192.0, 0.0, 0.0, 0.0, 0.0, 0.0, 0.0, 0.0, 0.0, 0.0, 1.67752792701883E9, 0.0, 2023-02-27 14:58:47.018
99.0, 6946.162217397955, 187500.0, 187500.0, 187500.0, -187500.02235174447, -187500.02235174447, -187500.02235174447, -187500.02235174447, 0.446, -0.028, 0.912, 192.0, 0.0, 0.0, 0.0, 0.0, 0.0, 0.0, 0.0, 0.0, 0.0, 1.677527927018842E9, 0.0, 2023-02-27 14:58:47.018
100.0, 6858.521027388696, 187500.0, 187500.0, 187500.0, -187500.02235174447, -187500.02235174447, -187500.02235174447, -187500.02235174447, 0.446, -0.028, 0.912, 192.0, 0.0, 0.0, 0.0, 0.0, 0.0, 0.0, 0.0, 0.0, 0.0, 1.677527927026855E9, 0.0, 2023-02-27 14:58:47.026
101.0, 7801.652884680377, 187500.0, 187500.0, 187500.0, -187500.02235174447, -187500.02235174447, -187500.02235174447, -187500.02235174447, 0.446, -0.028, 0.912, 192.0, 0.0, 0.0, 0.0, 0.0, 0.0, 0.0, 0.0, 0.0, 0.0, 1.677527927026868E9, 0.0, 2023-02-27 14:58:47.026
102.0, 6167.181571386048, 187500.0, 187500.0, 187500.0, -187500.02235174447, -187500.02235174447, -187500.02235174447, -187500.02235174447, 0.446, -0.028, 0.912, 192.0, 0.0, 0.0, 0.0, 0.0, 0.0, 0.0, 0.0, 0.0, 0.0, 1.677527927034026E9, 0.0, 2023-02-27 14:58:47.034
103.0, 6385.535762969943, 187500.0, 187500.0, 187500.0, -187500.02235174447, -187500.02235174447, -187500.02235174447, -187500.02235174447, 0.446, -0.028, 0.912, 192.0, 0.0, 0.0, 0.0, 0.0, 0.0, 0.0, 0.0, 0.0, 0.0, 1.67752792703406E9, 0.0, 2023-02-27 14:58:47.034
104.0, 6816.075064668067, 187500.0, 187500.0, 187500.0, -187500.02235174447, -187500.02235174447, -187500.02235174447, -187500.02235174447, 0.446, -0.028, 0.912, 192.0, 0.0, 0.0, 0.0, 0.0, 0.0, 0.0, 0.0, 0.0, 0.0, 1.67752792704053E9, 0.0, 2023-02-27 14:58:47.040
105.0, 7222.988572476933, 187500.0, 187500.0, 187500.0, -187500.02235174447, -187500.02235174447, -187500.02235174447, -187500.02235174447, 0.448, -0.024, 0.914, 192.0, 14.0, 0.0, 255.0, 64.0, 28.0, 144.0, 0.0, 0.0, 0.0, 1.677527927048532E9, 0.0, 2023-02-27 14:58:47.048
106.0, 7084.050128942744, 187500.0, 187500.0, 187500.0, -187500.02235174447, -187500.02235174447, -187500.02235174447, -187500.02235174447, 0.448, -0.024, 0.914, 192.0, 0.0, 0.0, 0.0, 0.0, 0.0, 0.0, 0.0, 0.0, 0.0, 1.677527927048556E9, 0.0, 2023-02-27 14:58:47.048
107.0, 6836.97394573378, 187500.0, 187500.0, 187500.0, -187500.02235174447, -187500.02235174447, -187500.02235174447, -187500.02235174447, 0.448, -0.024, 0.914, 192.0, 0.0, 0.0, 0.0, 0.0, 0.0, 0.0, 0.0, 0.0, 0.0, 1.677527927056508E9, 0.0, 2023-02-27 14:58:47.056
108.0, 6914.534498993695, 187500.0, 187500.0, 187500.0, -187500.02235174447, -187500.02235174447, -187500.02235174447, -187500.02235174447, 0.448, -0.024, 0.914, 192.0, 0.0, 0.0, 0.0, 0.0, 0.0, 0.0, 0.0, 0.0, 0.0, 1.67752792705652E9, 0.0, 2023-02-27 14:58:47.056
109.0, 7066.951044434434, 187500.0, 187500.0, 187500.0, -187500.02235174447, -187500.02235174447, -187500.02235174447, -187500.02235174447, 0.448, -0.024, 0.914, 192.0, 0.0, 0.0, 0.0, 0.0, 0.0, 0.0, 0.0, 0.0, 0.0, 1.677527927063697E9, 0.0, 2023-02-27 14:58:47.063
110.0, 7926.576784441088, 187500.0, 187500.0, 187500.0, -187500.02235174447, -187500.02235174447, -187500.02235174447, -187500.02235174447, 0.448, -0.024, 0.914, 192.0, 0.0, 0.0, 0.0, 0.0, 0.0, 0.0, 0.0, 0.0, 0.0, 1.677527927063708E9, 0.0, 2023-02-27 14:58:47.063
111.0, 6712.9217640068255, 187500.0, 187500.0, 187500.0, -187500.02235174447, -187500.02235174447, -187500.02235174447, -187500.02235174447, 0.448, -0.024, 0.914, 192.0, 0.0, 0.0, 0.0, 0.0, 0.0, 0.0, 0.0, 0.0, 0.0, 1.677527927071119E9, 0.0, 2023-02-27 14:58:47.071
112.0, 6122.321620264247, 187500.0, 187500.0, 187500.0, -187500.02235174447, -187500.02235174447, -187500.02235174447, -187500.02235174447, 0.448, -0.024, 0.914, 192.0, 0.0, 0.0, 0.0, 0.0, 0.0, 0.0, 0.0, 0.0, 0.0, 1.677527927071132E9, 0.0, 2023-02-27 14:58:47.071
113.0, 6913.483967004296, 187500.0, 187500.0, 187500.0, -187500.02235174447, -187500.02235174447, -187500.02235174447, -187500.02235174447, 0.448, -0.024, 0.914, 192.0, 0.0, 0.0, 0.0, 0.0, 0.0, 0.0, 0.0, 0.0, 0.0, 1.677527927079476E9, 0.0, 2023-02-27 14:58:47.079
114.0, 6967.597540330594, 187500.0, 187500.0, 187500.0, -187500.02235174447, -187500.02235174447, -187500.02235174447, -187500.02235174447, 0.448, -0.024, 0.914, 192.0, 0.0, 0.0, 0.0, 0.0, 0.0, 0.0, 0.0, 0.0, 0.0, 1.677527927079496E9, 0.0, 2023-02-27 14:58:47.079
115.0, 7195.652389008092, 187500.0, 187500.0, 187500.0, -187500.02235174447, -187500.02235174447, -187500.02235174447, -187500.02235174447, 0.442, -0.026000000000000002, 0.914, 192.0, 13.0, 208.0, 255.0, 48.0, 28.0, 144.0, 0.0, 0.0, 0.0, 1.677527927087824E9, 0.0, 2023-02-27 14:58:47.087
116.0, 7844.03179216764, 187500.0, 187500.0, 187500.0, -187500.02235174447, -187500.02235174447, -187500.02235174447, -187500.02235174447, 0.442, -0.026000000000000002, 0.914, 192.0, 0.0, 0.0, 0.0, 0.0, 0.0, 0.0, 0.0, 0.0, 0.0, 1.677527927087847E9, 0.0, 2023-02-27 14:58:47.087
117.0, 6762.430877975331, 187500.0, 187500.0, 187500.0, -187500.02235174447, -187500.02235174447, -187500.02235174447, -187500.02235174447, 0.442, -0.026000000000000002, 0.914, 192.0, 0.0, 0.0, 0.0, 0.0, 0.0, 0.0, 0.0, 0.0, 0.0, 1.677527927094854E9, 0.0, 2023-02-27 14:58:47.094
118.0, 6348.968309041061, 187500.0, 187500.0, 187500.0, -187500.02235174447, -187500.02235174447, -187500.02235174447, -187500.02235174447, 0.442, -0.026000000000000002, 0.914, 192.0, 0.0, 0.0, 0.0, 0.0, 0.0, 0.0, 0.0, 0.0, 0.0, 1.677527927094928E9, 0.0, 2023-02-27 14:58:47.094
119.0, 6580.0853467089355, 187500.0, 187500.0, 187500.0, -187500.02235174447, -187500.02235174447, -187500.02235174447, -187500.02235174447, 0.442, -0.026000000000000002, 0.914, 192.0, 0.0, 0.0, 0.0, 0.0, 0.0, 0.0, 0.0, 0.0, 0.0, 1.677527927100709E9, 0.0, 2023-02-27 14:58:47.100
120.0, 7098.802280283247, 187500.0, 187500.0, 187500.0, -187500.02235174447, -187500.02235174447, -187500.02235174447, -187500.02235174447, 0.442, -0.026000000000000002, 0.914, 192.0, 0.0, 0.0, 0.0, 0.0, 0.0, 0.0, 0.0, 0.0, 0.0, 1.677527927100727E9, 0.0, 2023-02-27 14:58:47.100
121.0, 7617.563917346468, 187500.0, 187500.0, 187500.0, -187500.02235174447, -187500.02235174447, -187500.02235174447, -187500.02235174447, 0.442, -0.026000000000000002, 0.914, 192.0, 0.0, 0.0, 0.0, 0.0, 0.0, 0.0, 0.0, 0.0, 0.0, 1.677527927108808E9, 0.0, 2023-02-27 14:58:47.108
122.0, 6331.422189643645, 187500.0, 187500.0, 187500.0, -187500.02235174447, -187500.02235174447, -187500.02235174447, -187500.02235174447, 0.442, -0.026000000000000002, 0.914, 192.0, 0.0, 0.0, 0.0, 0.0, 0.0, 0.0, 0.0, 0.0, 0.0, 1.677527927116808E9, 0.0, 2023-02-27 14:58:47.116
123.0, 6503.105938804858, 187500.0, 187500.0, 187500.0, -187500.02235174447, -187500.02235174447, -187500.02235174447, -187500.02235174447, 0.442, -0.026000000000000002, 0.914, 192.0, 0.0, 0.0, 0.0, 0.0, 0.0, 0.0, 0.0, 0.0, 0.0, 1.677527927116823E9, 0.0, 2023-02-27 14:58:47.116
124.0, 6625.682905397762, 187500.0, 187500.0, 187500.0, -187500.02235174447, -187500.02235174447, -187500.02235174447, -187500.02235174447, 0.442, -0.026000000000000002, 0.914, 192.0, 0.0, 0.0, 0.0, 0.0, 0.0, 0.0, 0.0, 0.0, 0.0, 1.677527927123423E9, 0.0, 2023-02-27 14:58:47.123
125.0, 7252.3587646912065, 187500.0, 187500.0, 187500.0, -187500.02235174447, -187500.02235174447, -187500.02235174447, -187500.02235174447, 0.442, -0.026000000000000002, 0.91, 192.0, 13.0, 208.0, 255.0, 48.0, 28.0, 112.0, 0.0, 0.0, 0.0, 1.677527927123444E9, 0.0, 2023-02-27 14:58:47.123
126.0, 6949.962013955357, 187500.0, 187500.0, 187500.0, -187500.02235174447, -187500.02235174447, -187500.02235174447, -187500.02235174447, 0.442, -0.026000000000000002, 0.91, 192.0, 0.0, 0.0, 0.0, 0.0, 0.0, 0.0, 0.0, 0.0, 0.0, 1.677527927131416E9, 0.0, 2023-02-27 14:58:47.131
127.0, 6854.363602920009, 187500.0, 187500.0, 187500.0, -187500.02235174447, -187500.02235174447, -187500.02235174447, -187500.02235174447, 0.442, -0.026000000000000002, 0.91, 192.0, 0.0, 0.0, 0.0, 0.0, 0.0, 0.0, 0.0, 0.0, 0.0, 1.677527927131435E9, 0.0, 2023-02-27 14:58:47.131
128.0, 6910.7347024362925, 187500.0, 187500.0, 187500.0, -187500.02235174447, -187500.02235174447, -187500.02235174447, -187500.02235174447, 0.442, -0.026000000000000002, 0.91, 192.0, 0.0, 0.0, 0.0, 0.0, 0.0, 0.0, 0.0, 0.0, 0.0, 1.677527927139435E9, 0.0, 2023-02-27 14:58:47.139
129.0, 6970.659729320972, 187500.0, 187500.0, 187500.0, -187500.02235174447, -187500.02235174447, -187500.02235174447, -187500.02235174447, 0.442, -0.026000000000000002, 0.91, 192.0, 0.0, 0.0, 0.0, 0.0, 0.0, 0.0, 0.0, 0.0, 0.0, 1.677527927139455E9, 0.0, 2023-02-27 14:58:47.139
130.0, 7003.270924481264, 187500.0, 187500.0, 187500.0, -187500.02235174447, -187500.02235174447, -187500.02235174447, -187500.02235174447, 0.442, -0.026000000000000002, 0.91, 192.0, 0.0, 0.0, 0.0, 0.0, 0.0, 0.0, 0.0, 0.0, 0.0, 1.677527927146583E9, 0.0, 2023-02-27 14:58:47.146
131.0, 7404.46238570957, 187500.0, 187500.0, 187500.0, -187500.02235174447, -187500.02235174447, -187500.02235174447, -187500.02235174447, 0.442, -0.026000000000000002, 0.91, 192.0, 0.0, 0.0, 0.0, 0.0, 0.0, 0.0, 0.0, 0.0, 0.0, 1.677527927146601E9, 0.0, 2023-02-27 14:58:47.146
132.0, 6880.112812532522, 187500.0, 187500.0, 187500.0, -187500.02235174447, -187500.02235174447, -187500.02235174447, -187500.02235174447, 0.442, -0.026000000000000002, 0.91, 192.0, 0.0, 0.0, 0.0, 0.0, 0.0, 0.0, 0.0, 0.0, 0.0, 1.677527927154058E9, 0.0, 2023-02-27 14:58:47.154
133.0, 7048.86848317009, 187500.0, 187500.0, 187500.0, -187500.02235174447, -187500.02235174447, -187500.02235174447, -187500.02235174447, 0.442, -0.026000000000000002, 0.91, 192.0, 0.0, 0.0, 0.0, 0.0, 0.0, 0.0, 0.0, 0.0, 0.0, 1.6775279271541E9, 0.0, 2023-02-27 14:58:47.154
134.0, 7330.12048365122, 187500.0, 187500.0, 187500.0, -187500.02235174447, -187500.02235174447, -187500.02235174447, -187500.02235174447, 0.442, -0.026000000000000002, 0.91, 192.0, 0.0, 0.0, 0.0, 0.0, 0.0, 0.0, 0.0, 0.0, 0.0, 1.677527927162117E9, 0.0, 2023-02-27 14:58:47.162
135.0, 5919.636001543522, 187500.0, 187500.0, 187500.0, -187500.02235174447, -187500.02235174447, -187500.02235174447, -187500.02235174447, 0.446, -0.026000000000000002, 0.918, 192.0, 13.0, 240.0, 255.0, 48.0, 28.0, 176.0, 0.0, 0.0, 0.0, 1.677527927162137E9, 0.0, 2023-02-27 14:58:47.162
136.0, 6406.658161480208, 187500.0, 187500.0, 187500.0, -187500.02235174447, -187500.02235174447, -187500.02235174447, -187500.02235174447, 0.446, -0.026000000000000002, 0.918, 192.0, 0.0, 0.0, 0.0, 0.0, 0.0, 0.0, 0.0, 0.0, 0.0, 1.677527927169306E9, 0.0, 2023-02-27 14:58:47.169
137.0, 6921.955278152857, 187500.0, 187500.0, 187500.0, -187500.02235174447, -187500.02235174447, -187500.02235174447, -187500.02235174447, 0.446, -0.026000000000000002, 0.918, 192.0, 0.0, 0.0, 0.0, 0.0, 0.0, 0.0, 0.0, 0.0, 0.0, 1.677527927175658E9, 0.0, 2023-02-27 14:58:47.175
138.0, 6849.155646461922, 187500.0, 187500.0, 187500.0, -187500.02235174447, -187500.02235174447, -187500.02235174447, -187500.02235174447, 0.446, -0.026000000000000002, 0.918, 192.0, 0.0, 0.0, 0.0, 0.0, 0.0, 0.0, 0.0, 0.0, 0.0, 1.677527927175675E9, 0.0, 2023-02-27 14:58:47.175
139.0, 6869.205161238332, 187500.0, 187500.0, 187500.0, -187500.02235174447, -187500.02235174447, -187500.02235174447, -187500.02235174447, 0.446, -0.026000000000000002, 0.918, 192.0, 0.0, 0.0, 0.0, 0.0, 0.0, 0.0, 0.0, 0.0, 0.0, 1.677527927183716E9, 0.0, 2023-02-27 14:58:47.183
140.0, 6990.128098741544, 187500.0, 187500.0, 187500.0, -187500.02235174447, -187500.02235174447, -187500.02235174447, -187500.02235174447, 0.446, -0.026000000000000002, 0.918, 192.0, 0.0, 0.0, 0.0, 0.0, 0.0, 0.0, 0.0, 0.0, 0.0, 1.677527927183737E9, 0.0, 2023-02-27 14:58:47.183
141.0, 7278.7114714040135, 187500.0, 187500.0, 187500.0, -187500.02235174447, -187500.02235174447, -187500.02235174447, -187500.02235174447, 0.446, -0.026000000000000002, 0.918, 192.0, 0.0, 0.0, 0.0, 0.0, 0.0, 0.0, 0.0, 0.0, 0.0, 1.677527927191677E9, 0.0, 2023-02-27 14:58:47.191
142.0, 7059.77613446428, 187500.0, 187500.0, 187500.0, -187500.02235174447, -187500.02235174447, -187500.02235174447, -187500.02235174447, 0.446, -0.026000000000000002, 0.918, 192.0, 0.0, 0.0, 0.0, 0.0, 0.0, 0.0, 0.0, 0.0, 0.0, 1.677527927191692E9, 0.0, 2023-02-27 14:58:47.191
143.0, 6450.13230444578, 187500.0, 187500.0, 187500.0, -187500.02235174447, -187500.02235174447, -187500.02235174447, -187500.02235174447, 0.446, -0.026000000000000002, 0.918, 192.0, 0.0, 0.0, 0.0, 0.0, 0.0, 0.0, 0.0, 0.0, 0.0, 1.67752792719984E9, 0.0, 2023-02-27 14:58:47.199
144.0, 6933.578185269616, 187500.0, 187500.0, 187500.0, -187500.02235174447, -187500.02235174447, -187500.02235174447, -187500.02235174447, 0.446, -0.026000000000000002, 0.918, 192.0, 0.0, 0.0, 0.0, 0.0, 0.0, 0.0, 0.0, 0.0, 0.0, 1.677527927199866E9, 0.0, 2023-02-27 14:58:47.199
145.0, 7394.269990237951, 187500.0, 187500.0, 187500.0, -187500.02235174447, -187500.02235174447, -187500.02235174447, -187500.02235174447, 0.448, -0.026000000000000002, 0.924, 192.0, 14.0, 0.0, 255.0, 48.0, 28.0, 224.0, 0.0, 0.0, 0.0, 1.67752792720635E9, 0.0, 2023-02-27 14:58:47.206
146.0, 6408.893335925739, 187500.0, 187500.0, 187500.0, -187500.02235174447, -187500.02235174447, -187500.02235174447, -187500.02235174447, 0.448, -0.026000000000000002, 0.924, 192.0, 0.0, 0.0, 0.0, 0.0, 0.0, 0.0, 0.0, 0.0, 0.0, 1.677527927206371E9, 0.0, 2023-02-27 14:58:47.206
147.0, 6583.0804804659465, 187500.0, 187500.0, 187500.0, -187500.02235174447, -187500.02235174447, -187500.02235174447, -187500.02235174447, 0.448, -0.026000000000000002, 0.924, 192.0, 0.0, 0.0, 0.0, 0.0, 0.0, 0.0, 0.0, 0.0, 0.0, 1.677527927214494E9, 0.0, 2023-02-27 14:58:47.214
148.0, 6962.411935616963, 187500.0, 187500.0, 187500.0, -187500.02235174447, -187500.02235174447, -187500.02235174447, -187500.02235174447, 0.448, -0.026000000000000002, 0.924, 192.0, 0.0, 0.0, 0.0, 0.0, 0.0, 0.0, 0.0, 0.0, 0.0, 1.677527927214539E9, 0.0, 2023-02-27 14:58:47.214
149.0, 6752.327889481532, 187500.0, 187500.0, 187500.0, -187500.02235174447, -187500.02235174447, -187500.02235174447, -187500.02235174447, 0.448, -0.026000000000000002, 0.924, 192.0, 0.0, 0.0, 0.0, 0.0, 0.0, 0.0, 0.0, 0.0, 0.0, 1.677527927222505E9, 0.0, 2023-02-27 14:58:47.222
150.0, 6541.416828801254, 187500.0, 187500.0, 187500.0, -187500.02235174447, -187500.02235174447, -187500.02235174447, -187500.02235174447, 0.448, -0.026000000000000002, 0.924, 192.0, 0.0, 0.0, 0.0, 0.0, 0.0, 0.0, 0.0, 0.0, 0.0, 1.677527927222522E9, 0.0, 2023-02-27 14:58:47.222
151.0, 7338.54709131087, 187500.0, 187500.0, 187500.0, -187500.02235174447, -187500.02235174447, -187500.02235174447, -187500.02235174447, 0.448, -0.026000000000000002, 0.924, 192.0, 0.0, 0.0, 0.0, 0.0, 0.0, 0.0, 0.0, 0.0, 0.0, 1.677527927228554E9, 0.0, 2023-02-27 14:58:47.228
152.0, 7364.7656875569455, 187500.0, 187500.0, 187500.0, -187500.02235174447, -187500.02235174447, -187500.02235174447, -187500.02235174447, 0.448, -0.026000000000000002, 0.924, 192.0, 0.0, 0.0, 0.0, 0.0, 0.0, 0.0, 0.0, 0.0, 0.0, 1.67752792723602E9, 0.0, 2023-02-27 14:58:47.236
153.0, 7985.786555503197, 187500.0, 187500.0, 187500.0, -187500.02235174447, -187500.02235174447, -187500.02235174447, -187500.02235174447, 0.448, -0.026000000000000002, 0.924, 192.0, 0.0, 0.0, 0.0, 0.0, 0.0, 0.0, 0.0, 0.0, 0.0, 1.677527927236036E9, 0.0, 2023-02-27 14:58:47.236
154.0, 6215.37193243169, 187500.0, 187500.0, 187500.0, -187500.02235174447, -187500.02235174447, -187500.02235174447, -187500.02235174447, 0.446, -0.024, 0.918, 192.0, 13.0, 240.0, 255.0, 64.0, 28.0, 176.0, 0.0, 0.0, 0.0, 1.677527927244036E9, 0.0, 2023-02-27 14:58:47.244
155.0, 5807.363189144515, 187500.0, 187500.0, 187500.0, -187500.02235174447, -187500.02235174447, -187500.02235174447, -187500.02235174447, 0.446, -0.024, 0.918, 192.0, 0.0, 0.0, 0.0, 0.0, 0.0, 0.0, 0.0, 0.0, 0.0, 1.67752792724406E9, 0.0, 2023-02-27 14:58:47.244
156.0, 6712.251211673166, 187500.0, 187500.0, 187500.0, -187500.02235174447, -187500.02235174447, -187500.02235174447, -187500.02235174447, 0.446, -0.024, 0.918, 192.0, 0.0, 0.0, 0.0, 0.0, 0.0, 0.0, 0.0, 0.0, 0.0, 1.677527927251956E9, 0.0, 2023-02-27 14:58:47.251
157.0, 6669.782897208082, 187500.0, 187500.0, 187500.0, -187500.02235174447, -187500.02235174447, -187500.02235174447, -187500.02235174447, 0.446, -0.024, 0.918, 192.0, 0.0, 0.0, 0.0, 0.0, 0.0, 0.0, 0.0, 0.0, 0.0, 1.677527927251971E9, 0.0, 2023-02-27 14:58:47.251
158.0, 6417.163481374202, 187500.0, 187500.0, 187500.0, -187500.02235174447, -187500.02235174447, -187500.02235174447, -187500.02235174447, 0.446, -0.024, 0.918, 192.0, 0.0, 0.0, 0.0, 0.0, 0.0, 0.0, 0.0, 0.0, 0.0, 1.677527927258633E9, 0.0, 2023-02-27 14:58:47.258
159.0, 7188.879810438134, 187500.0, 187500.0, 187500.0, -187500.02235174447, -187500.02235174447, -187500.02235174447, -187500.02235174447, 0.446, -0.024, 0.918, 192.0, 0.0, 0.0, 0.0, 0.0, 0.0, 0.0, 0.0, 0.0, 0.0, 1.677527927258648E9, 0.0, 2023-02-27 14:58:47.258
160.0, 7574.760326714555, 187500.0, 187500.0, 187500.0, -187500.02235174447, -187500.02235174447, -187500.02235174447, -187500.02235174447, 0.446, -0.024, 0.918, 192.0, 0.0, 0.0, 0.0, 0.0, 0.0, 0.0, 0.0, 0.0, 0.0, 1.677527927266563E9, 0.0, 2023-02-27 14:58:47.266
161.0, 6659.657556969829, 187500.0, 187500.0, 187500.0, -187500.02235174447, -187500.02235174447, -187500.02235174447, -187500.02235174447, 0.446, -0.024, 0.918, 192.0, 0.0, 0.0, 0.0, 0.0, 0.0, 0.0, 0.0, 0.0, 0.0, 1.677527927266576E9, 0.0, 2023-02-27 14:58:47.266
162.0, 6995.716034855371, 187500.0, 187500.0, 187500.0, -187500.02235174447, -187500.02235174447, -187500.02235174447, -187500.02235174447, 0.446, -0.024, 0.918, 192.0, 0.0, 0.0, 0.0, 0.0, 0.0, 0.0, 0.0, 0.0, 0.0, 1.677527927274632E9, 0.0, 2023-02-27 14:58:47.274
163.0, 7230.744627802924, 187500.0, 187500.0, 187500.0, -187500.02235174447, -187500.02235174447, -187500.02235174447, -187500.02235174447, 0.446, -0.024, 0.918, 192.0, 0.0, 0.0, 0.0, 0.0, 0.0, 0.0, 0.0, 0.0, 0.0, 1.677527927274687E9, 0.0, 2023-02-27 14:58:47.274
164.0, 6408.334542314356, 187500.0, 187500.0, 187500.0, -187500.02235174447, -187500.02235174447, -187500.02235174447, -187500.02235174447, 0.444, -0.026000000000000002, 0.916, 192.0, 13.0, 224.0, 255.0, 48.0, 28.0, 160.0, 0.0, 0.0, 0.0, 1.677527927281763E9, 0.0, 2023-02-27 14:58:47.281
165.0, 6991.022168519756, 187500.0, 187500.0, 187500.0, -187500.02235174447, -187500.02235174447, -187500.02235174447, -187500.02235174447, 0.444, -0.026000000000000002, 0.916, 192.0, 0.0, 0.0, 0.0, 0.0, 0.0, 0.0, 0.0, 0.0, 0.0, 1.677527927281784E9, 0.0, 2023-02-27 14:58:47.281
166.0, 6662.719745960206, 187500.0, 187500.0, 187500.0, -187500.02235174447, -187500.02235174447, -187500.02235174447, -187500.02235174447, 0.444, -0.026000000000000002, 0.916, 192.0, 0.0, 0.0, 0.0, 0.0, 0.0, 0.0, 0.0, 0.0, 0.0, 1.677527927288451E9, 0.0, 2023-02-27 14:58:47.288
167.0, 5961.456115419402, 187500.0, 187500.0, 187500.0, -187500.02235174447, -187500.02235174447, -187500.02235174447, -187500.02235174447, 0.444, -0.026000000000000002, 0.916, 192.0, 0.0, 0.0, 0.0, 0.0, 0.0, 0.0, 0.0, 0.0, 0.0, 1.67752792729633E9, 0.0, 2023-02-27 14:58:47.296
168.0, 6788.537715499129, 187500.0, 187500.0, 187500.0, -187500.02235174447, -187500.02235174447, -187500.02235174447, -187500.02235174447, 0.444, -0.026000000000000002, 0.916, 192.0, 0.0, 0.0, 0.0, 0.0, 0.0, 0.0, 0.0, 0.0, 0.0, 1.677527927296347E9, 0.0, 2023-02-27 14:58:47.296
169.0, 7472.456392342615, 187500.0, 187500.0, 187500.0, -187500.02235174447, -187500.02235174447, -187500.02235174447, -187500.02235174447, 0.444, -0.026000000000000002, 0.916, 192.0, 0.0, 0.0, 0.0, 0.0, 0.0, 0.0, 0.0, 0.0, 0.0, 1.677527927304388E9, 0.0, 2023-02-27 14:58:47.304
170.0, 6911.405254769952, 187500.0, 187500.0, 187500.0, -187500.02235174447, -187500.02235174447, -187500.02235174447, -187500.02235174447, 0.444, -0.026000000000000002, 0.916, 192.0, 0.0, 0.0, 0.0, 0.0, 0.0, 0.0, 0.0, 0.0, 0.0, 1.677527927304401E9, 0.0, 2023-02-27 14:58:47.304
171.0, 6124.176815054037, 187500.0, 187500.0, 187500.0, -187500.02235174447, -187500.02235174447, -187500.02235174447, -187500.02235174447, 0.444, -0.026000000000000002, 0.916, 192.0, 0.0, 0.0, 0.0, 0.0, 0.0, 0.0, 0.0, 0.0, 0.0, 1.677527927311447E9, 0.0, 2023-02-27 14:58:47.311
172.0, 7234.81264529379, 187500.0, 187500.0, 187500.0, -187500.02235174447, -187500.02235174447, -187500.02235174447, -187500.02235174447, 0.444, -0.026000000000000002, 0.916, 192.0, 0.0, 0.0, 0.0, 0.0, 0.0, 0.0, 0.0, 0.0, 0.0, 1.677527927311462E9, 0.0, 2023-02-27 14:58:47.311
173.0, 7452.5856915218465, 187500.0, 187500.0, 187500.0, -187500.02235174447, -187500.02235174447, -187500.02235174447, -187500.02235174447, 0.444, -0.026000000000000002, 0.916, 192.0, 0.0, 0.0, 0.0, 0.0, 0.0, 0.0, 0.0, 0.0, 0.0, 1.677527927318867E9, 0.0, 2023-02-27 14:58:47.318
174.0, 6222.345676701746, 187500.0, 187500.0, 187500.0, -187500.02235174447, -187500.02235174447, -187500.02235174447, -187500.02235174447, 0.442, -0.022, 0.914, 192.0, 13.0, 208.0, 255.0, 80.0, 28.0, 144.0, 0.0, 0.0, 0.0, 1.677527927318888E9, 0.0, 2023-02-27 14:58:47.318
175.0, 6016.530813757278, 187500.0, 187500.0, 187500.0, -187500.02235174447, -187500.02235174447, -187500.02235174447, -187500.02235174447, 0.442, -0.022, 0.914, 192.0, 0.0, 0.0, 0.0, 0.0, 0.0, 0.0, 0.0, 0.0, 0.0, 1.677527927326904E9, 0.0, 2023-02-27 14:58:47.326
176.0, 6488.107918275347, 187500.0, 187500.0, 187500.0, -187500.02235174447, -187500.02235174447, -187500.02235174447, -187500.02235174447, 0.442, -0.022, 0.914, 192.0, 0.0, 0.0, 0.0, 0.0, 0.0, 0.0, 0.0, 0.0, 0.0, 1.677527927326922E9, 0.0, 2023-02-27 14:58:47.326
177.0, 6694.995664953669, 187500.0, 187500.0, 187500.0, -187500.02235174447, -187500.02235174447, -187500.02235174447, -187500.02235174447, 0.442, -0.022, 0.914, 192.0, 0.0, 0.0, 0.0, 0.0, 0.0, 0.0, 0.0, 0.0, 0.0, 1.677527927334144E9, 0.0, 2023-02-27 14:58:47.334
178.0, 6948.732668010315, 187500.0, 187500.0, 187500.0, -187500.02235174447, -187500.02235174447, -187500.02235174447, -187500.02235174447, 0.442, -0.022, 0.914, 192.0, 0.0, 0.0, 0.0, 0.0, 0.0, 0.0, 0.0, 0.0, 0.0, 1.677527927334203E9, 0.0, 2023-02-27 14:58:47.334
179.0, 6999.359369201586, 187500.0, 187500.0, 187500.0, -187500.02235174447, -187500.02235174447, -187500.02235174447, -187500.02235174447, 0.442, -0.022, 0.914, 192.0, 0.0, 0.0, 0.0, 0.0, 0.0, 0.0, 0.0, 0.0, 0.0, 1.677527927341469E9, 0.0, 2023-02-27 14:58:47.341
180.0, 6713.972295996225, 187500.0, 187500.0, 187500.0, -187500.02235174447, -187500.02235174447, -187500.02235174447, -187500.02235174447, 0.442, -0.022, 0.914, 192.0, 0.0, 0.0, 0.0, 0.0, 0.0, 0.0, 0.0, 0.0, 0.0, 1.677527927341485E9, 0.0, 2023-02-27 14:58:47.341
181.0, 6695.08507193149, 187500.0, 187500.0, 187500.0, -187500.02235174447, -187500.02235174447, -187500.02235174447, -187500.02235174447, 0.442, -0.022, 0.914, 192.0, 0.0, 0.0, 0.0, 0.0, 0.0, 0.0, 0.0, 0.0, 0.0, 1.677527927348614E9, 0.0, 2023-02-27 14:58:47.348
182.0, 6518.8639186458495, 187500.0, 187500.0, 187500.0, -187500.02235174447, -187500.02235174447, -187500.02235174447, -187500.02235174447, 0.442, -0.022, 0.914, 192.0, 0.0, 0.0, 0.0, 0.0, 0.0, 0.0, 0.0, 0.0, 0.0, 1.677527927348627E9, 0.0, 2023-02-27 14:58:47.348
183.0, 6401.539611999943, 187500.0, 187500.0, 187500.0, -187500.02235174447, -187500.02235174447, -187500.02235174447, -187500.02235174447, 0.442, -0.022, 0.914, 192.0, 0.0, 0.0, 0.0, 0.0, 0.0, 0.0, 0.0, 0.0, 0.0, 1.677527927356655E9, 0.0, 2023-02-27 14:58:47.356
184.0, 7412.173737546652, 187500.0, 187500.0, 187500.0, -187500.02235174447, -187500.02235174447, -187500.02235174447, -187500.02235174447, 0.444, -0.024, 0.912, 192.0, 13.0, 224.0, 255.0, 64.0, 28.0, 128.0, 0.0, 0.0, 0.0, 1.677527927363718E9, 0.0, 2023-02-27 14:58:47.363
185.0, 6487.459717686143, 187500.0, 187500.0, 187500.0, -187500.02235174447, -187500.02235174447, -187500.02235174447, -187500.02235174447, 0.444, -0.024, 0.912, 192.0, 0.0, 0.0, 0.0, 0.0, 0.0, 0.0, 0.0, 0.0, 0.0, 1.677527927363737E9, 0.0, 2023-02-27 14:58:47.363
186.0, 6302.0296456849155, 187500.0, 187500.0, 187500.0, -187500.02235174447, -187500.02235174447, -187500.02235174447, -187500.02235174447, 0.444, -0.024, 0.912, 192.0, 0.0, 0.0, 0.0, 0.0, 0.0, 0.0, 0.0, 0.0, 0.0, 1.67752792737119E9, 0.0, 2023-02-27 14:58:47.371
187.0, 6548.01059341557, 187500.0, 187500.0, 187500.0, -187500.02235174447, -187500.02235174447, -187500.02235174447, -187500.02235174447, 0.444, -0.024, 0.912, 192.0, 0.0, 0.0, 0.0, 0.0, 0.0, 0.0, 0.0, 0.0, 0.0, 1.677527927371205E9, 0.0, 2023-02-27 14:58:47.371
